************************************************************
  HL Scan of (1) Internal mercury lamp
************************************************************
Integration time is 0.2294 seconds per sample
dh070117Tamanrasset 22.79-5.529 2.654632pr865
************************************************************
Dead Time -------------------------  2.8E-08 
Number of Cycles Used -------------  4 
Starting Wavelength (Angstroms) ---  3331 
Final Wavelength (Angstoms) -------  3351 
Wavelength Increment (Angstroms) --  .25 
Filter Wheel #1 Position ---------- (1) Ground quartz diffuser (ND=2.32)
Filter Wheel #2 Position ---------- (0) Clear Aperture



************************************************************
HL scan start time = 04:19:35
Dark Count =  4 


Time (GMT)  Wavelength (Ang)  Step Number  Raw Counts  Counts/Second

  260.09        3331.00           6581           8.00        17.44
  260.31        3331.25           6585           8.00        17.44
  260.34        3331.50           6589           3.00         2.00
  260.36        3331.75           6593           0.00         2.00
  260.39        3332.00           6596           0.00         2.00
  260.42        3332.25           6600           8.00        17.44
  260.45        3332.50           6604           8.00        17.44
  260.47        3332.75           6608           8.00        17.44
  260.50        3333.00           6611           8.00        17.44
  260.53        3333.25           6615           8.00        17.44
  260.56        3333.50           6619           0.00         2.00
  260.58        3333.75           6623           8.00        17.44
  260.61        3334.00           6626           4.00         2.00
  260.64        3334.25           6630           0.00         2.00
  260.66        3334.50           6634           8.00        17.44
  260.69        3334.75           6638           0.00         2.00
  260.72        3335.00           6641           8.00        17.44
  260.75        3335.25           6645           8.00        17.44
  260.77        3335.50           6649           7.00        13.08
  260.80        3335.75           6653           8.00        17.44
  260.83        3336.00           6656           2.00         2.00
  260.86        3336.25           6660           5.00         4.36
  260.88        3336.50           6664           8.00        17.44
  260.91        3336.75           6668           8.00        17.44
  260.94        3337.00           6671           0.00         2.00
  260.96        3337.25           6675           8.00        17.44
  260.99        3337.50           6679           1.00         2.00
  261.02        3337.75           6683           8.00        17.44
  261.05        3338.00           6686           8.00        17.44
  261.07        3338.25           6690           4.00         2.00
  261.10        3338.50           6694           0.00         2.00
  261.13        3338.75           6698           1.00         2.00
  261.16        3339.00           6701           6.00         8.72
  261.18        3339.25           6705           5.00         4.36
  261.21        3339.50           6709           1.00         2.00
  261.24        3339.75           6713           8.00        17.44
  261.26        3340.00           6716           0.00         2.00
  261.29        3340.25           6720           0.00         2.00
  261.32        3340.50           6724           2.00         2.00
  261.35        3340.75           6728           8.00        17.44
  261.37        3341.00           6731           3.00         2.00
  261.40        3341.25           6735           8.00        17.44
  261.43        3341.50           6739           4.00         2.00
  261.45        3341.75           6743           0.00         2.00
  261.48        3342.00           6746           0.00         2.00
  261.51        3342.25           6750           0.00         2.00
  261.54        3342.50           6754           5.00         4.36
  261.56        3342.75           6758           8.00        17.44
  261.59        3343.00           6761           8.00        17.44
  261.62        3343.25           6765           1.00         2.00
  261.65        3343.50           6769           6.00         8.72
  261.67        3343.75           6773           0.00         2.00
  261.70        3344.00           6776           0.00         2.00
  261.73        3344.25           6780           0.00         2.00
  261.75        3344.50           6784           8.00        17.44
  261.78        3344.75           6788           1.00         2.00
  261.81        3345.00           6791           8.00        17.44
  261.84        3345.25           6795           6.00         8.72
  261.86        3345.50           6799           2.00         2.00
  261.89        3345.75           6803           8.00        17.44
  261.92        3346.00           6806           8.00        17.44
  261.95        3346.25           6810           4.00         2.00
  261.97        3346.50           6814           8.00        17.44
  262.00        3346.75           6818           4.00         2.00
  262.03        3347.00           6821           0.00         2.00
  262.05        3347.25           6825           5.00         4.36
  262.08        3347.50           6829           8.00        17.44
  262.11        3347.75           6833           4.00         2.00
  262.14        3348.00           6836           0.00         2.00
  262.16        3348.25           6840           8.00        17.44
  262.19        3348.50           6844           0.00         2.00
  262.22        3348.75           6848           0.00         2.00
  262.24        3349.00           6851           3.00         2.00
  262.27        3349.25           6855           7.00        13.08
  262.30        3349.50           6859           0.00         2.00
  262.33        3349.75           6863           1.00         2.00
  262.35        3350.00           6867           6.00         8.72
  262.38        3350.25           6870           0.00         2.00
  262.41        3350.50           6874           0.00         2.00
  262.44        3350.75           6878           0.00         2.00
  262.46        3351.00           6882           8.00        17.44
HL scan finished at 04:23:05
end
