************************************************************
  HL Scan of (1) Internal mercury lamp
************************************************************
Integration time is 0.2294 seconds per sample
dh080117Tamanrasset 22.79-5.529 2.65973pr865
************************************************************
Dead Time -------------------------  2.8E-08 
Number of Cycles Used -------------  4 
Starting Wavelength (Angstroms) ---  3331 
Final Wavelength (Angstoms) -------  3351 
Wavelength Increment (Angstroms) --  .25 
Filter Wheel #1 Position ---------- (1) Ground quartz diffuser (ND=2.32)
Filter Wheel #2 Position ---------- (0) Clear Aperture



************************************************************
HL scan start time = 04:20:36
Dark Count =  5.3 


Time (GMT)  Wavelength (Ang)  Step Number  Raw Counts  Counts/Second

  261.11        3331.00           6581           7.00         7.41
  261.32        3331.25           6585           8.00        11.77
  261.35        3331.50           6589           0.00         2.00
  261.38        3331.75           6593           8.00        11.77
  261.41        3332.00           6596           8.00        11.77
  261.43        3332.25           6600           0.00         2.00
  261.46        3332.50           6604           8.00        11.77
  261.49        3332.75           6608           8.00        11.77
  261.51        3333.00           6611           8.00        11.77
  261.54        3333.25           6615           0.00         2.00
  261.57        3333.50           6619           8.00        11.77
  261.60        3333.75           6623           8.00        11.77
  261.62        3334.00           6626           8.00        11.77
  261.65        3334.25           6630           5.00         2.00
  261.68        3334.50           6634           4.00         2.00
  261.71        3334.75           6638           8.00        11.77
  261.73        3335.00           6641           8.00        11.77
  261.76        3335.25           6645           8.00        11.77
  261.79        3335.50           6649           8.00        11.77
  261.82        3335.75           6653           8.00        11.77
  261.84        3336.00           6656           0.00         2.00
  261.87        3336.25           6660           0.00         2.00
  261.90        3336.50           6664           5.00         2.00
  261.92        3336.75           6668           5.00         2.00
  261.95        3337.00           6671           3.00         2.00
  261.98        3337.25           6675           0.00         2.00
  262.01        3337.50           6679           0.00         2.00
  262.03        3337.75           6683           8.00        11.77
  262.06        3338.00           6686           8.00        11.77
  262.09        3338.25           6690           0.00         2.00
  262.11        3338.50           6694           2.00         2.00
  262.14        3338.75           6698           3.00         2.00
  262.17        3339.00           6701           8.00        11.77
  262.20        3339.25           6705           0.00         2.00
  262.22        3339.50           6709           2.00         2.00
  262.25        3339.75           6713           8.00        11.77
  262.28        3340.00           6716           5.00         2.00
  262.31        3340.25           6720           0.00         2.00
  262.33        3340.50           6724           1.00         2.00
  262.36        3340.75           6728           0.00         2.00
  262.39        3341.00           6731           5.00         2.00
  262.42        3341.25           6735           0.00         2.00
  262.44        3341.50           6739           5.00         2.00
  262.47        3341.75           6743           8.00        11.77
  262.50        3342.00           6746           5.00         2.00
  262.52        3342.25           6750           7.00         7.41
  262.55        3342.50           6754           8.00        11.77
  262.58        3342.75           6758           0.00         2.00
  262.61        3343.00           6761           7.00         7.41
  262.63        3343.25           6765           8.00        11.77
  262.66        3343.50           6769           1.00         2.00
  262.69        3343.75           6773           6.00         3.05
  262.71        3344.00           6776           8.00        11.77
  262.74        3344.25           6780           2.00         2.00
  262.77        3344.50           6784           0.00         2.00
  262.80        3344.75           6788           6.00         3.05
  262.82        3345.00           6791           2.00         2.00
  262.85        3345.25           6795           4.00         2.00
  262.88        3345.50           6799           4.00         2.00
  262.91        3345.75           6803           6.00         3.05
  262.93        3346.00           6806           0.00         2.00
  262.96        3346.25           6810           8.00        11.77
  262.99        3346.50           6814           8.00        11.77
  263.01        3346.75           6818           6.00         3.05
  263.04        3347.00           6821           4.00         2.00
  263.07        3347.25           6825           2.00         2.00
  263.10        3347.50           6829           8.00        11.77
  263.12        3347.75           6833           8.00        11.77
  263.15        3348.00           6836           7.00         7.41
  263.18        3348.25           6840           0.00         2.00
  263.21        3348.50           6844           0.00         2.00
  263.23        3348.75           6848           4.00         2.00
  263.26        3349.00           6851           5.00         2.00
  263.29        3349.25           6855           7.00         7.41
  263.31        3349.50           6859           8.00        11.77
  263.34        3349.75           6863           0.00         2.00
  263.37        3350.00           6867           4.00         2.00
  263.40        3350.25           6870           7.00         7.41
  263.42        3350.50           6874           8.00        11.77
  263.45        3350.75           6878           0.00         2.00
  263.48        3351.00           6882           1.00         2.00
HL scan finished at 04:24:06
end
