************************************************************
  HL Scan of (1) Internal mercury lamp
************************************************************
Integration time is 0.2294 seconds per sample
dh040117Tamanrasset 22.79-5.529 2.654632pr865
************************************************************
Dead Time -------------------------  2.8E-08 
Number of Cycles Used -------------  4 
Starting Wavelength (Angstroms) ---  3331 
Final Wavelength (Angstoms) -------  3351 
Wavelength Increment (Angstroms) --  .25 
Filter Wheel #1 Position ---------- (1) Ground quartz diffuser (ND=2.32)
Filter Wheel #2 Position ---------- (0) Clear Aperture



************************************************************
HL scan start time = 04:19:33
Dark Count =  3.7 


Time (GMT)  Wavelength (Ang)  Step Number  Raw Counts  Counts/Second

  260.06        3331.00           6581           1.00         2.00
  260.28        3331.25           6585           8.00        18.74
  260.30        3331.50           6589           5.00         5.67
  260.33        3331.75           6593           2.00         2.00
  260.36        3332.00           6596           7.00        14.39
  260.39        3332.25           6600           8.00        18.74
  260.41        3332.50           6604           0.00         2.00
  260.44        3332.75           6608           0.00         2.00
  260.47        3333.00           6611           0.00         2.00
  260.49        3333.25           6615           0.00         2.00
  260.52        3333.50           6619           4.00         2.00
  260.55        3333.75           6623           0.00         2.00
  260.58        3334.00           6626           3.00         2.00
  260.60        3334.25           6630           0.00         2.00
  260.63        3334.50           6634           4.00         2.00
  260.66        3334.75           6638           8.00        18.74
  260.69        3335.00           6641           5.00         5.67
  260.71        3335.25           6645           8.00        18.74
  260.74        3335.50           6649           3.00         2.00
  260.77        3335.75           6653           8.00        18.74
  260.79        3336.00           6656           7.00        14.39
  260.82        3336.25           6660           8.00        18.74
  260.85        3336.50           6664           8.00        18.74
  260.88        3336.75           6668           0.00         2.00
  260.90        3337.00           6671           8.00        18.74
  260.93        3337.25           6675           4.00         2.00
  260.96        3337.50           6679           3.00         2.00
  260.98        3337.75           6683           8.00        18.74
  261.01        3338.00           6686           2.00         2.00
  261.04        3338.25           6690           7.00        14.39
  261.07        3338.50           6694           0.00         2.00
  261.09        3338.75           6698           0.00         2.00
  261.12        3339.00           6701           8.00        18.74
  261.15        3339.25           6705           0.00         2.00
  261.18        3339.50           6709           6.00        10.03
  261.20        3339.75           6713           4.00         2.00
  261.23        3340.00           6716           1.00         2.00
  261.26        3340.25           6720           6.00        10.03
  261.28        3340.50           6724           8.00        18.74
  261.31        3340.75           6728           8.00        18.74
  261.34        3341.00           6731           2.00         2.00
  261.37        3341.25           6735           3.00         2.00
  261.39        3341.50           6739           3.00         2.00
  261.42        3341.75           6743           0.00         2.00
  261.45        3342.00           6746           7.00        14.39
  261.48        3342.25           6750           8.00        18.74
  261.50        3342.50           6754           0.00         2.00
  261.53        3342.75           6758           1.00         2.00
  261.56        3343.00           6761           8.00        18.74
  261.58        3343.25           6765           1.00         2.00
  261.61        3343.50           6769           8.00        18.74
  261.64        3343.75           6773           7.00        14.39
  261.67        3344.00           6776           1.00         2.00
  261.69        3344.25           6780           3.00         2.00
  261.72        3344.50           6784           8.00        18.74
  261.75        3344.75           6788           2.00         2.00
  261.77        3345.00           6791           8.00        18.74
  261.80        3345.25           6795           7.00        14.39
  261.83        3345.50           6799           0.00         2.00
  261.86        3345.75           6803           8.00        18.74
  261.88        3346.00           6806           2.00         2.00
  261.91        3346.25           6810           6.00        10.03
  261.94        3346.50           6814           8.00        18.74
  261.97        3346.75           6818           8.00        18.74
  261.99        3347.00           6821           3.00         2.00
  262.02        3347.25           6825           8.00        18.74
  262.05        3347.50           6829           0.00         2.00
  262.07        3347.75           6833           0.00         2.00
  262.10        3348.00           6836           8.00        18.74
  262.13        3348.25           6840           1.00         2.00
  262.16        3348.50           6844           3.00         2.00
  262.18        3348.75           6848           0.00         2.00
  262.21        3349.00           6851           5.00         5.67
  262.24        3349.25           6855           0.00         2.00
  262.27        3349.50           6859           0.00         2.00
  262.29        3349.75           6863           4.00         2.00
  262.32        3350.00           6867           0.00         2.00
  262.35        3350.25           6870           6.00        10.03
  262.37        3350.50           6874           1.00         2.00
  262.40        3350.75           6878           0.00         2.00
  262.43        3351.00           6882           0.00         2.00
HL scan finished at 04:23:03
end
