************************************************************
  HL Scan of (1) Internal mercury lamp
************************************************************
Integration time is 0.2294 seconds per sample
dh060117Tamanrasset 22.79-5.529 2.639337pr865
************************************************************
Dead Time -------------------------  2.8E-08 
Number of Cycles Used -------------  4 
Starting Wavelength (Angstroms) ---  3331 
Final Wavelength (Angstoms) -------  3351 
Wavelength Increment (Angstroms) --  .25 
Filter Wheel #1 Position ---------- (1) Ground quartz diffuser (ND=2.32)
Filter Wheel #2 Position ---------- (0) Clear Aperture



************************************************************
HL scan start time = 04:20:02
Dark Count =  5.2 


Time (GMT)  Wavelength (Ang)  Step Number  Raw Counts  Counts/Second

  260.54        3331.00           6581           0.00         2.00
  260.76        3331.25           6585           0.00         2.00
  260.79        3331.50           6589           0.00         2.00
  260.81        3331.75           6593           0.00         2.00
  260.84        3332.00           6596           4.00         2.00
  260.87        3332.25           6600           8.00        12.21
  260.90        3332.50           6604           0.00         2.00
  260.92        3332.75           6608           0.00         2.00
  260.95        3333.00           6611           8.00        12.21
  260.98        3333.25           6615           8.00        12.21
  261.01        3333.50           6619           8.00        12.21
  261.03        3333.75           6623           0.00         2.00
  261.06        3334.00           6626           0.00         2.00
  261.09        3334.25           6630           0.00         2.00
  261.11        3334.50           6634           8.00        12.21
  261.14        3334.75           6638           8.00        12.21
  261.17        3335.00           6641           4.00         2.00
  261.20        3335.25           6645           8.00        12.21
  261.22        3335.50           6649           0.00         2.00
  261.25        3335.75           6653           8.00        12.21
  261.28        3336.00           6656           8.00        12.21
  261.30        3336.25           6660           8.00        12.21
  261.33        3336.50           6664           6.00         3.49
  261.36        3336.75           6668           0.00         2.00
  261.39        3337.00           6671           8.00        12.21
  261.41        3337.25           6675           0.00         2.00
  261.44        3337.50           6679           0.00         2.00
  261.47        3337.75           6683           4.00         2.00
  261.50        3338.00           6686           4.00         2.00
  261.52        3338.25           6690           8.00        12.21
  261.55        3338.50           6694           8.00        12.21
  261.58        3338.75           6698           8.00        12.21
  261.60        3339.00           6701           0.00         2.00
  261.63        3339.25           6705           8.00        12.21
  261.66        3339.50           6709           8.00        12.21
  261.69        3339.75           6713           0.00         2.00
  261.71        3340.00           6716           0.00         2.00
  261.74        3340.25           6720           3.00         2.00
  261.77        3340.50           6724           1.00         2.00
  261.79        3340.75           6728           8.00        12.21
  261.82        3341.00           6731           0.00         2.00
  261.85        3341.25           6735           8.00        12.21
  261.88        3341.50           6739           0.00         2.00
  261.90        3341.75           6743           2.00         2.00
  261.93        3342.00           6746           8.00        12.21
  261.96        3342.25           6750           5.00         2.00
  261.99        3342.50           6754           5.00         2.00
  262.01        3342.75           6758           4.00         2.00
  262.04        3343.00           6761           2.00         2.00
  262.07        3343.25           6765           8.00        12.21
  262.09        3343.50           6769           0.00         2.00
  262.12        3343.75           6773           0.00         2.00
  262.15        3344.00           6776           5.00         2.00
  262.18        3344.25           6780           0.00         2.00
  262.20        3344.50           6784           3.00         2.00
  262.23        3344.75           6788           8.00        12.21
  262.26        3345.00           6791           4.00         2.00
  262.29        3345.25           6795           8.00        12.21
  262.31        3345.50           6799           8.00        12.21
  262.34        3345.75           6803           5.00         2.00
  262.37        3346.00           6806           6.00         3.49
  262.39        3346.25           6810           0.00         2.00
  262.42        3346.50           6814           0.00         2.00
  262.45        3346.75           6818           8.00        12.21
  262.48        3347.00           6821           5.00         2.00
  262.50        3347.25           6825           7.00         7.85
  262.53        3347.50           6829           0.00         2.00
  262.56        3347.75           6833           4.00         2.00
  262.58        3348.00           6836           3.00         2.00
  262.61        3348.25           6840           8.00        12.21
  262.64        3348.50           6844           8.00        12.21
  262.67        3348.75           6848           0.00         2.00
  262.69        3349.00           6851           8.00        12.21
  262.72        3349.25           6855           8.00        12.21
  262.75        3349.50           6859           8.00        12.21
  262.77        3349.75           6863           0.00         2.00
  262.80        3350.00           6867           8.00        12.21
  262.83        3350.25           6870           8.00        12.21
  262.86        3350.50           6874           0.00         2.00
  262.88        3350.75           6878           0.00         2.00
  262.91        3351.00           6882           5.00         2.00
HL scan finished at 04:23:32
end
