************************************************************
  HL Scan of (1) Internal mercury lamp
************************************************************
Integration time is 0.2294 seconds per sample
dh020117Tamanrasset 22.79-5.529 2.644435pr865
************************************************************
Dead Time -------------------------  2.8E-08 
Number of Cycles Used -------------  4 
Starting Wavelength (Angstroms) ---  3331 
Final Wavelength (Angstoms) -------  3351 
Wavelength Increment (Angstroms) --  .25 
Filter Wheel #1 Position ---------- (1) Ground quartz diffuser (ND=2.32)
Filter Wheel #2 Position ---------- (0) Clear Aperture



************************************************************
HL scan start time = 04:18:21
Dark Count =  3.2 


Time (GMT)  Wavelength (Ang)  Step Number  Raw Counts  Counts/Second

  258.86        3331.00           6581           8.00        20.92
  259.08        3331.25           6585           6.00        12.21
  259.10        3331.50           6589           8.00        20.92
  259.13        3331.75           6593           0.00         2.00
  259.16        3332.00           6596           5.00         7.85
  259.19        3332.25           6600           2.00         2.00
  259.21        3332.50           6604           8.00        20.92
  259.24        3332.75           6608           1.00         2.00
  259.27        3333.00           6611           0.00         2.00
  259.29        3333.25           6615           0.00         2.00
  259.32        3333.50           6619           8.00        20.92
  259.35        3333.75           6623           8.00        20.92
  259.38        3334.00           6626           0.00         2.00
  259.40        3334.25           6630           0.00         2.00
  259.43        3334.50           6634           8.00        20.92
  259.46        3334.75           6638           6.00        12.21
  259.49        3335.00           6641           0.00         2.00
  259.51        3335.25           6645           1.00         2.00
  259.54        3335.50           6649           2.00         2.00
  259.57        3335.75           6653           6.00        12.21
  259.59        3336.00           6656           8.00        20.92
  259.62        3336.25           6660           5.00         7.85
  259.65        3336.50           6664           2.00         2.00
  259.68        3336.75           6668           0.00         2.00
  259.70        3337.00           6671           7.00        16.56
  259.73        3337.25           6675           2.00         2.00
  259.76        3337.50           6679           0.00         2.00
  259.79        3337.75           6683           6.00        12.21
  259.81        3338.00           6686           4.00         3.49
  259.84        3338.25           6690           0.00         2.00
  259.87        3338.50           6694           0.00         2.00
  259.89        3338.75           6698           8.00        20.92
  259.92        3339.00           6701           1.00         2.00
  259.95        3339.25           6705           8.00        20.92
  259.98        3339.50           6709           7.00        16.56
  260.00        3339.75           6713           0.00         2.00
  260.03        3340.00           6716           5.00         7.85
  260.06        3340.25           6720           8.00        20.92
  260.09        3340.50           6724           8.00        20.92
  260.11        3340.75           6728           8.00        20.92
  260.14        3341.00           6731           8.00        20.92
  260.17        3341.25           6735           0.00         2.00
  260.19        3341.50           6739           7.00        16.56
  260.22        3341.75           6743           2.00         2.00
  260.25        3342.00           6746           0.00         2.00
  260.28        3342.25           6750           0.00         2.00
  260.30        3342.50           6754           0.00         2.00
  260.33        3342.75           6758           0.00         2.00
  260.36        3343.00           6761           8.00        20.92
  260.38        3343.25           6765           8.00        20.92
  260.41        3343.50           6769           8.00        20.92
  260.44        3343.75           6773           0.00         2.00
  260.47        3344.00           6776           0.00         2.00
  260.49        3344.25           6780           7.00        16.56
  260.52        3344.50           6784           7.00        16.56
  260.55        3344.75           6788           8.00        20.92
  260.58        3345.00           6791           0.00         2.00
  260.60        3345.25           6795           1.00         2.00
  260.63        3345.50           6799           4.00         3.49
  260.66        3345.75           6803           0.00         2.00
  260.68        3346.00           6806           6.00        12.21
  260.71        3346.25           6810           0.00         2.00
  260.74        3346.50           6814           3.00         2.00
  260.77        3346.75           6818           4.00         3.49
  260.79        3347.00           6821           0.00         2.00
  260.82        3347.25           6825           8.00        20.92
  260.85        3347.50           6829           4.00         3.49
  260.88        3347.75           6833           1.00         2.00
  260.90        3348.00           6836           8.00        20.92
  260.93        3348.25           6840           3.00         2.00
  260.96        3348.50           6844           0.00         2.00
  260.98        3348.75           6848           0.00         2.00
  261.01        3349.00           6851           8.00        20.92
  261.04        3349.25           6855           0.00         2.00
  261.07        3349.50           6859           0.00         2.00
  261.09        3349.75           6863           4.00         3.49
  261.12        3350.00           6867           0.00         2.00
  261.15        3350.25           6870           8.00        20.92
  261.17        3350.50           6874           8.00        20.92
  261.20        3350.75           6878           0.00         2.00
  261.23        3351.00           6882           0.00         2.00
HL scan finished at 04:21:51
end
