************************************************************
  HL Scan of (1) Internal mercury lamp
************************************************************
Integration time is 0.2294 seconds per sample
dh050117Tamanrasset 22.79-5.529 2.644435pr865
************************************************************
Dead Time -------------------------  2.8E-08 
Number of Cycles Used -------------  4 
Starting Wavelength (Angstroms) ---  3331 
Final Wavelength (Angstoms) -------  3351 
Wavelength Increment (Angstroms) --  .25 
Filter Wheel #1 Position ---------- (1) Ground quartz diffuser (ND=2.32)
Filter Wheel #2 Position ---------- (0) Clear Aperture



************************************************************
HL scan start time = 04:19:34
Dark Count =  3.2 


Time (GMT)  Wavelength (Ang)  Step Number  Raw Counts  Counts/Second

  260.07        3331.00           6581           0.00         2.00
  260.29        3331.25           6585           8.00        20.92
  260.32        3331.50           6589           0.00         2.00
  260.35        3331.75           6593           7.00        16.56
  260.37        3332.00           6596           8.00        20.92
  260.40        3332.25           6600           0.00         2.00
  260.43        3332.50           6604           1.00         2.00
  260.46        3332.75           6608           6.00        12.21
  260.48        3333.00           6611           0.00         2.00
  260.51        3333.25           6615           8.00        20.92
  260.54        3333.50           6619           8.00        20.92
  260.57        3333.75           6623           4.00         3.49
  260.59        3334.00           6626           0.00         2.00
  260.62        3334.25           6630           8.00        20.92
  260.65        3334.50           6634           8.00        20.92
  260.67        3334.75           6638           8.00        20.92
  260.70        3335.00           6641           7.00        16.56
  260.73        3335.25           6645           8.00        20.92
  260.76        3335.50           6649           8.00        20.92
  260.78        3335.75           6653           0.00         2.00
  260.81        3336.00           6656           4.00         3.49
  260.84        3336.25           6660           7.00        16.56
  260.87        3336.50           6664           8.00        20.92
  260.89        3336.75           6668           5.00         7.85
  260.92        3337.00           6671           8.00        20.92
  260.95        3337.25           6675           3.00         2.00
  260.97        3337.50           6679           8.00        20.92
  261.00        3337.75           6683           0.00         2.00
  261.03        3338.00           6686           0.00         2.00
  261.06        3338.25           6690           8.00        20.92
  261.08        3338.50           6694           0.00         2.00
  261.11        3338.75           6698           4.00         3.49
  261.14        3339.00           6701           6.00        12.21
  261.17        3339.25           6705           8.00        20.92
  261.19        3339.50           6709           0.00         2.00
  261.22        3339.75           6713           8.00        20.92
  261.25        3340.00           6716           8.00        20.92
  261.27        3340.25           6720           0.00         2.00
  261.30        3340.50           6724           8.00        20.92
  261.33        3340.75           6728           8.00        20.92
  261.36        3341.00           6731           0.00         2.00
  261.38        3341.25           6735           8.00        20.92
  261.41        3341.50           6739           8.00        20.92
  261.44        3341.75           6743           0.00         2.00
  261.47        3342.00           6746           0.00         2.00
  261.49        3342.25           6750           2.00         2.00
  261.52        3342.50           6754           0.00         2.00
  261.55        3342.75           6758           8.00        20.92
  261.57        3343.00           6761           0.00         2.00
  261.60        3343.25           6765           0.00         2.00
  261.63        3343.50           6769           4.00         3.49
  261.66        3343.75           6773           1.00         2.00
  261.68        3344.00           6776           0.00         2.00
  261.71        3344.25           6780           0.00         2.00
  261.74        3344.50           6784           0.00         2.00
  261.77        3344.75           6788           0.00         2.00
  261.79        3345.00           6791           0.00         2.00
  261.82        3345.25           6795           8.00        20.92
  261.85        3345.50           6799           4.00         3.49
  261.87        3345.75           6803           0.00         2.00
  261.90        3346.00           6806           8.00        20.92
  261.93        3346.25           6810           0.00         2.00
  261.96        3346.50           6814           1.00         2.00
  261.98        3346.75           6818           8.00        20.92
  262.01        3347.00           6821           8.00        20.92
  262.04        3347.25           6825           0.00         2.00
  262.07        3347.50           6829           8.00        20.92
  262.09        3347.75           6833           8.00        20.92
  262.12        3348.00           6836           5.00         7.85
  262.15        3348.25           6840           0.00         2.00
  262.17        3348.50           6844           8.00        20.92
  262.20        3348.75           6848           7.00        16.56
  262.23        3349.00           6851           8.00        20.92
  262.26        3349.25           6855           8.00        20.92
  262.28        3349.50           6859           0.00         2.00
  262.31        3349.75           6863           8.00        20.92
  262.34        3350.00           6867           7.00        16.56
  262.36        3350.25           6870           8.00        20.92
  262.39        3350.50           6874           0.00         2.00
  262.42        3350.75           6878           0.00         2.00
  262.45        3351.00           6882           7.00        16.56
HL scan finished at 04:23:04
end
