************************************************************
  HL Scan of (1) Internal mercury lamp
************************************************************
Integration time is 0.2294 seconds per sample
dh090117Tamanrasset 22.79-5.529 2.654632pr865
************************************************************
Dead Time -------------------------  2.8E-08 
Number of Cycles Used -------------  4 
Starting Wavelength (Angstroms) ---  3331 
Final Wavelength (Angstoms) -------  3351 
Wavelength Increment (Angstroms) --  .25 
Filter Wheel #1 Position ---------- (1) Ground quartz diffuser (ND=2.32)
Filter Wheel #2 Position ---------- (0) Clear Aperture



************************************************************
HL scan start time = 04:20:32
Dark Count =  4.2 


Time (GMT)  Wavelength (Ang)  Step Number  Raw Counts  Counts/Second

  261.05        3331.00           6581           8.00        16.56
  261.27        3331.25           6585           3.00         2.00
  261.29        3331.50           6589           8.00        16.56
  261.32        3331.75           6593           4.00         2.00
  261.35        3332.00           6596           0.00         2.00
  261.38        3332.25           6600           1.00         2.00
  261.40        3332.50           6604           0.00         2.00
  261.43        3332.75           6608           0.00         2.00
  261.46        3333.00           6611           8.00        16.56
  261.49        3333.25           6615           8.00        16.56
  261.51        3333.50           6619           1.00         2.00
  261.54        3333.75           6623           1.00         2.00
  261.57        3334.00           6626           8.00        16.56
  261.59        3334.25           6630           4.00         2.00
  261.62        3334.50           6634           0.00         2.00
  261.65        3334.75           6638           0.00         2.00
  261.68        3335.00           6641           0.00         2.00
  261.70        3335.25           6645           3.00         2.00
  261.73        3335.50           6649           1.00         2.00
  261.76        3335.75           6653           8.00        16.56
  261.78        3336.00           6656           0.00         2.00
  261.81        3336.25           6660           7.00        12.21
  261.84        3336.50           6664           0.00         2.00
  261.87        3336.75           6668           6.00         7.85
  261.89        3337.00           6671           0.00         2.00
  261.92        3337.25           6675           2.00         2.00
  261.95        3337.50           6679           4.00         2.00
  261.98        3337.75           6683           8.00        16.56
  262.00        3338.00           6686           8.00        16.56
  262.03        3338.25           6690           4.00         2.00
  262.06        3338.50           6694           6.00         7.85
  262.08        3338.75           6698           8.00        16.56
  262.11        3339.00           6701           8.00        16.56
  262.14        3339.25           6705           7.00        12.21
  262.17        3339.50           6709           0.00         2.00
  262.19        3339.75           6713           0.00         2.00
  262.22        3340.00           6716           6.00         7.85
  262.25        3340.25           6720           7.00        12.21
  262.28        3340.50           6724           0.00         2.00
  262.30        3340.75           6728           0.00         2.00
  262.33        3341.00           6731           8.00        16.56
  262.36        3341.25           6735           8.00        16.56
  262.38        3341.50           6739           1.00         2.00
  262.41        3341.75           6743           0.00         2.00
  262.44        3342.00           6746           3.00         2.00
  262.47        3342.25           6750           0.00         2.00
  262.49        3342.50           6754           0.00         2.00
  262.52        3342.75           6758           5.00         3.49
  262.55        3343.00           6761           1.00         2.00
  262.57        3343.25           6765           4.00         2.00
  262.60        3343.50           6769           6.00         7.85
  262.63        3343.75           6773           0.00         2.00
  262.66        3344.00           6776           0.00         2.00
  262.68        3344.25           6780           0.00         2.00
  262.71        3344.50           6784           8.00        16.56
  262.74        3344.75           6788           5.00         3.49
  262.76        3345.00           6791           0.00         2.00
  262.79        3345.25           6795           0.00         2.00
  262.82        3345.50           6799           7.00        12.21
  262.85        3345.75           6803           2.00         2.00
  262.87        3346.00           6806           0.00         2.00
  262.90        3346.25           6810           4.00         2.00
  262.93        3346.50           6814           8.00        16.56
  262.96        3346.75           6818           4.00         2.00
  262.98        3347.00           6821           7.00        12.21
  263.01        3347.25           6825           0.00         2.00
  263.04        3347.50           6829           8.00        16.56
  263.06        3347.75           6833           0.00         2.00
  263.09        3348.00           6836           2.00         2.00
  263.12        3348.25           6840           6.00         7.85
  263.15        3348.50           6844           4.00         2.00
  263.17        3348.75           6848           2.00         2.00
  263.20        3349.00           6851           8.00        16.56
  263.23        3349.25           6855           2.00         2.00
  263.26        3349.50           6859           8.00        16.56
  263.28        3349.75           6863           0.00         2.00
  263.31        3350.00           6867           0.00         2.00
  263.34        3350.25           6870           5.00         3.49
  263.37        3350.50           6874           0.00         2.00
  263.39        3350.75           6878           6.00         7.85
  263.42        3351.00           6882           8.00        16.56
HL scan finished at 04:24:03
end
