************************************************************
  HL Scan of (1) Internal mercury lamp
************************************************************
Integration time is 0.2294 seconds per sample
dh010117Tamanrasset 22.79-5.529 2.644435pr865
************************************************************
Dead Time -------------------------  2.8E-08 
Number of Cycles Used -------------  4 
Starting Wavelength (Angstroms) ---  3331 
Final Wavelength (Angstoms) -------  3351 
Wavelength Increment (Angstroms) --  .25 
Filter Wheel #1 Position ---------- (1) Ground quartz diffuser (ND=2.32)
Filter Wheel #2 Position ---------- (0) Clear Aperture



************************************************************
HL scan start time = 04:17:57
Dark Count =  6.9 


Time (GMT)  Wavelength (Ang)  Step Number  Raw Counts  Counts/Second

  258.47        3331.00           6581           8.00         4.80
  258.69        3331.25           6585           0.00         2.00
  258.71        3331.50           6589           8.00         4.80
  258.74        3331.75           6593           0.00         2.00
  258.77        3332.00           6596           0.00         2.00
  258.79        3332.25           6600           0.00         2.00
  258.82        3332.50           6604           0.00         2.00
  258.85        3332.75           6608           1.00         2.00
  258.88        3333.00           6611           8.00         4.80
  258.90        3333.25           6615           2.00         2.00
  258.93        3333.50           6619           0.00         2.00
  258.96        3333.75           6623           0.00         2.00
  258.99        3334.00           6626           2.00         2.00
  259.01        3334.25           6630           6.00         2.00
  259.04        3334.50           6634           0.00         2.00
  259.07        3334.75           6638           8.00         4.80
  259.09        3335.00           6641           0.00         2.00
  259.12        3335.25           6645           5.00         2.00
  259.15        3335.50           6649           1.00         2.00
  259.18        3335.75           6653           0.00         2.00
  259.20        3336.00           6656           0.00         2.00
  259.23        3336.25           6660           0.00         2.00
  259.26        3336.50           6664           0.00         2.00
  259.29        3336.75           6668           2.00         2.00
  259.31        3337.00           6671           2.00         2.00
  259.34        3337.25           6675           0.00         2.00
  259.37        3337.50           6679           4.00         2.00
  259.39        3337.75           6683           8.00         4.80
  259.42        3338.00           6686           8.00         4.80
  259.45        3338.25           6690           7.00         2.00
  259.48        3338.50           6694           4.00         2.00
  259.50        3338.75           6698           8.00         4.80
  259.53        3339.00           6701           2.00         2.00
  259.56        3339.25           6705           8.00         4.80
  259.59        3339.50           6709           4.00         2.00
  259.61        3339.75           6713           8.00         4.80
  259.64        3340.00           6716           8.00         4.80
  259.67        3340.25           6720           6.00         2.00
  259.69        3340.50           6724           8.00         4.80
  259.72        3340.75           6728           6.00         2.00
  259.75        3341.00           6731           3.00         2.00
  259.78        3341.25           6735           8.00         4.80
  259.80        3341.50           6739           8.00         4.80
  259.83        3341.75           6743           8.00         4.80
  259.86        3342.00           6746           8.00         4.80
  259.88        3342.25           6750           4.00         2.00
  259.91        3342.50           6754           0.00         2.00
  259.94        3342.75           6758           0.00         2.00
  259.97        3343.00           6761           5.00         2.00
  259.99        3343.25           6765           6.00         2.00
  260.02        3343.50           6769           5.00         2.00
  260.05        3343.75           6773           2.00         2.00
  260.08        3344.00           6776           7.00         2.00
  260.10        3344.25           6780           8.00         4.80
  260.13        3344.50           6784           2.00         2.00
  260.16        3344.75           6788           8.00         4.80
  260.18        3345.00           6791           6.00         2.00
  260.21        3345.25           6795           3.00         2.00
  260.24        3345.50           6799           8.00         4.80
  260.27        3345.75           6803           8.00         4.80
  260.29        3346.00           6806           4.00         2.00
  260.32        3346.25           6810           0.00         2.00
  260.35        3346.50           6814           4.00         2.00
  260.38        3346.75           6818           8.00         4.80
  260.40        3347.00           6821           0.00         2.00
  260.43        3347.25           6825           8.00         4.80
  260.46        3347.50           6829           5.00         2.00
  260.48        3347.75           6833           3.00         2.00
  260.51        3348.00           6836           5.00         2.00
  260.54        3348.25           6840           2.00         2.00
  260.57        3348.50           6844           8.00         4.80
  260.59        3348.75           6848           6.00         2.00
  260.62        3349.00           6851           0.00         2.00
  260.65        3349.25           6855           8.00         4.80
  260.67        3349.50           6859           4.00         2.00
  260.70        3349.75           6863           0.00         2.00
  260.73        3350.00           6867           1.00         2.00
  260.76        3350.25           6870           8.00         4.80
  260.78        3350.50           6874           3.00         2.00
  260.81        3350.75           6878           0.00         2.00
  260.84        3351.00           6882           8.00         4.80
HL scan finished at 04:21:28
end
