************************************************************
  HL Scan of (1) Internal mercury lamp
************************************************************
Integration time is 0.2294 seconds per sample
dh150117Tamanrasset 22.79-5.529 2.649534pr865
************************************************************
Dead Time -------------------------  2.8E-08 
Number of Cycles Used -------------  4 
Starting Wavelength (Angstroms) ---  3331 
Final Wavelength (Angstoms) -------  3351 
Wavelength Increment (Angstroms) --  .25 
Filter Wheel #1 Position ---------- (1) Ground quartz diffuser (ND=2.32)
Filter Wheel #2 Position ---------- (0) Clear Aperture



************************************************************
HL scan start time = 04:20:36
Dark Count =  2.3 


Time (GMT)  Wavelength (Ang)  Step Number  Raw Counts  Counts/Second

  261.11        3331.00           6581           3.00         3.05
  261.33        3331.25           6585           3.00         3.05
  261.36        3331.50           6589           2.00         2.00
  261.39        3331.75           6593           0.00         2.00
  261.41        3332.00           6596           8.00        24.85
  261.44        3332.25           6600           0.00         2.00
  261.47        3332.50           6604           8.00        24.85
  261.50        3332.75           6608           0.00         2.00
  261.52        3333.00           6611           0.00         2.00
  261.55        3333.25           6615           4.00         7.41
  261.58        3333.50           6619           8.00        24.85
  261.61        3333.75           6623           5.00        11.77
  261.63        3334.00           6626           0.00         2.00
  261.66        3334.25           6630           7.00        20.49
  261.69        3334.50           6634           0.00         2.00
  261.71        3334.75           6638           5.00        11.77
  261.74        3335.00           6641           5.00        11.77
  261.77        3335.25           6645           0.00         2.00
  261.80        3335.50           6649           8.00        24.85
  261.82        3335.75           6653           8.00        24.85
  261.85        3336.00           6656           8.00        24.85
  261.88        3336.25           6660           2.00         2.00
  261.90        3336.50           6664           8.00        24.85
  261.93        3336.75           6668           1.00         2.00
  261.96        3337.00           6671           8.00        24.85
  261.99        3337.25           6675           4.00         7.41
  262.01        3337.50           6679           0.00         2.00
  262.04        3337.75           6683           8.00        24.85
  262.07        3338.00           6686           8.00        24.85
  262.10        3338.25           6690           0.00         2.00
  262.12        3338.50           6694           0.00         2.00
  262.15        3338.75           6698           0.00         2.00
  262.18        3339.00           6701           3.00         3.05
  262.20        3339.25           6705           8.00        24.85
  262.23        3339.50           6709           0.00         2.00
  262.26        3339.75           6713           0.00         2.00
  262.29        3340.00           6716           0.00         2.00
  262.31        3340.25           6720           4.00         7.41
  262.34        3340.50           6724           8.00        24.85
  262.37        3340.75           6728           0.00         2.00
  262.40        3341.00           6731           8.00        24.85
  262.42        3341.25           6735           0.00         2.00
  262.45        3341.50           6739           6.00        16.13
  262.48        3341.75           6743           1.00         2.00
  262.50        3342.00           6746           8.00        24.85
  262.53        3342.25           6750           8.00        24.85
  262.56        3342.50           6754           8.00        24.85
  262.59        3342.75           6758           8.00        24.85
  262.61        3343.00           6761           4.00         7.41
  262.64        3343.25           6765           8.00        24.85
  262.67        3343.50           6769           8.00        24.85
  262.69        3343.75           6773           0.00         2.00
  262.72        3344.00           6776           0.00         2.00
  262.75        3344.25           6780           0.00         2.00
  262.78        3344.50           6784           0.00         2.00
  262.80        3344.75           6788           3.00         3.05
  262.83        3345.00           6791           5.00        11.77
  262.86        3345.25           6795           5.00        11.77
  262.89        3345.50           6799           8.00        24.85
  262.91        3345.75           6803           8.00        24.85
  262.94        3346.00           6806           2.00         2.00
  262.97        3346.25           6810           0.00         2.00
  262.99        3346.50           6814           3.00         3.05
  263.02        3346.75           6818           0.00         2.00
  263.05        3347.00           6821           0.00         2.00
  263.08        3347.25           6825           8.00        24.85
  263.10        3347.50           6829           4.00         7.41
  263.13        3347.75           6833           7.00        20.49
  263.16        3348.00           6836           0.00         2.00
  263.19        3348.25           6840           6.00        16.13
  263.21        3348.50           6844           8.00        24.85
  263.24        3348.75           6848           0.00         2.00
  263.27        3349.00           6851           0.00         2.00
  263.29        3349.25           6855           5.00        11.77
  263.32        3349.50           6859           8.00        24.85
  263.35        3349.75           6863           8.00        24.85
  263.38        3350.00           6867           8.00        24.85
  263.40        3350.25           6870           0.00         2.00
  263.43        3350.50           6874           0.00         2.00
  263.46        3350.75           6878           0.00         2.00
  263.48        3351.00           6882           8.00        24.85
HL scan finished at 04:24:06
end
