************************************************************
  HL Scan of (1) Internal mercury lamp
************************************************************
Integration time is 0.2294 seconds per sample
dh130117Tamanrasset 22.79-5.529 2.629141pr865
************************************************************
Dead Time -------------------------  2.8E-08 
Number of Cycles Used -------------  4 
Starting Wavelength (Angstroms) ---  3331 
Final Wavelength (Angstoms) -------  3351 
Wavelength Increment (Angstroms) --  .25 
Filter Wheel #1 Position ---------- (1) Ground quartz diffuser (ND=2.32)
Filter Wheel #2 Position ---------- (0) Clear Aperture



************************************************************
HL scan start time = 04:20:26
Dark Count =  3.3 


Time (GMT)  Wavelength (Ang)  Step Number  Raw Counts  Counts/Second

  260.94        3331.00           6581           8.00        20.49
  261.16        3331.25           6585           3.00         2.00
  261.19        3331.50           6589           3.00         2.00
  261.22        3331.75           6593           6.00        11.77
  261.24        3332.00           6596           7.00        16.13
  261.27        3332.25           6600           8.00        20.49
  261.30        3332.50           6604           9.00        24.85
  261.33        3332.75           6608           8.00        20.49
  261.35        3333.00           6611           5.00         7.41
  261.38        3333.25           6615           8.00        20.49
  261.41        3333.50           6619           0.00         2.00
  261.43        3333.75           6623           4.00         3.05
  261.46        3334.00           6626           7.00        16.13
  261.49        3334.25           6630           5.00         7.41
  261.52        3334.50           6634           8.00        20.49
  261.54        3334.75           6638           8.00        20.49
  261.57        3335.00           6641           6.00        11.77
  261.60        3335.25           6645           2.00         2.00
  261.63        3335.50           6649           0.00         2.00
  261.65        3335.75           6653           4.00         3.05
  261.68        3336.00           6656           8.00        20.49
  261.71        3336.25           6660           5.00         7.41
  261.73        3336.50           6664           8.00        20.49
  261.76        3336.75           6668           6.00        11.77
  261.79        3337.00           6671           0.00         2.00
  261.82        3337.25           6675           7.00        16.13
  261.84        3337.50           6679           4.00         3.05
  261.87        3337.75           6683           0.00         2.00
  261.90        3338.00           6686           8.00        20.49
  261.93        3338.25           6690           0.00         2.00
  261.95        3338.50           6694           6.00        11.77
  261.98        3338.75           6698           4.00         3.05
  262.01        3339.00           6701           8.00        20.49
  262.03        3339.25           6705           8.00        20.49
  262.06        3339.50           6709           0.00         2.00
  262.09        3339.75           6713           4.00         3.05
  262.12        3340.00           6716           0.00         2.00
  262.14        3340.25           6720           0.00         2.00
  262.17        3340.50           6724           6.00        11.77
  262.20        3340.75           6728           3.00         2.00
  262.22        3341.00           6731           4.00         3.05
  262.25        3341.25           6735           8.00        20.49
  262.28        3341.50           6739           6.00        11.77
  262.31        3341.75           6743           8.00        20.49
  262.33        3342.00           6746           7.00        16.13
  262.36        3342.25           6750           5.00         7.41
  262.39        3342.50           6754           2.00         2.00
  262.42        3342.75           6758           8.00        20.49
  262.44        3343.00           6761           8.00        20.49
  262.47        3343.25           6765           5.00         7.41
  262.50        3343.50           6769           0.00         2.00
  262.52        3343.75           6773           0.00         2.00
  262.55        3344.00           6776           8.00        20.49
  262.58        3344.25           6780           7.00        16.13
  262.61        3344.50           6784           5.00         7.41
  262.63        3344.75           6788           0.00         2.00
  262.66        3345.00           6791           3.00         2.00
  262.69        3345.25           6795           4.00         3.05
  262.72        3345.50           6799           6.00        11.77
  262.74        3345.75           6803           0.00         2.00
  262.77        3346.00           6806           7.00        16.13
  262.80        3346.25           6810           4.00         3.05
  262.82        3346.50           6814           0.00         2.00
  262.85        3346.75           6818           5.00         7.41
  262.88        3347.00           6821           4.00         3.05
  262.91        3347.25           6825           4.00         3.05
  262.93        3347.50           6829           8.00        20.49
  262.96        3347.75           6833           8.00        20.49
  262.99        3348.00           6836           0.00         2.00
  263.01        3348.25           6840           0.00         2.00
  263.04        3348.50           6844           0.00         2.00
  263.07        3348.75           6848           4.00         3.05
  263.10        3349.00           6851           3.00         2.00
  263.12        3349.25           6855           4.00         3.05
  263.15        3349.50           6859           8.00        20.49
  263.18        3349.75           6863           5.00         7.41
  263.21        3350.00           6867           0.00         2.00
  263.23        3350.25           6870           4.00         3.05
  263.26        3350.50           6874           3.00         2.00
  263.29        3350.75           6878           0.00         2.00
  263.31        3351.00           6882           8.00        20.49
HL scan finished at 04:23:56
end
