************************************************************
  HL Scan of (1) Internal mercury lamp
************************************************************
Integration time is 0.2294 seconds per sample
dh170117Tamanrasset 22.79-5.529 2.654632pr865
************************************************************
Dead Time -------------------------  2.8E-08 
Number of Cycles Used -------------  4 
Starting Wavelength (Angstroms) ---  3331 
Final Wavelength (Angstoms) -------  3351 
Wavelength Increment (Angstroms) --  .25 
Filter Wheel #1 Position ---------- (1) Ground quartz diffuser (ND=2.32)
Filter Wheel #2 Position ---------- (0) Clear Aperture



************************************************************
HL scan start time = 04:21:01
Dark Count =  5 


Time (GMT)  Wavelength (Ang)  Step Number  Raw Counts  Counts/Second

  261.52        3331.00           6581           5.00         2.00
  261.74        3331.25           6585           0.00         2.00
  261.77        3331.50           6589           0.00         2.00
  261.80        3331.75           6593           0.00         2.00
  261.82        3332.00           6596           3.00         2.00
  261.85        3332.25           6600           8.00        13.08
  261.88        3332.50           6604           6.00         4.36
  261.91        3332.75           6608           8.00        13.08
  261.93        3333.00           6611           8.00        13.08
  261.96        3333.25           6615           8.00        13.08
  261.99        3333.50           6619           0.00         2.00
  262.02        3333.75           6623           2.00         2.00
  262.04        3334.00           6626           8.00        13.08
  262.07        3334.25           6630           8.00        13.08
  262.10        3334.50           6634           6.00         4.36
  262.12        3334.75           6638           8.00        13.08
  262.15        3335.00           6641           2.00         2.00
  262.18        3335.25           6645           8.00        13.08
  262.21        3335.50           6649           0.00         2.00
  262.23        3335.75           6653           3.00         2.00
  262.26        3336.00           6656           8.00        13.08
  262.29        3336.25           6660           8.00        13.08
  262.32        3336.50           6664           6.00         4.36
  262.34        3336.75           6668           0.00         2.00
  262.37        3337.00           6671           6.00         4.36
  262.40        3337.25           6675           0.00         2.00
  262.42        3337.50           6679           4.00         2.00
  262.45        3337.75           6683           1.00         2.00
  262.48        3338.00           6686           0.00         2.00
  262.51        3338.25           6690           8.00        13.08
  262.53        3338.50           6694           8.00        13.08
  262.56        3338.75           6698           8.00        13.08
  262.59        3339.00           6701           8.00        13.08
  262.61        3339.25           6705           4.00         2.00
  262.64        3339.50           6709           3.00         2.00
  262.67        3339.75           6713           5.00         2.00
  262.70        3340.00           6716           0.00         2.00
  262.72        3340.25           6720           3.00         2.00
  262.75        3340.50           6724           2.00         2.00
  262.78        3340.75           6728           2.00         2.00
  262.81        3341.00           6731           8.00        13.08
  262.83        3341.25           6735           1.00         2.00
  262.86        3341.50           6739           2.00         2.00
  262.89        3341.75           6743           8.00        13.08
  262.91        3342.00           6746           8.00        13.08
  262.94        3342.25           6750           1.00         2.00
  262.97        3342.50           6754           0.00         2.00
  263.00        3342.75           6758           0.00         2.00
  263.02        3343.00           6761           8.00        13.08
  263.05        3343.25           6765           3.00         2.00
  263.08        3343.50           6769           8.00        13.08
  263.10        3343.75           6773           8.00        13.08
  263.13        3344.00           6776           0.00         2.00
  263.16        3344.25           6780           3.00         2.00
  263.19        3344.50           6784           0.00         2.00
  263.21        3344.75           6788           8.00        13.08
  263.24        3345.00           6791           5.00         2.00
  263.27        3345.25           6795           0.00         2.00
  263.30        3345.50           6799           6.00         4.36
  263.32        3345.75           6803           0.00         2.00
  263.35        3346.00           6806           1.00         2.00
  263.38        3346.25           6810           6.00         4.36
  263.40        3346.50           6814           8.00        13.08
  263.43        3346.75           6818           5.00         2.00
  263.46        3347.00           6821           8.00        13.08
  263.49        3347.25           6825           7.00         8.72
  263.51        3347.50           6829           0.00         2.00
  263.54        3347.75           6833           8.00        13.08
  263.57        3348.00           6836           8.00        13.08
  263.60        3348.25           6840           8.00        13.08
  263.62        3348.50           6844           0.00         2.00
  263.65        3348.75           6848           0.00         2.00
  263.68        3349.00           6851           8.00        13.08
  263.70        3349.25           6855           1.00         2.00
  263.73        3349.50           6859           8.00        13.08
  263.76        3349.75           6863           6.00         4.36
  263.79        3350.00           6867           8.00        13.08
  263.81        3350.25           6870           5.00         2.00
  263.84        3350.50           6874           0.00         2.00
  263.87        3350.75           6878           8.00        13.08
  263.89        3351.00           6882           8.00        13.08
HL scan finished at 04:24:31
end
