************************************************************
  HL Scan of (1) Internal mercury lamp
************************************************************
Integration time is 0.2294 seconds per sample
dh120117Tamanrasset 22.79-5.529 2.654632pr865
************************************************************
Dead Time -------------------------  2.8E-08 
Number of Cycles Used -------------  4 
Starting Wavelength (Angstroms) ---  3331 
Final Wavelength (Angstoms) -------  3351 
Wavelength Increment (Angstroms) --  .25 
Filter Wheel #1 Position ---------- (1) Ground quartz diffuser (ND=2.32)
Filter Wheel #2 Position ---------- (0) Clear Aperture



************************************************************
HL scan start time = 04:20:37
Dark Count =  2.3 


Time (GMT)  Wavelength (Ang)  Step Number  Raw Counts  Counts/Second

  261.13        3331.00           6581           8.00        24.85
  261.35        3331.25           6585           8.00        24.85
  261.38        3331.50           6589           6.00        16.13
  261.40        3331.75           6593           5.00        11.77
  261.43        3332.00           6596           0.00         2.00
  261.46        3332.25           6600           6.00        16.13
  261.49        3332.50           6604           0.00         2.00
  261.51        3332.75           6608           0.00         2.00
  261.54        3333.00           6611           1.00         2.00
  261.57        3333.25           6615           8.00        24.85
  261.59        3333.50           6619           0.00         2.00
  261.62        3333.75           6623           8.00        24.85
  261.65        3334.00           6626           8.00        24.85
  261.68        3334.25           6630           0.00         2.00
  261.70        3334.50           6634           3.00         3.05
  261.73        3334.75           6638           0.00         2.00
  261.76        3335.00           6641           0.00         2.00
  261.78        3335.25           6645           7.00        20.49
  261.81        3335.50           6649           4.00         7.41
  261.84        3335.75           6653           7.00        20.49
  261.87        3336.00           6656           0.00         2.00
  261.89        3336.25           6660           1.00         2.00
  261.92        3336.50           6664           3.00         3.05
  261.95        3336.75           6668           4.00         7.41
  261.97        3337.00           6671           4.00         7.41
  262.00        3337.25           6675           0.00         2.00
  262.03        3337.50           6679           8.00        24.85
  262.06        3337.75           6683           8.00        24.85
  262.08        3338.00           6686           0.00         2.00
  262.11        3338.25           6690           0.00         2.00
  262.14        3338.50           6694           4.00         7.41
  262.17        3338.75           6698           0.00         2.00
  262.19        3339.00           6701           3.00         3.05
  262.22        3339.25           6705           8.00        24.85
  262.25        3339.50           6709           0.00         2.00
  262.28        3339.75           6713           2.00         2.00
  262.30        3340.00           6716           3.00         3.05
  262.33        3340.25           6720           8.00        24.85
  262.36        3340.50           6724           8.00        24.85
  262.38        3340.75           6728           0.00         2.00
  262.41        3341.00           6731           6.00        16.13
  262.44        3341.25           6735           0.00         2.00
  262.47        3341.50           6739           0.00         2.00
  262.49        3341.75           6743           8.00        24.85
  262.52        3342.00           6746           8.00        24.85
  262.55        3342.25           6750           5.00        11.77
  262.57        3342.50           6754           0.00         2.00
  262.60        3342.75           6758           0.00         2.00
  262.63        3343.00           6761           7.00        20.49
  262.66        3343.25           6765           0.00         2.00
  262.68        3343.50           6769           0.00         2.00
  262.71        3343.75           6773           0.00         2.00
  262.74        3344.00           6776           4.00         7.41
  262.76        3344.25           6780           8.00        24.85
  262.79        3344.50           6784           2.00         2.00
  262.82        3344.75           6788           8.00        24.85
  262.85        3345.00           6791           8.00        24.85
  262.87        3345.25           6795           8.00        24.85
  262.90        3345.50           6799           3.00         3.05
  262.93        3345.75           6803           3.00         3.05
  262.96        3346.00           6806           8.00        24.85
  262.98        3346.25           6810           0.00         2.00
  263.01        3346.50           6814           4.00         7.41
  263.04        3346.75           6818           8.00        24.85
  263.06        3347.00           6821           3.00         3.05
  263.09        3347.25           6825           8.00        24.85
  263.12        3347.50           6829           4.00         7.41
  263.15        3347.75           6833           0.00         2.00
  263.17        3348.00           6836           8.00        24.85
  263.20        3348.25           6840           5.00        11.77
  263.23        3348.50           6844           4.00         7.41
  263.26        3348.75           6848           8.00        24.85
  263.28        3349.00           6851           1.00         2.00
  263.31        3349.25           6855           8.00        24.85
  263.34        3349.50           6859           8.00        24.85
  263.36        3349.75           6863           0.00         2.00
  263.39        3350.00           6867           3.00         3.05
  263.42        3350.25           6870           2.00         2.00
  263.45        3350.50           6874           8.00        24.85
  263.47        3350.75           6878           4.00         7.41
  263.50        3351.00           6882           0.00         2.00
HL scan finished at 04:24:07
end
