************************************************************
  HL Scan of (1) Internal mercury lamp
************************************************************
Integration time is 0.2294 seconds per sample
dh100117Tamanrasset 22.79-5.529 2.654632pr865
************************************************************
Dead Time -------------------------  2.8E-08 
Number of Cycles Used -------------  4 
Starting Wavelength (Angstroms) ---  3331 
Final Wavelength (Angstoms) -------  3351 
Wavelength Increment (Angstroms) --  .25 
Filter Wheel #1 Position ---------- (1) Ground quartz diffuser (ND=2.32)
Filter Wheel #2 Position ---------- (0) Clear Aperture



************************************************************
HL scan start time = 04:20:35
Dark Count =  2.7 


Time (GMT)  Wavelength (Ang)  Step Number  Raw Counts  Counts/Second

  261.10        3331.00           6581           8.00        23.10
  261.32        3331.25           6585           8.00        23.10
  261.35        3331.50           6589           0.00         2.00
  261.38        3331.75           6593           0.00         2.00
  261.40        3332.00           6596           0.00         2.00
  261.43        3332.25           6600           8.00        23.10
  261.46        3332.50           6604           8.00        23.10
  261.48        3332.75           6608           2.00         2.00
  261.51        3333.00           6611           2.00         2.00
  261.54        3333.25           6615           8.00        23.10
  261.57        3333.50           6619           0.00         2.00
  261.59        3333.75           6623           0.00         2.00
  261.62        3334.00           6626           5.00        10.03
  261.65        3334.25           6630           4.00         5.67
  261.68        3334.50           6634           8.00        23.10
  261.70        3334.75           6638           0.00         2.00
  261.73        3335.00           6641           8.00        23.10
  261.76        3335.25           6645           8.00        23.10
  261.78        3335.50           6649           2.00         2.00
  261.81        3335.75           6653           8.00        23.10
  261.84        3336.00           6656           5.00        10.03
  261.87        3336.25           6660           0.00         2.00
  261.89        3336.50           6664           6.00        14.39
  261.92        3336.75           6668           4.00         5.67
  261.95        3337.00           6671           0.00         2.00
  261.97        3337.25           6675           0.00         2.00
  262.00        3337.50           6679           6.00        14.39
  262.03        3337.75           6683           8.00        23.10
  262.06        3338.00           6686           0.00         2.00
  262.08        3338.25           6690           8.00        23.10
  262.11        3338.50           6694           4.00         5.67
  262.14        3338.75           6698           8.00        23.10
  262.17        3339.00           6701           0.00         2.00
  262.19        3339.25           6705           8.00        23.10
  262.22        3339.50           6709           8.00        23.10
  262.25        3339.75           6713           8.00        23.10
  262.28        3340.00           6716           0.00         2.00
  262.30        3340.25           6720           8.00        23.10
  262.33        3340.50           6724           8.00        23.10
  262.36        3340.75           6728           8.00        23.10
  262.38        3341.00           6731           8.00        23.10
  262.41        3341.25           6735           8.00        23.10
  262.44        3341.50           6739           6.00        14.39
  262.47        3341.75           6743           8.00        23.10
  262.49        3342.00           6746           8.00        23.10
  262.52        3342.25           6750           5.00        10.03
  262.55        3342.50           6754           0.00         2.00
  262.58        3342.75           6758           0.00         2.00
  262.60        3343.00           6761           0.00         2.00
  262.63        3343.25           6765           8.00        23.10
  262.66        3343.50           6769           4.00         5.67
  262.68        3343.75           6773           0.00         2.00
  262.71        3344.00           6776           4.00         5.67
  262.74        3344.25           6780           8.00        23.10
  262.77        3344.50           6784           5.00        10.03
  262.79        3344.75           6788           6.00        14.39
  262.82        3345.00           6791           3.00         2.00
  262.85        3345.25           6795           5.00        10.03
  262.87        3345.50           6799           1.00         2.00
  262.90        3345.75           6803           7.00        18.74
  262.93        3346.00           6806           1.00         2.00
  262.96        3346.25           6810           0.00         2.00
  262.98        3346.50           6814           3.00         2.00
  263.01        3346.75           6818           2.00         2.00
  263.04        3347.00           6821           8.00        23.10
  263.07        3347.25           6825           8.00        23.10
  263.09        3347.50           6829           0.00         2.00
  263.12        3347.75           6833           0.00         2.00
  263.15        3348.00           6836           2.00         2.00
  263.17        3348.25           6840           8.00        23.10
  263.20        3348.50           6844           0.00         2.00
  263.23        3348.75           6848           0.00         2.00
  263.26        3349.00           6851           8.00        23.10
  263.28        3349.25           6855           2.00         2.00
  263.31        3349.50           6859           3.00         2.00
  263.34        3349.75           6863           3.00         2.00
  263.37        3350.00           6867           4.00         5.67
  263.39        3350.25           6870           0.00         2.00
  263.42        3350.50           6874           6.00        14.39
  263.45        3350.75           6878           0.00         2.00
  263.47        3351.00           6882           8.00        23.10
HL scan finished at 04:24:06
end
