************************************************************
  HL Scan of (1) Internal mercury lamp
************************************************************
Integration time is 0.2294 seconds per sample
dh140117Tamanrasset 22.79-5.529 2.634239pr865
************************************************************
Dead Time -------------------------  2.8E-08 
Number of Cycles Used -------------  4 
Starting Wavelength (Angstroms) ---  3331 
Final Wavelength (Angstoms) -------  3351 
Wavelength Increment (Angstroms) --  .25 
Filter Wheel #1 Position ---------- (1) Ground quartz diffuser (ND=2.32)
Filter Wheel #2 Position ---------- (0) Clear Aperture



************************************************************
HL scan start time = 04:20:37
Dark Count =  3.8 


Time (GMT)  Wavelength (Ang)  Step Number  Raw Counts  Counts/Second

  261.13        3331.00           6581           8.00        18.31
  261.35        3331.25           6585           1.00         2.00
  261.38        3331.50           6589           0.00         2.00
  261.41        3331.75           6593           0.00         2.00
  261.44        3332.00           6596           5.00         5.23
  261.46        3332.25           6600           3.00         2.00
  261.49        3332.50           6604           0.00         2.00
  261.52        3332.75           6608           1.00         2.00
  261.54        3333.00           6611           3.00         2.00
  261.57        3333.25           6615           8.00        18.31
  261.60        3333.50           6619           1.00         2.00
  261.63        3333.75           6623           0.00         2.00
  261.65        3334.00           6626           8.00        18.31
  261.68        3334.25           6630           8.00        18.31
  261.71        3334.50           6634           4.00         2.00
  261.74        3334.75           6638           8.00        18.31
  261.76        3335.00           6641           1.00         2.00
  261.79        3335.25           6645           8.00        18.31
  261.82        3335.50           6649           6.00         9.59
  261.84        3335.75           6653           2.00         2.00
  261.87        3336.00           6656           0.00         2.00
  261.90        3336.25           6660           0.00         2.00
  261.93        3336.50           6664           8.00        18.31
  261.95        3336.75           6668           4.00         2.00
  261.98        3337.00           6671           0.00         2.00
  262.01        3337.25           6675           8.00        18.31
  262.04        3337.50           6679           8.00        18.31
  262.06        3337.75           6683           6.00         9.59
  262.09        3338.00           6686           8.00        18.31
  262.12        3338.25           6690           3.00         2.00
  262.14        3338.50           6694           0.00         2.00
  262.17        3338.75           6698           8.00        18.31
  262.20        3339.00           6701           8.00        18.31
  262.23        3339.25           6705           7.00        13.95
  262.25        3339.50           6709           8.00        18.31
  262.28        3339.75           6713           0.00         2.00
  262.31        3340.00           6716           4.00         2.00
  262.33        3340.25           6720           8.00        18.31
  262.36        3340.50           6724           0.00         2.00
  262.39        3340.75           6728           8.00        18.31
  262.42        3341.00           6731           8.00        18.31
  262.44        3341.25           6735           1.00         2.00
  262.47        3341.50           6739           0.00         2.00
  262.50        3341.75           6743           8.00        18.31
  262.53        3342.00           6746           8.00        18.31
  262.55        3342.25           6750           1.00         2.00
  262.58        3342.50           6754           0.00         2.00
  262.61        3342.75           6758           0.00         2.00
  262.63        3343.00           6761           8.00        18.31
  262.66        3343.25           6765           8.00        18.31
  262.69        3343.50           6769           4.00         2.00
  262.72        3343.75           6773           8.00        18.31
  262.74        3344.00           6776           0.00         2.00
  262.77        3344.25           6780           3.00         2.00
  262.80        3344.50           6784           0.00         2.00
  262.83        3344.75           6788           8.00        18.31
  262.85        3345.00           6791           5.00         5.23
  262.88        3345.25           6795           0.00         2.00
  262.91        3345.50           6799           0.00         2.00
  262.93        3345.75           6803           0.00         2.00
  262.96        3346.00           6806           0.00         2.00
  262.99        3346.25           6810           4.00         2.00
  263.02        3346.50           6814           4.00         2.00
  263.04        3346.75           6818           4.00         2.00
  263.07        3347.00           6821           0.00         2.00
  263.10        3347.25           6825           8.00        18.31
  263.13        3347.50           6829           1.00         2.00
  263.15        3347.75           6833           8.00        18.31
  263.18        3348.00           6836           8.00        18.31
  263.21        3348.25           6840           3.00         2.00
  263.23        3348.50           6844           8.00        18.31
  263.26        3348.75           6848           1.00         2.00
  263.29        3349.00           6851           4.00         2.00
  263.32        3349.25           6855           8.00        18.31
  263.34        3349.50           6859           0.00         2.00
  263.37        3349.75           6863           0.00         2.00
  263.40        3350.00           6867           8.00        18.31
  263.42        3350.25           6870           0.00         2.00
  263.45        3350.50           6874           0.00         2.00
  263.48        3350.75           6878           0.00         2.00
  263.51        3351.00           6882           5.00         5.23
HL scan finished at 04:24:08
end
