************************************************************
  HL Scan of (1) Internal mercury lamp
************************************************************
Integration time is 0.2294 seconds per sample
dh260117Tamanrasset 22.79-5.529 2.669927pr865
************************************************************
Dead Time -------------------------  2.8E-08 
Number of Cycles Used -------------  4 
Starting Wavelength (Angstroms) ---  3331 
Final Wavelength (Angstoms) -------  3351 
Wavelength Increment (Angstroms) --  .25 
Filter Wheel #1 Position ---------- (1) Ground quartz diffuser (ND=2.32)
Filter Wheel #2 Position ---------- (0) Clear Aperture



************************************************************
HL scan start time = 04:20:09
Dark Count =  4.4 


Time (GMT)  Wavelength (Ang)  Step Number  Raw Counts  Counts/Second

  260.66        3331.00           6581           6.00         6.97
  260.87        3331.25           6585           5.00         2.62
  260.90        3331.50           6589           0.00         2.00
  260.93        3331.75           6593           0.00         2.00
  260.96        3332.00           6596           7.00        11.33
  260.98        3332.25           6600           2.00         2.00
  261.01        3332.50           6604           8.00        15.69
  261.04        3332.75           6608           0.00         2.00
  261.07        3333.00           6611           8.00        15.69
  261.09        3333.25           6615           8.00        15.69
  261.12        3333.50           6619           7.00        11.33
  261.15        3333.75           6623           0.00         2.00
  261.17        3334.00           6626           0.00         2.00
  261.20        3334.25           6630           0.00         2.00
  261.23        3334.50           6634           7.00        11.33
  261.26        3334.75           6638           7.00        11.33
  261.28        3335.00           6641           8.00        15.69
  261.31        3335.25           6645           0.00         2.00
  261.34        3335.50           6649           3.00         2.00
  261.37        3335.75           6653           0.00         2.00
  261.39        3336.00           6656           0.00         2.00
  261.42        3336.25           6660           3.00         2.00
  261.45        3336.50           6664           4.00         2.00
  261.47        3336.75           6668           0.00         2.00
  261.50        3337.00           6671           8.00        15.69
  261.53        3337.25           6675           3.00         2.00
  261.56        3337.50           6679           0.00         2.00
  261.58        3337.75           6683           7.00        11.33
  261.61        3338.00           6686           8.00        15.69
  261.64        3338.25           6690           8.00        15.69
  261.66        3338.50           6694           6.00         6.97
  261.69        3338.75           6698           8.00        15.69
  261.72        3339.00           6701           0.00         2.00
  261.75        3339.25           6705           4.00         2.00
  261.77        3339.50           6709           8.00        15.69
  261.80        3339.75           6713           3.00         2.00
  261.83        3340.00           6716           3.00         2.00
  261.85        3340.25           6720           8.00        15.69
  261.88        3340.50           6724           0.00         2.00
  261.91        3340.75           6728           8.00        15.69
  261.94        3341.00           6731           0.00         2.00
  261.96        3341.25           6735           0.00         2.00
  261.99        3341.50           6739           0.00         2.00
  262.02        3341.75           6743           0.00         2.00
  262.05        3342.00           6746           0.00         2.00
  262.07        3342.25           6750           8.00        15.69
  262.10        3342.50           6754           8.00        15.69
  262.13        3342.75           6758           4.00         2.00
  262.15        3343.00           6761           0.00         2.00
  262.18        3343.25           6765           0.00         2.00
  262.21        3343.50           6769           5.00         2.62
  262.24        3343.75           6773           8.00        15.69
  262.27        3344.00           6776           8.00        15.69
  262.29        3344.25           6780           0.00         2.00
  262.32        3344.50           6784           6.00         6.97
  262.35        3344.75           6788           7.00        11.33
  262.37        3345.00           6791           0.00         2.00
  262.40        3345.25           6795           8.00        15.69
  262.43        3345.50           6799           2.00         2.00
  262.46        3345.75           6803           0.00         2.00
  262.48        3346.00           6806           0.00         2.00
  262.51        3346.25           6810           7.00        11.33
  262.54        3346.50           6814           0.00         2.00
  262.57        3346.75           6818           0.00         2.00
  262.59        3347.00           6821           5.00         2.62
  262.62        3347.25           6825           4.00         2.00
  262.65        3347.50           6829           4.00         2.00
  262.67        3347.75           6833           0.00         2.00
  262.70        3348.00           6836           0.00         2.00
  262.73        3348.25           6840           8.00        15.69
  262.76        3348.50           6844           0.00         2.00
  262.78        3348.75           6848           1.00         2.00
  262.81        3349.00           6851           0.00         2.00
  262.84        3349.25           6855           8.00        15.69
  262.86        3349.50           6859           5.00         2.62
  262.89        3349.75           6863           4.00         2.00
  262.92        3350.00           6867           0.00         2.00
  262.95        3350.25           6870           0.00         2.00
  262.97        3350.50           6874           8.00        15.69
  263.00        3350.75           6878           0.00         2.00
  263.03        3351.00           6882           0.00         2.00
HL scan finished at 04:23:39
end
