************************************************************
  HL Scan of (1) Internal mercury lamp
************************************************************
Integration time is 0.2294 seconds per sample
dh290117Tamanrasset 22.79-5.529 2.675025pr865
************************************************************
Dead Time -------------------------  2.8E-08 
Number of Cycles Used -------------  4 
Starting Wavelength (Angstroms) ---  3331 
Final Wavelength (Angstoms) -------  3351 
Wavelength Increment (Angstroms) --  .25 
Filter Wheel #1 Position ---------- (1) Ground quartz diffuser (ND=2.32)
Filter Wheel #2 Position ---------- (0) Clear Aperture



************************************************************
HL scan start time = 04:18:17
Dark Count =  4.3 


Time (GMT)  Wavelength (Ang)  Step Number  Raw Counts  Counts/Second

  258.79        3331.00           6581           8.00        16.13
  259.01        3331.25           6585           2.00         2.00
  259.04        3331.50           6589           7.00        11.77
  259.07        3331.75           6593           3.00         2.00
  259.09        3332.00           6596           8.00        16.13
  259.12        3332.25           6600           0.00         2.00
  259.15        3332.50           6604           0.00         2.00
  259.17        3332.75           6608           8.00        16.13
  259.20        3333.00           6611           6.00         7.41
  259.23        3333.25           6615           8.00        16.13
  259.26        3333.50           6619           0.00         2.00
  259.28        3333.75           6623           8.00        16.13
  259.31        3334.00           6626           0.00         2.00
  259.34        3334.25           6630           0.00         2.00
  259.37        3334.50           6634           2.00         2.00
  259.39        3334.75           6638           1.00         2.00
  259.42        3335.00           6641           8.00        16.13
  259.45        3335.25           6645           8.00        16.13
  259.47        3335.50           6649           0.00         2.00
  259.50        3335.75           6653           0.00         2.00
  259.53        3336.00           6656           0.00         2.00
  259.56        3336.25           6660           4.00         2.00
  259.58        3336.50           6664           0.00         2.00
  259.61        3336.75           6668           3.00         2.00
  259.64        3337.00           6671           8.00        16.13
  259.66        3337.25           6675           8.00        16.13
  259.69        3337.50           6679           0.00         2.00
  259.72        3337.75           6683           0.00         2.00
  259.75        3338.00           6686           7.00        11.77
  259.77        3338.25           6690           8.00        16.13
  259.80        3338.50           6694           8.00        16.13
  259.83        3338.75           6698           0.00         2.00
  259.86        3339.00           6701           6.00         7.41
  259.88        3339.25           6705           8.00        16.13
  259.91        3339.50           6709           8.00        16.13
  259.94        3339.75           6713           8.00        16.13
  259.96        3340.00           6716           1.00         2.00
  259.99        3340.25           6720           0.00         2.00
  260.02        3340.50           6724           5.00         3.05
  260.05        3340.75           6728           5.00         3.05
  260.07        3341.00           6731           0.00         2.00
  260.10        3341.25           6735           8.00        16.13
  260.13        3341.50           6739           0.00         2.00
  260.16        3341.75           6743           0.00         2.00
  260.18        3342.00           6746           0.00         2.00
  260.21        3342.25           6750           0.00         2.00
  260.24        3342.50           6754           0.00         2.00
  260.26        3342.75           6758           8.00        16.13
  260.29        3343.00           6761           5.00         3.05
  260.32        3343.25           6765           0.00         2.00
  260.35        3343.50           6769           8.00        16.13
  260.37        3343.75           6773           0.00         2.00
  260.40        3344.00           6776           5.00         3.05
  260.43        3344.25           6780           0.00         2.00
  260.45        3344.50           6784           0.00         2.00
  260.48        3344.75           6788           8.00        16.13
  260.51        3345.00           6791           0.00         2.00
  260.54        3345.25           6795           3.00         2.00
  260.56        3345.50           6799           6.00         7.41
  260.59        3345.75           6803           8.00        16.13
  260.62        3346.00           6806           0.00         2.00
  260.65        3346.25           6810           6.00         7.41
  260.67        3346.50           6814           4.00         2.00
  260.70        3346.75           6818           0.00         2.00
  260.73        3347.00           6821           0.00         2.00
  260.75        3347.25           6825           8.00        16.13
  260.78        3347.50           6829           8.00        16.13
  260.81        3347.75           6833           2.00         2.00
  260.84        3348.00           6836           3.00         2.00
  260.86        3348.25           6840           0.00         2.00
  260.89        3348.50           6844           0.00         2.00
  260.92        3348.75           6848           8.00        16.13
  260.94        3349.00           6851           8.00        16.13
  260.97        3349.25           6855           0.00         2.00
  261.00        3349.50           6859           0.00         2.00
  261.03        3349.75           6863           8.00        16.13
  261.05        3350.00           6867           8.00        16.13
  261.08        3350.25           6870           8.00        16.13
  261.11        3350.50           6874           2.00         2.00
  261.14        3350.75           6878           8.00        16.13
  261.16        3351.00           6882           8.00        16.13
HL scan finished at 04:21:47
end
