************************************************************
  HL Scan of (1) Internal mercury lamp
************************************************************
Integration time is 0.2294 seconds per sample
dh200117Tamanrasset 22.79-5.529 2.69032pr865
************************************************************
Dead Time -------------------------  2.8E-08 
Number of Cycles Used -------------  4 
Starting Wavelength (Angstroms) ---  3331 
Final Wavelength (Angstoms) -------  3351 
Wavelength Increment (Angstroms) --  .25 
Filter Wheel #1 Position ---------- (1) Ground quartz diffuser (ND=2.32)
Filter Wheel #2 Position ---------- (0) Clear Aperture



************************************************************
HL scan start time = 04:20:38
Dark Count =  4.7 


Time (GMT)  Wavelength (Ang)  Step Number  Raw Counts  Counts/Second

  261.15        3331.00           6581           5.00         2.00
  261.37        3331.25           6585           0.00         2.00
  261.39        3331.50           6589           3.00         2.00
  261.42        3331.75           6593           0.00         2.00
  261.45        3332.00           6596           6.00         5.67
  261.48        3332.25           6600           7.00        10.03
  261.50        3332.50           6604           5.00         2.00
  261.53        3332.75           6608           0.00         2.00
  261.56        3333.00           6611           8.00        14.39
  261.59        3333.25           6615           0.00         2.00
  261.61        3333.50           6619           6.00         5.67
  261.64        3333.75           6623           6.00         5.67
  261.67        3334.00           6626           0.00         2.00
  261.69        3334.25           6630           4.00         2.00
  261.72        3334.50           6634           3.00         2.00
  261.75        3334.75           6638           5.00         2.00
  261.78        3335.00           6641           0.00         2.00
  261.80        3335.25           6645           5.00         2.00
  261.83        3335.50           6649           7.00        10.03
  261.86        3335.75           6653           3.00         2.00
  261.88        3336.00           6656           1.00         2.00
  261.91        3336.25           6660           0.00         2.00
  261.94        3336.50           6664           8.00        14.39
  261.97        3336.75           6668           7.00        10.03
  261.99        3337.00           6671           0.00         2.00
  262.02        3337.25           6675           0.00         2.00
  262.05        3337.50           6679           6.00         5.67
  262.08        3337.75           6683           1.00         2.00
  262.10        3338.00           6686           0.00         2.00
  262.13        3338.25           6690           8.00        14.39
  262.16        3338.50           6694           0.00         2.00
  262.18        3338.75           6698           0.00         2.00
  262.21        3339.00           6701           0.00         2.00
  262.24        3339.25           6705           4.00         2.00
  262.27        3339.50           6709           2.00         2.00
  262.29        3339.75           6713           2.00         2.00
  262.32        3340.00           6716           8.00        14.39
  262.35        3340.25           6720           8.00        14.39
  262.37        3340.50           6724           3.00         2.00
  262.40        3340.75           6728           4.00         2.00
  262.43        3341.00           6731           7.00        10.03
  262.46        3341.25           6735           8.00        14.39
  262.48        3341.50           6739           0.00         2.00
  262.51        3341.75           6743           4.00         2.00
  262.54        3342.00           6746           5.00         2.00
  262.57        3342.25           6750           8.00        14.39
  262.59        3342.50           6754           1.00         2.00
  262.62        3342.75           6758           2.00         2.00
  262.65        3343.00           6761           0.00         2.00
  262.67        3343.25           6765           7.00        10.03
  262.70        3343.50           6769           2.00         2.00
  262.73        3343.75           6773           6.00         5.67
  262.76        3344.00           6776           8.00        14.39
  262.78        3344.25           6780           0.00         2.00
  262.81        3344.50           6784           5.00         2.00
  262.84        3344.75           6788           8.00        14.39
  262.87        3345.00           6791           0.00         2.00
  262.89        3345.25           6795           2.00         2.00
  262.92        3345.50           6799           8.00        14.39
  262.95        3345.75           6803           0.00         2.00
  262.97        3346.00           6806           8.00        14.39
  263.00        3346.25           6810           0.00         2.00
  263.03        3346.50           6814           3.00         2.00
  263.06        3346.75           6818           3.00         2.00
  263.08        3347.00           6821           8.00        14.39
  263.11        3347.25           6825           1.00         2.00
  263.14        3347.50           6829           8.00        14.39
  263.16        3347.75           6833           1.00         2.00
  263.19        3348.00           6836           8.00        14.39
  263.22        3348.25           6840           0.00         2.00
  263.25        3348.50           6844           8.00        14.39
  263.27        3348.75           6848           0.00         2.00
  263.30        3349.00           6851           0.00         2.00
  263.33        3349.25           6855           0.00         2.00
  263.36        3349.50           6859           0.00         2.00
  263.38        3349.75           6863           1.00         2.00
  263.41        3350.00           6867           0.00         2.00
  263.44        3350.25           6870           4.00         2.00
  263.46        3350.50           6874           4.00         2.00
  263.49        3350.75           6878           8.00        14.39
  263.52        3351.00           6882           6.00         5.67
HL scan finished at 04:24:09
end
