************************************************************
  HL Scan of (1) Internal mercury lamp
************************************************************
Integration time is 0.2294 seconds per sample
dh240117Tamanrasset 22.79-5.529 2.649534pr865
************************************************************
Dead Time -------------------------  2.8E-08 
Number of Cycles Used -------------  4 
Starting Wavelength (Angstroms) ---  3331 
Final Wavelength (Angstoms) -------  3351 
Wavelength Increment (Angstroms) --  .25 
Filter Wheel #1 Position ---------- (1) Ground quartz diffuser (ND=2.32)
Filter Wheel #2 Position ---------- (0) Clear Aperture



************************************************************
HL scan start time = 04:20:39
Dark Count =  4.2 


Time (GMT)  Wavelength (Ang)  Step Number  Raw Counts  Counts/Second

  261.16        3331.00           6581           8.00        16.56
  261.38        3331.25           6585           4.00         2.00
  261.40        3331.50           6589           6.00         7.85
  261.43        3331.75           6593           7.00        12.21
  261.46        3332.00           6596           0.00         2.00
  261.48        3332.25           6600           0.00         2.00
  261.51        3332.50           6604           3.00         2.00
  261.54        3332.75           6608           8.00        16.56
  261.57        3333.00           6611           3.00         2.00
  261.59        3333.25           6615           7.00        12.21
  261.62        3333.50           6619           8.00        16.56
  261.65        3333.75           6623           8.00        16.56
  261.67        3334.00           6626           4.00         2.00
  261.70        3334.25           6630           8.00        16.56
  261.73        3334.50           6634           3.00         2.00
  261.76        3334.75           6638           8.00        16.56
  261.78        3335.00           6641           8.00        16.56
  261.81        3335.25           6645           4.00         2.00
  261.84        3335.50           6649           8.00        16.56
  261.87        3335.75           6653           2.00         2.00
  261.89        3336.00           6656           0.00         2.00
  261.92        3336.25           6660           7.00        12.21
  261.95        3336.50           6664           8.00        16.56
  261.97        3336.75           6668           5.00         3.49
  262.00        3337.00           6671           4.00         2.00
  262.03        3337.25           6675           8.00        16.56
  262.06        3337.50           6679           4.00         2.00
  262.08        3337.75           6683           6.00         7.85
  262.11        3338.00           6686           0.00         2.00
  262.14        3338.25           6690           0.00         2.00
  262.16        3338.50           6694           0.00         2.00
  262.19        3338.75           6698           6.00         7.85
  262.22        3339.00           6701           2.00         2.00
  262.25        3339.25           6705           8.00        16.56
  262.27        3339.50           6709           1.00         2.00
  262.30        3339.75           6713           8.00        16.56
  262.33        3340.00           6716           8.00        16.56
  262.36        3340.25           6720           0.00         2.00
  262.38        3340.50           6724           8.00        16.56
  262.41        3340.75           6728           8.00        16.56
  262.44        3341.00           6731           5.00         3.49
  262.47        3341.25           6735           4.00         2.00
  262.49        3341.50           6739           8.00        16.56
  262.52        3341.75           6743           8.00        16.56
  262.55        3342.00           6746           8.00        16.56
  262.57        3342.25           6750           8.00        16.56
  262.60        3342.50           6754           8.00        16.56
  262.63        3342.75           6758           1.00         2.00
  262.66        3343.00           6761           4.00         2.00
  262.68        3343.25           6765           7.00        12.21
  262.71        3343.50           6769           8.00        16.56
  262.74        3343.75           6773           4.00         2.00
  262.76        3344.00           6776           0.00         2.00
  262.79        3344.25           6780           3.00         2.00
  262.82        3344.50           6784           5.00         3.49
  262.85        3344.75           6788           8.00        16.56
  262.87        3345.00           6791           2.00         2.00
  262.90        3345.25           6795           7.00        12.21
  262.93        3345.50           6799           8.00        16.56
  262.96        3345.75           6803           8.00        16.56
  262.98        3346.00           6806           2.00         2.00
  263.01        3346.25           6810           8.00        16.56
  263.04        3346.50           6814           8.00        16.56
  263.06        3346.75           6818           5.00         3.49
  263.09        3347.00           6821           0.00         2.00
  263.12        3347.25           6825           0.00         2.00
  263.15        3347.50           6829           8.00        16.56
  263.17        3347.75           6833           0.00         2.00
  263.20        3348.00           6836           0.00         2.00
  263.23        3348.25           6840           8.00        16.56
  263.26        3348.50           6844           7.00        12.21
  263.28        3348.75           6848           8.00        16.56
  263.31        3349.00           6851           8.00        16.56
  263.34        3349.25           6855           0.00         2.00
  263.36        3349.50           6859           3.00         2.00
  263.39        3349.75           6863           2.00         2.00
  263.42        3350.00           6867           0.00         2.00
  263.45        3350.25           6870           2.00         2.00
  263.47        3350.50           6874           0.00         2.00
  263.50        3350.75           6878           7.00        12.21
  263.53        3351.00           6882           8.00        16.56
HL scan finished at 04:24:09
end
