************************************************************
  HL Scan of (1) Internal mercury lamp
************************************************************
Integration time is 0.2294 seconds per sample
dh280117Tamanrasset 22.79-5.529 2.664829pr865
************************************************************
Dead Time -------------------------  2.8E-08 
Number of Cycles Used -------------  4 
Starting Wavelength (Angstroms) ---  3331 
Final Wavelength (Angstoms) -------  3351 
Wavelength Increment (Angstroms) --  .25 
Filter Wheel #1 Position ---------- (1) Ground quartz diffuser (ND=2.32)
Filter Wheel #2 Position ---------- (0) Clear Aperture



************************************************************
HL scan start time = 04:18:26
Dark Count =  6.4 


Time (GMT)  Wavelength (Ang)  Step Number  Raw Counts  Counts/Second

  258.94        3331.00           6581           6.00         2.00
  259.16        3331.25           6585           6.00         2.00
  259.19        3331.50           6589           8.00         6.97
  259.22        3331.75           6593           0.00         2.00
  259.24        3332.00           6596           0.00         2.00
  259.27        3332.25           6600           6.00         2.00
  259.30        3332.50           6604           5.00         2.00
  259.33        3332.75           6608           8.00         6.97
  259.35        3333.00           6611           3.00         2.00
  259.38        3333.25           6615           0.00         2.00
  259.41        3333.50           6619           0.00         2.00
  259.44        3333.75           6623           5.00         2.00
  259.46        3334.00           6626           8.00         6.97
  259.49        3334.25           6630           0.00         2.00
  259.52        3334.50           6634           0.00         2.00
  259.54        3334.75           6638           8.00         6.97
  259.57        3335.00           6641           5.00         2.00
  259.60        3335.25           6645           8.00         6.97
  259.63        3335.50           6649           9.00        11.33
  259.65        3335.75           6653           0.00         2.00
  259.68        3336.00           6656           1.00         2.00
  259.71        3336.25           6660           8.00         6.97
  259.73        3336.50           6664           5.00         2.00
  259.76        3336.75           6668           5.00         2.00
  259.79        3337.00           6671           0.00         2.00
  259.82        3337.25           6675           8.00         6.97
  259.84        3337.50           6679           8.00         6.97
  259.87        3337.75           6683           4.00         2.00
  259.90        3338.00           6686           8.00         6.97
  259.93        3338.25           6690           0.00         2.00
  259.95        3338.50           6694           8.00         6.97
  259.98        3338.75           6698           7.00         2.62
  260.01        3339.00           6701           0.00         2.00
  260.03        3339.25           6705           0.00         2.00
  260.06        3339.50           6709           7.00         2.62
  260.09        3339.75           6713           1.00         2.00
  260.12        3340.00           6716           0.00         2.00
  260.14        3340.25           6720           0.00         2.00
  260.17        3340.50           6724           6.00         2.00
  260.20        3340.75           6728           8.00         6.97
  260.23        3341.00           6731           8.00         6.97
  260.25        3341.25           6735           6.00         2.00
  260.28        3341.50           6739           4.00         2.00
  260.31        3341.75           6743           0.00         2.00
  260.33        3342.00           6746           0.00         2.00
  260.36        3342.25           6750           0.00         2.00
  260.39        3342.50           6754           0.00         2.00
  260.42        3342.75           6758           2.00         2.00
  260.44        3343.00           6761           8.00         6.97
  260.47        3343.25           6765           0.00         2.00
  260.50        3343.50           6769           8.00         6.97
  260.52        3343.75           6773           0.00         2.00
  260.55        3344.00           6776           0.00         2.00
  260.58        3344.25           6780           0.00         2.00
  260.61        3344.50           6784           0.00         2.00
  260.63        3344.75           6788           0.00         2.00
  260.66        3345.00           6791           8.00         6.97
  260.69        3345.25           6795           8.00         6.97
  260.72        3345.50           6799           0.00         2.00
  260.74        3345.75           6803           2.00         2.00
  260.77        3346.00           6806           0.00         2.00
  260.80        3346.25           6810           6.00         2.00
  260.82        3346.50           6814           8.00         6.97
  260.85        3346.75           6818           7.00         2.62
  260.88        3347.00           6821           6.00         2.00
  260.91        3347.25           6825           7.00         2.62
  260.93        3347.50           6829           4.00         2.00
  260.96        3347.75           6833           0.00         2.00
  260.99        3348.00           6836           8.00         6.97
  261.02        3348.25           6840           8.00         6.97
  261.04        3348.50           6844           8.00         6.97
  261.07        3348.75           6848           0.00         2.00
  261.10        3349.00           6851           3.00         2.00
  261.12        3349.25           6855           0.00         2.00
  261.15        3349.50           6859           0.00         2.00
  261.18        3349.75           6863           1.00         2.00
  261.21        3350.00           6867           8.00         6.97
  261.23        3350.25           6870           0.00         2.00
  261.26        3350.50           6874           8.00         6.97
  261.29        3350.75           6878           6.00         2.00
  261.32        3351.00           6882           3.00         2.00
HL scan finished at 04:21:56
end
