************************************************************
  HL Scan of (1) Internal mercury lamp
************************************************************
Integration time is 0.2294 seconds per sample
dh270117Tamanrasset 22.79-5.529 2.680123pr865
************************************************************
Dead Time -------------------------  2.8E-08 
Number of Cycles Used -------------  4 
Starting Wavelength (Angstroms) ---  3331 
Final Wavelength (Angstoms) -------  3351 
Wavelength Increment (Angstroms) --  .25 
Filter Wheel #1 Position ---------- (1) Ground quartz diffuser (ND=2.32)
Filter Wheel #2 Position ---------- (0) Clear Aperture



************************************************************
HL scan start time = 04:19:43
Dark Count =  2.2 


Time (GMT)  Wavelength (Ang)  Step Number  Raw Counts  Counts/Second

  260.22        3331.00           6581           0.00         2.00
  260.44        3331.25           6585           0.00         2.00
  260.47        3331.50           6589           2.00         2.00
  260.50        3331.75           6593           0.00         2.00
  260.52        3332.00           6596           8.00        25.28
  260.55        3332.25           6600           4.00         7.85
  260.58        3332.50           6604           8.00        25.28
  260.61        3332.75           6608           6.00        16.56
  260.63        3333.00           6611           8.00        25.28
  260.66        3333.25           6615           6.00        16.56
  260.69        3333.50           6619           5.00        12.21
  260.72        3333.75           6623           6.00        16.56
  260.74        3334.00           6626           0.00         2.00
  260.77        3334.25           6630           0.00         2.00
  260.80        3334.50           6634           8.00        25.28
  260.82        3334.75           6638           0.00         2.00
  260.85        3335.00           6641           0.00         2.00
  260.88        3335.25           6645           8.00        25.28
  260.91        3335.50           6649           0.00         2.00
  260.93        3335.75           6653           5.00        12.21
  260.96        3336.00           6656           6.00        16.56
  260.99        3336.25           6660           0.00         2.00
  261.02        3336.50           6664           0.00         2.00
  261.04        3336.75           6668           8.00        25.28
  261.07        3337.00           6671           7.00        20.92
  261.10        3337.25           6675           4.00         7.85
  261.12        3337.50           6679           8.00        25.28
  261.15        3337.75           6683           8.00        25.28
  261.18        3338.00           6686           8.00        25.28
  261.21        3338.25           6690           0.00         2.00
  261.23        3338.50           6694           0.00         2.00
  261.26        3338.75           6698           0.00         2.00
  261.29        3339.00           6701           2.00         2.00
  261.31        3339.25           6705           8.00        25.28
  261.34        3339.50           6709           8.00        25.28
  261.37        3339.75           6713           0.00         2.00
  261.40        3340.00           6716           1.00         2.00
  261.42        3340.25           6720           6.00        16.56
  261.45        3340.50           6724           2.00         2.00
  261.48        3340.75           6728           0.00         2.00
  261.51        3341.00           6731           0.00         2.00
  261.53        3341.25           6735           8.00        25.28
  261.56        3341.50           6739           2.00         2.00
  261.59        3341.75           6743           0.00         2.00
  261.62        3342.00           6746           0.00         2.00
  261.64        3342.25           6750           8.00        25.28
  261.67        3342.50           6754           8.00        25.28
  261.70        3342.75           6758           5.00        12.21
  261.72        3343.00           6761           0.00         2.00
  261.75        3343.25           6765           0.00         2.00
  261.78        3343.50           6769           2.00         2.00
  261.81        3343.75           6773           5.00        12.21
  261.83        3344.00           6776           8.00        25.28
  261.86        3344.25           6780           0.00         2.00
  261.89        3344.50           6784           4.00         7.85
  261.91        3344.75           6788           8.00        25.28
  261.94        3345.00           6791           7.00        20.92
  261.97        3345.25           6795           0.00         2.00
  262.00        3345.50           6799           0.00         2.00
  262.02        3345.75           6803           0.00         2.00
  262.05        3346.00           6806           0.00         2.00
  262.08        3346.25           6810           8.00        25.28
  262.11        3346.50           6814           0.00         2.00
  262.13        3346.75           6818           4.00         7.85
  262.16        3347.00           6821           5.00        12.21
  262.19        3347.25           6825           0.00         2.00
  262.21        3347.50           6829           6.00        16.56
  262.24        3347.75           6833           8.00        25.28
  262.27        3348.00           6836           6.00        16.56
  262.30        3348.25           6840           0.00         2.00
  262.32        3348.50           6844           8.00        25.28
  262.35        3348.75           6848           0.00         2.00
  262.38        3349.00           6851           0.00         2.00
  262.41        3349.25           6855           8.00        25.28
  262.43        3349.50           6859           0.00         2.00
  262.46        3349.75           6863           0.00         2.00
  262.49        3350.00           6867           0.00         2.00
  262.51        3350.25           6870           8.00        25.28
  262.54        3350.50           6874           0.00         2.00
  262.57        3350.75           6878           8.00        25.28
  262.60        3351.00           6882           0.00         2.00
HL scan finished at 04:23:13
end
