************************************************************
  HL Scan of (1) Internal mercury lamp
************************************************************
Integration time is 0.2294 seconds per sample
dh230117Tamanrasset 22.79-5.529 2.649534pr865
************************************************************
Dead Time -------------------------  2.8E-08 
Number of Cycles Used -------------  4 
Starting Wavelength (Angstroms) ---  3331 
Final Wavelength (Angstoms) -------  3351 
Wavelength Increment (Angstroms) --  .25 
Filter Wheel #1 Position ---------- (1) Ground quartz diffuser (ND=2.32)
Filter Wheel #2 Position ---------- (0) Clear Aperture



************************************************************
HL scan start time = 04:20:41
Dark Count =  3.8 


Time (GMT)  Wavelength (Ang)  Step Number  Raw Counts  Counts/Second

  261.19        3331.00           6581           6.00         9.59
  261.41        3331.25           6585           5.00         5.23
  261.44        3331.50           6589           7.00        13.95
  261.47        3331.75           6593           4.00         2.00
  261.49        3332.00           6596           0.00         2.00
  261.52        3332.25           6600           7.00        13.95
  261.55        3332.50           6604           8.00        18.31
  261.57        3332.75           6608           4.00         2.00
  261.60        3333.00           6611           8.00        18.31
  261.63        3333.25           6615           2.00         2.00
  261.66        3333.50           6619           0.00         2.00
  261.68        3333.75           6623           6.00         9.59
  261.71        3334.00           6626           6.00         9.59
  261.74        3334.25           6630           8.00        18.31
  261.77        3334.50           6634           8.00        18.31
  261.79        3334.75           6638           1.00         2.00
  261.82        3335.00           6641           6.00         9.59
  261.85        3335.25           6645           8.00        18.31
  261.87        3335.50           6649           8.00        18.31
  261.90        3335.75           6653           3.00         2.00
  261.93        3336.00           6656           3.00         2.00
  261.96        3336.25           6660           0.00         2.00
  261.98        3336.50           6664           0.00         2.00
  262.01        3336.75           6668           0.00         2.00
  262.04        3337.00           6671           0.00         2.00
  262.07        3337.25           6675           8.00        18.31
  262.09        3337.50           6679           0.00         2.00
  262.12        3337.75           6683           0.00         2.00
  262.15        3338.00           6686           5.00         5.23
  262.17        3338.25           6690           7.00        13.95
  262.20        3338.50           6694           8.00        18.31
  262.23        3338.75           6698           5.00         5.23
  262.26        3339.00           6701           8.00        18.31
  262.28        3339.25           6705           8.00        18.31
  262.31        3339.50           6709           2.00         2.00
  262.34        3339.75           6713           8.00        18.31
  262.36        3340.00           6716           8.00        18.31
  262.39        3340.25           6720           0.00         2.00
  262.42        3340.50           6724           8.00        18.31
  262.45        3340.75           6728           1.00         2.00
  262.47        3341.00           6731           0.00         2.00
  262.50        3341.25           6735           0.00         2.00
  262.53        3341.50           6739           5.00         5.23
  262.56        3341.75           6743           0.00         2.00
  262.58        3342.00           6746           0.00         2.00
  262.61        3342.25           6750           0.00         2.00
  262.64        3342.50           6754           0.00         2.00
  262.66        3342.75           6758           4.00         2.00
  262.69        3343.00           6761           0.00         2.00
  262.72        3343.25           6765           3.00         2.00
  262.75        3343.50           6769           2.00         2.00
  262.77        3343.75           6773           6.00         9.59
  262.80        3344.00           6776           8.00        18.31
  262.83        3344.25           6780           0.00         2.00
  262.85        3344.50           6784           0.00         2.00
  262.88        3344.75           6788           8.00        18.31
  262.91        3345.00           6791           7.00        13.95
  262.94        3345.25           6795           2.00         2.00
  262.96        3345.50           6799           8.00        18.31
  262.99        3345.75           6803           2.00         2.00
  263.02        3346.00           6806           6.00         9.59
  263.04        3346.25           6810           1.00         2.00
  263.07        3346.50           6814           3.00         2.00
  263.10        3346.75           6818           6.00         9.59
  263.13        3347.00           6821           6.00         9.59
  263.15        3347.25           6825           0.00         2.00
  263.18        3347.50           6829           0.00         2.00
  263.21        3347.75           6833           5.00         5.23
  263.24        3348.00           6836           8.00        18.31
  263.26        3348.25           6840           6.00         9.59
  263.29        3348.50           6844           7.00        13.95
  263.32        3348.75           6848           6.00         9.59
  263.34        3349.00           6851           8.00        18.31
  263.37        3349.25           6855           4.00         2.00
  263.40        3349.50           6859           8.00        18.31
  263.43        3349.75           6863           7.00        13.95
  263.45        3350.00           6867           3.00         2.00
  263.48        3350.25           6870           8.00        18.31
  263.51        3350.50           6874           5.00         5.23
  263.54        3350.75           6878           0.00         2.00
  263.56        3351.00           6882           8.00        18.31
HL scan finished at 04:24:11
end
