************************************************************
  HL Scan of (1) Internal mercury lamp
************************************************************
Integration time is 0.2294 seconds per sample
dh220117Tamanrasset 22.79-5.529 2.649534pr865
************************************************************
Dead Time -------------------------  2.8E-08 
Number of Cycles Used -------------  4 
Starting Wavelength (Angstroms) ---  3331 
Final Wavelength (Angstoms) -------  3351 
Wavelength Increment (Angstroms) --  .25 
Filter Wheel #1 Position ---------- (1) Ground quartz diffuser (ND=2.32)
Filter Wheel #2 Position ---------- (0) Clear Aperture



************************************************************
HL scan start time = 04:20:40
Dark Count =  6.4 


Time (GMT)  Wavelength (Ang)  Step Number  Raw Counts  Counts/Second

  261.17        3331.00           6581           8.00         6.97
  261.39        3331.25           6585           8.00         6.97
  261.42        3331.50           6589           8.00         6.97
  261.45        3331.75           6593           9.00        11.33
  261.47        3332.00           6596           0.00         2.00
  261.50        3332.25           6600           3.00         2.00
  261.53        3332.50           6604           0.00         2.00
  261.55        3332.75           6608           8.00         6.97
  261.58        3333.00           6611           8.00         6.97
  261.61        3333.25           6615           1.00         2.00
  261.64        3333.50           6619           8.00         6.97
  261.66        3333.75           6623           4.00         2.00
  261.69        3334.00           6626           2.00         2.00
  261.72        3334.25           6630           4.00         2.00
  261.75        3334.50           6634           4.00         2.00
  261.77        3334.75           6638           8.00         6.97
  261.80        3335.00           6641           8.00         6.97
  261.83        3335.25           6645           0.00         2.00
  261.85        3335.50           6649           0.00         2.00
  261.88        3335.75           6653           4.00         2.00
  261.91        3336.00           6656           8.00         6.97
  261.94        3336.25           6660           5.00         2.00
  261.96        3336.50           6664           7.00         2.62
  261.99        3336.75           6668           1.00         2.00
  262.02        3337.00           6671           0.00         2.00
  262.04        3337.25           6675           0.00         2.00
  262.07        3337.50           6679           8.00         6.97
  262.10        3337.75           6683           8.00         6.97
  262.13        3338.00           6686           8.00         6.97
  262.15        3338.25           6690           2.00         2.00
  262.18        3338.50           6694           0.00         2.00
  262.21        3338.75           6698           0.00         2.00
  262.24        3339.00           6701           6.00         2.00
  262.26        3339.25           6705           8.00         6.97
  262.29        3339.50           6709           8.00         6.97
  262.32        3339.75           6713           0.00         2.00
  262.34        3340.00           6716           1.00         2.00
  262.37        3340.25           6720           6.00         2.00
  262.40        3340.50           6724           8.00         6.97
  262.43        3340.75           6728           2.00         2.00
  262.45        3341.00           6731           8.00         6.97
  262.48        3341.25           6735           5.00         2.00
  262.51        3341.50           6739           6.00         2.00
  262.54        3341.75           6743           8.00         6.97
  262.56        3342.00           6746           2.00         2.00
  262.59        3342.25           6750           0.00         2.00
  262.62        3342.50           6754           8.00         6.97
  262.64        3342.75           6758           0.00         2.00
  262.67        3343.00           6761           0.00         2.00
  262.70        3343.25           6765           0.00         2.00
  262.73        3343.50           6769           2.00         2.00
  262.75        3343.75           6773           4.00         2.00
  262.78        3344.00           6776           0.00         2.00
  262.81        3344.25           6780           7.00         2.62
  262.84        3344.50           6784           4.00         2.00
  262.86        3344.75           6788           0.00         2.00
  262.89        3345.00           6791           5.00         2.00
  262.92        3345.25           6795           8.00         6.97
  262.94        3345.50           6799           0.00         2.00
  262.97        3345.75           6803           6.00         2.00
  263.00        3346.00           6806           0.00         2.00
  263.03        3346.25           6810           8.00         6.97
  263.05        3346.50           6814           0.00         2.00
  263.08        3346.75           6818           0.00         2.00
  263.11        3347.00           6821           5.00         2.00
  263.14        3347.25           6825           0.00         2.00
  263.16        3347.50           6829           0.00         2.00
  263.19        3347.75           6833           6.00         2.00
  263.22        3348.00           6836           0.00         2.00
  263.24        3348.25           6840           5.00         2.00
  263.27        3348.50           6844           0.00         2.00
  263.30        3348.75           6848           1.00         2.00
  263.33        3349.00           6851           2.00         2.00
  263.35        3349.25           6855           5.00         2.00
  263.38        3349.50           6859           3.00         2.00
  263.41        3349.75           6863           8.00         6.97
  263.44        3350.00           6867           3.00         2.00
  263.46        3350.25           6870           7.00         2.62
  263.49        3350.50           6874           4.00         2.00
  263.52        3350.75           6878           0.00         2.00
  263.54        3351.00           6882           0.00         2.00
HL scan finished at 04:24:10
end
