************************************************************
  HL Scan of (1) Internal mercury lamp
************************************************************
Integration time is 0.2294 seconds per sample
dh250117Tamanrasset 22.79-5.529 2.649534pr865
************************************************************
Dead Time -------------------------  2.8E-08 
Number of Cycles Used -------------  4 
Starting Wavelength (Angstroms) ---  3331 
Final Wavelength (Angstoms) -------  3351 
Wavelength Increment (Angstroms) --  .25 
Filter Wheel #1 Position ---------- (1) Ground quartz diffuser (ND=2.32)
Filter Wheel #2 Position ---------- (0) Clear Aperture



************************************************************
HL scan start time = 04:19:39
Dark Count =  4.9 


Time (GMT)  Wavelength (Ang)  Step Number  Raw Counts  Counts/Second

  260.15        3331.00           6581           0.00         2.00
  260.37        3331.25           6585           0.00         2.00
  260.40        3331.50           6589           6.00         4.80
  260.43        3331.75           6593           6.00         4.80
  260.45        3332.00           6596           8.00        13.51
  260.48        3332.25           6600           8.00        13.51
  260.51        3332.50           6604           1.00         2.00
  260.54        3332.75           6608           0.00         2.00
  260.56        3333.00           6611           1.00         2.00
  260.59        3333.25           6615           8.00        13.51
  260.62        3333.50           6619           0.00         2.00
  260.64        3333.75           6623           3.00         2.00
  260.67        3334.00           6626           4.00         2.00
  260.70        3334.25           6630           2.00         2.00
  260.73        3334.50           6634           0.00         2.00
  260.75        3334.75           6638           7.00         9.15
  260.78        3335.00           6641           7.00         9.15
  260.81        3335.25           6645           0.00         2.00
  260.83        3335.50           6649           8.00        13.51
  260.86        3335.75           6653           8.00        13.51
  260.89        3336.00           6656           0.00         2.00
  260.92        3336.25           6660           8.00        13.51
  260.94        3336.50           6664           8.00        13.51
  260.97        3336.75           6668           8.00        13.51
  261.00        3337.00           6671           8.00        13.51
  261.03        3337.25           6675           3.00         2.00
  261.05        3337.50           6679           5.00         2.00
  261.08        3337.75           6683           8.00        13.51
  261.11        3338.00           6686           1.00         2.00
  261.13        3338.25           6690           4.00         2.00
  261.16        3338.50           6694           0.00         2.00
  261.19        3338.75           6698           4.00         2.00
  261.22        3339.00           6701           8.00        13.51
  261.24        3339.25           6705           0.00         2.00
  261.27        3339.50           6709           8.00        13.51
  261.30        3339.75           6713           7.00         9.15
  261.33        3340.00           6716           8.00        13.51
  261.35        3340.25           6720           3.00         2.00
  261.38        3340.50           6724           0.00         2.00
  261.41        3340.75           6728           8.00        13.51
  261.43        3341.00           6731           4.00         2.00
  261.46        3341.25           6735           0.00         2.00
  261.49        3341.50           6739           1.00         2.00
  261.52        3341.75           6743           5.00         2.00
  261.54        3342.00           6746           0.00         2.00
  261.57        3342.25           6750           0.00         2.00
  261.60        3342.50           6754           2.00         2.00
  261.63        3342.75           6758           8.00        13.51
  261.65        3343.00           6761           3.00         2.00
  261.68        3343.25           6765           7.00         9.15
  261.71        3343.50           6769           8.00        13.51
  261.74        3343.75           6773           3.00         2.00
  261.76        3344.00           6776           0.00         2.00
  261.79        3344.25           6780           3.00         2.00
  261.82        3344.50           6784           8.00        13.51
  261.84        3344.75           6788           7.00         9.15
  261.87        3345.00           6791           3.00         2.00
  261.90        3345.25           6795           5.00         2.00
  261.93        3345.50           6799           8.00        13.51
  261.95        3345.75           6803           8.00        13.51
  261.98        3346.00           6806           0.00         2.00
  262.01        3346.25           6810           0.00         2.00
  262.03        3346.50           6814           8.00        13.51
  262.06        3346.75           6818           8.00        13.51
  262.09        3347.00           6821           0.00         2.00
  262.12        3347.25           6825           8.00        13.51
  262.14        3347.50           6829           2.00         2.00
  262.17        3347.75           6833           0.00         2.00
  262.20        3348.00           6836           0.00         2.00
  262.22        3348.25           6840           0.00         2.00
  262.25        3348.50           6844           8.00        13.51
  262.28        3348.75           6848           8.00        13.51
  262.31        3349.00           6851           8.00        13.51
  262.33        3349.25           6855           0.00         2.00
  262.36        3349.50           6859           4.00         2.00
  262.39        3349.75           6863           6.00         4.80
  262.42        3350.00           6867           0.00         2.00
  262.44        3350.25           6870           6.00         4.80
  262.47        3350.50           6874           8.00        13.51
  262.50        3350.75           6878           8.00        13.51
  262.52        3351.00           6882           5.00         2.00
HL scan finished at 04:23:09
end
