************************************************************
  HL Scan of (1) Internal mercury lamp
************************************************************
Integration time is 0.2294 seconds per sample
dh060217Tamanrasset 22.79-5.529 2.680123pr865
************************************************************
Dead Time -------------------------  2.8E-08 
Number of Cycles Used -------------  4 
Starting Wavelength (Angstroms) ---  3331 
Final Wavelength (Angstoms) -------  3351 
Wavelength Increment (Angstroms) --  .25 
Filter Wheel #1 Position ---------- (1) Ground quartz diffuser (ND=2.32)
Filter Wheel #2 Position ---------- (0) Clear Aperture



************************************************************
HL scan start time = 04:15:15
Dark Count =  3.5 


Time (GMT)  Wavelength (Ang)  Step Number  Raw Counts  Counts/Second

  255.75        3331.00           6581           8.00        19.62
  255.97        3331.25           6585           6.00        10.90
  256.00        3331.50           6589           3.00         2.00
  256.03        3331.75           6593           8.00        19.62
  256.05        3332.00           6596           6.00        10.90
  256.08        3332.25           6600           8.00        19.62
  256.11        3332.50           6604           8.00        19.62
  256.14        3332.75           6608           8.00        19.62
  256.16        3333.00           6611           0.00         2.00
  256.19        3333.25           6615           4.00         2.18
  256.22        3333.50           6619           8.00        19.62
  256.24        3333.75           6623           8.00        19.62
  256.27        3334.00           6626           8.00        19.62
  256.30        3334.25           6630           8.00        19.62
  256.32        3334.50           6634           2.00         2.00
  256.35        3334.75           6638           2.00         2.00
  256.38        3335.00           6641           6.00        10.90
  256.41        3335.25           6645           2.00         2.00
  256.43        3335.50           6649           0.00         2.00
  256.46        3335.75           6653           0.00         2.00
  256.49        3336.00           6656           8.00        19.62
  256.51        3336.25           6660           0.00         2.00
  256.54        3336.50           6664           1.00         2.00
  256.57        3336.75           6668           5.00         6.54
  256.60        3337.00           6671           4.00         2.18
  256.62        3337.25           6675           8.00        19.62
  256.65        3337.50           6679           8.00        19.62
  256.68        3337.75           6683           8.00        19.62
  256.70        3338.00           6686           0.00         2.00
  256.73        3338.25           6690           0.00         2.00
  256.76        3338.50           6694           8.00        19.62
  256.79        3338.75           6698           8.00        19.62
  256.81        3339.00           6701           0.00         2.00
  256.84        3339.25           6705           0.00         2.00
  256.87        3339.50           6709           8.00        19.62
  256.89        3339.75           6713           0.00         2.00
  256.92        3340.00           6716           6.00        10.90
  256.95        3340.25           6720           6.00        10.90
  256.98        3340.50           6724           0.00         2.00
  257.00        3340.75           6728           6.00        10.90
  257.03        3341.00           6731           8.00        19.62
  257.06        3341.25           6735           0.00         2.00
  257.08        3341.50           6739           8.00        19.62
  257.11        3341.75           6743           0.00         2.00
  257.14        3342.00           6746           0.00         2.00
  257.17        3342.25           6750           5.00         6.54
  257.19        3342.50           6754           8.00        19.62
  257.22        3342.75           6758           1.00         2.00
  257.25        3343.00           6761           0.00         2.00
  257.27        3343.25           6765           8.00        19.62
  257.30        3343.50           6769           0.00         2.00
  257.33        3343.75           6773           7.00        15.26
  257.36        3344.00           6776           8.00        19.62
  257.38        3344.25           6780           8.00        19.62
  257.41        3344.50           6784           8.00        19.62
  257.44        3344.75           6788           7.00        15.26
  257.46        3345.00           6791           1.00         2.00
  257.49        3345.25           6795           4.00         2.18
  257.52        3345.50           6799           0.00         2.00
  257.55        3345.75           6803           0.00         2.00
  257.57        3346.00           6806           0.00         2.00
  257.60        3346.25           6810           0.00         2.00
  257.63        3346.50           6814           8.00        19.62
  257.65        3346.75           6818           8.00        19.62
  257.68        3347.00           6821           8.00        19.62
  257.71        3347.25           6825           4.00         2.18
  257.73        3347.50           6829           4.00         2.18
  257.76        3347.75           6833           8.00        19.62
  257.79        3348.00           6836           1.00         2.00
  257.82        3348.25           6840           8.00        19.62
  257.84        3348.50           6844           0.00         2.00
  257.87        3348.75           6848           3.00         2.00
  257.90        3349.00           6851           5.00         6.54
  257.92        3349.25           6855           7.00        15.26
  257.95        3349.50           6859           0.00         2.00
  257.98        3349.75           6863           0.00         2.00
  258.01        3350.00           6867           3.00         2.00
  258.03        3350.25           6870           7.00        15.26
  258.06        3350.50           6874           0.00         2.00
  258.09        3350.75           6878           0.00         2.00
  258.11        3351.00           6882           3.00         2.00
HL scan finished at 04:18:44
end
