************************************************************
  HL Scan of (1) Internal mercury lamp
************************************************************
Integration time is 0.2294 seconds per sample
dh310117Tamanrasset 22.79-5.529 2.675025pr865
************************************************************
Dead Time -------------------------  2.8E-08 
Number of Cycles Used -------------  4 
Starting Wavelength (Angstroms) ---  3331 
Final Wavelength (Angstoms) -------  3351 
Wavelength Increment (Angstroms) --  .25 
Filter Wheel #1 Position ---------- (1) Ground quartz diffuser (ND=2.32)
Filter Wheel #2 Position ---------- (0) Clear Aperture



************************************************************
HL scan start time = 04:18:20
Dark Count =  3.5 


Time (GMT)  Wavelength (Ang)  Step Number  Raw Counts  Counts/Second

  258.85        3331.00           6581           0.00         2.00
  259.06        3331.25           6585           8.00        19.62
  259.09        3331.50           6589           0.00         2.00
  259.12        3331.75           6593           0.00         2.00
  259.15        3332.00           6596           8.00        19.62
  259.17        3332.25           6600           0.00         2.00
  259.20        3332.50           6604           8.00        19.62
  259.23        3332.75           6608           8.00        19.62
  259.25        3333.00           6611           8.00        19.62
  259.28        3333.25           6615           7.00        15.26
  259.31        3333.50           6619           8.00        19.62
  259.34        3333.75           6623           8.00        19.62
  259.36        3334.00           6626           4.00         2.18
  259.39        3334.25           6630           0.00         2.00
  259.42        3334.50           6634           0.00         2.00
  259.44        3334.75           6638           5.00         6.54
  259.47        3335.00           6641           8.00        19.62
  259.50        3335.25           6645           8.00        19.62
  259.53        3335.50           6649           3.00         2.00
  259.55        3335.75           6653           6.00        10.90
  259.58        3336.00           6656           8.00        19.62
  259.61        3336.25           6660           0.00         2.00
  259.64        3336.50           6664           8.00        19.62
  259.66        3336.75           6668           4.00         2.18
  259.69        3337.00           6671           8.00        19.62
  259.72        3337.25           6675           8.00        19.62
  259.74        3337.50           6679           4.00         2.18
  259.77        3337.75           6683           0.00         2.00
  259.80        3338.00           6686           1.00         2.00
  259.83        3338.25           6690           1.00         2.00
  259.85        3338.50           6694           5.00         6.54
  259.88        3338.75           6698           0.00         2.00
  259.91        3339.00           6701           8.00        19.62
  259.93        3339.25           6705           2.00         2.00
  259.96        3339.50           6709           0.00         2.00
  259.99        3339.75           6713           0.00         2.00
  260.02        3340.00           6716           4.00         2.18
  260.04        3340.25           6720           0.00         2.00
  260.07        3340.50           6724           4.00         2.18
  260.10        3340.75           6728           7.00        15.26
  260.12        3341.00           6731           0.00         2.00
  260.15        3341.25           6735           3.00         2.00
  260.18        3341.50           6739           8.00        19.62
  260.21        3341.75           6743           8.00        19.62
  260.23        3342.00           6746           8.00        19.62
  260.26        3342.25           6750           8.00        19.62
  260.29        3342.50           6754           3.00         2.00
  260.32        3342.75           6758           8.00        19.62
  260.34        3343.00           6761           5.00         6.54
  260.37        3343.25           6765           3.00         2.00
  260.40        3343.50           6769           8.00        19.62
  260.42        3343.75           6773           7.00        15.26
  260.45        3344.00           6776           0.00         2.00
  260.48        3344.25           6780           8.00        19.62
  260.51        3344.50           6784           7.00        15.26
  260.53        3344.75           6788           8.00        19.62
  260.56        3345.00           6791           0.00         2.00
  260.59        3345.25           6795           7.00        15.26
  260.62        3345.50           6799           8.00        19.62
  260.64        3345.75           6803           0.00         2.00
  260.67        3346.00           6806           5.00         6.54
  260.70        3346.25           6810           8.00        19.62
  260.72        3346.50           6814           3.00         2.00
  260.75        3346.75           6818           6.00        10.90
  260.78        3347.00           6821           8.00        19.62
  260.81        3347.25           6825           8.00        19.62
  260.83        3347.50           6829           8.00        19.62
  260.86        3347.75           6833           6.00        10.90
  260.89        3348.00           6836           8.00        19.62
  260.91        3348.25           6840           3.00         2.00
  260.94        3348.50           6844           0.00         2.00
  260.97        3348.75           6848           0.00         2.00
  261.00        3349.00           6851           7.00        15.26
  261.02        3349.25           6855           8.00        19.62
  261.05        3349.50           6859           4.00         2.18
  261.08        3349.75           6863           8.00        19.62
  261.11        3350.00           6867           8.00        19.62
  261.13        3350.25           6870           0.00         2.00
  261.16        3350.50           6874           7.00        15.26
  261.19        3350.75           6878           0.00         2.00
  261.22        3351.00           6882           0.00         2.00
HL scan finished at 04:21:50
end
