************************************************************
  HL Scan of (1) Internal mercury lamp
************************************************************
Integration time is 0.2294 seconds per sample
dh040217Tamanrasset 22.79-5.529 2.72091pr865
************************************************************
Dead Time -------------------------  2.8E-08 
Number of Cycles Used -------------  4 
Starting Wavelength (Angstroms) ---  3331 
Final Wavelength (Angstoms) -------  3351 
Wavelength Increment (Angstroms) --  .25 
Filter Wheel #1 Position ---------- (1) Ground quartz diffuser (ND=2.32)
Filter Wheel #2 Position ---------- (0) Clear Aperture



************************************************************
HL scan start time = 04:16:19
Dark Count =  3.3 


Time (GMT)  Wavelength (Ang)  Step Number  Raw Counts  Counts/Second

  256.83        3331.00           6581           0.00         2.00
  257.05        3331.25           6585           2.00         2.00
  257.08        3331.50           6589           8.00        20.49
  257.10        3331.75           6593           8.00        20.49
  257.13        3332.00           6596           0.00         2.00
  257.16        3332.25           6600           0.00         2.00
  257.19        3332.50           6604           3.00         2.00
  257.21        3332.75           6608           3.00         2.00
  257.24        3333.00           6611           8.00        20.49
  257.27        3333.25           6615           0.00         2.00
  257.29        3333.50           6619           8.00        20.49
  257.32        3333.75           6623           0.00         2.00
  257.35        3334.00           6626           0.00         2.00
  257.38        3334.25           6630           2.00         2.00
  257.40        3334.50           6634           8.00        20.49
  257.43        3334.75           6638           8.00        20.49
  257.46        3335.00           6641           2.00         2.00
  257.49        3335.25           6645           4.00         3.05
  257.51        3335.50           6649           0.00         2.00
  257.54        3335.75           6653           7.00        16.13
  257.57        3336.00           6656           4.00         3.05
  257.59        3336.25           6660           6.00        11.77
  257.62        3336.50           6664           1.00         2.00
  257.65        3336.75           6668           3.00         2.00
  257.68        3337.00           6671           7.00        16.13
  257.70        3337.25           6675           3.00         2.00
  257.73        3337.50           6679           0.00         2.00
  257.76        3337.75           6683           6.00        11.77
  257.79        3338.00           6686           8.00        20.49
  257.81        3338.25           6690           6.00        11.77
  257.84        3338.50           6694           4.00         3.05
  257.87        3338.75           6698           7.00        16.13
  257.89        3339.00           6701           8.00        20.49
  257.92        3339.25           6705           8.00        20.49
  257.95        3339.50           6709           0.00         2.00
  257.98        3339.75           6713           0.00         2.00
  258.00        3340.00           6716           8.00        20.49
  258.03        3340.25           6720           4.00         3.05
  258.06        3340.50           6724           0.00         2.00
  258.09        3340.75           6728           0.00         2.00
  258.11        3341.00           6731           5.00         7.41
  258.14        3341.25           6735           0.00         2.00
  258.17        3341.50           6739           8.00        20.49
  258.19        3341.75           6743           8.00        20.49
  258.22        3342.00           6746           5.00         7.41
  258.25        3342.25           6750           5.00         7.41
  258.28        3342.50           6754           0.00         2.00
  258.30        3342.75           6758           7.00        16.13
  258.33        3343.00           6761           2.00         2.00
  258.36        3343.25           6765           4.00         3.05
  258.38        3343.50           6769           0.00         2.00
  258.41        3343.75           6773           8.00        20.49
  258.44        3344.00           6776           0.00         2.00
  258.47        3344.25           6780           4.00         3.05
  258.49        3344.50           6784           2.00         2.00
  258.52        3344.75           6788           8.00        20.49
  258.55        3345.00           6791           7.00        16.13
  258.58        3345.25           6795           8.00        20.49
  258.60        3345.50           6799           8.00        20.49
  258.63        3345.75           6803           3.00         2.00
  258.66        3346.00           6806           8.00        20.49
  258.68        3346.25           6810           8.00        20.49
  258.71        3346.50           6814           8.00        20.49
  258.74        3346.75           6818           4.00         3.05
  258.77        3347.00           6821           8.00        20.49
  258.79        3347.25           6825           4.00         3.05
  258.82        3347.50           6829           5.00         7.41
  258.85        3347.75           6833           8.00        20.49
  258.88        3348.00           6836           5.00         7.41
  258.90        3348.25           6840           6.00        11.77
  258.93        3348.50           6844           6.00        11.77
  258.96        3348.75           6848           7.00        16.13
  258.99        3349.00           6851           8.00        20.49
  259.01        3349.25           6855           8.00        20.49
  259.04        3349.50           6859           0.00         2.00
  259.07        3349.75           6863           0.00         2.00
  259.09        3350.00           6867           0.00         2.00
  259.12        3350.25           6870           8.00        20.49
  259.15        3350.50           6874           3.00         2.00
  259.18        3350.75           6878           0.00         2.00
  259.20        3351.00           6882           0.00         2.00
HL scan finished at 04:19:50
end
