************************************************************
  HL Scan of (1) Internal mercury lamp
************************************************************
Integration time is 0.2294 seconds per sample
dh020217Tamanrasset 22.79-5.529 2.695419pr865
************************************************************
Dead Time -------------------------  2.8E-08 
Number of Cycles Used -------------  4 
Starting Wavelength (Angstroms) ---  3331 
Final Wavelength (Angstoms) -------  3351 
Wavelength Increment (Angstroms) --  .25 
Filter Wheel #1 Position ---------- (1) Ground quartz diffuser (ND=2.32)
Filter Wheel #2 Position ---------- (0) Clear Aperture



************************************************************
HL scan start time = 04:17:20
Dark Count =  4.9 


Time (GMT)  Wavelength (Ang)  Step Number  Raw Counts  Counts/Second

  257.84        3331.00           6581           4.00         2.00
  258.06        3331.25           6585           6.00         4.80
  258.09        3331.50           6589           0.00         2.00
  258.11        3331.75           6593           2.00         2.00
  258.14        3332.00           6596           0.00         2.00
  258.17        3332.25           6600           0.00         2.00
  258.20        3332.50           6604           5.00         2.00
  258.22        3332.75           6608           8.00        13.51
  258.25        3333.00           6611           5.00         2.00
  258.28        3333.25           6615           7.00         9.15
  258.30        3333.50           6619           6.00         4.80
  258.33        3333.75           6623           8.00        13.51
  258.36        3334.00           6626           0.00         2.00
  258.39        3334.25           6630           0.00         2.00
  258.41        3334.50           6634           0.00         2.00
  258.44        3334.75           6638           8.00        13.51
  258.47        3335.00           6641           8.00        13.51
  258.49        3335.25           6645           4.00         2.00
  258.52        3335.50           6649           3.00         2.00
  258.55        3335.75           6653           8.00        13.51
  258.58        3336.00           6656           8.00        13.51
  258.60        3336.25           6660           8.00        13.51
  258.63        3336.50           6664           0.00         2.00
  258.66        3336.75           6668           3.00         2.00
  258.69        3337.00           6671           7.00         9.15
  258.71        3337.25           6675           8.00        13.51
  258.74        3337.50           6679           1.00         2.00
  258.77        3337.75           6683           5.00         2.00
  258.79        3338.00           6686           1.00         2.00
  258.82        3338.25           6690           1.00         2.00
  258.85        3338.50           6694           0.00         2.00
  258.88        3338.75           6698           8.00        13.51
  258.90        3339.00           6701           0.00         2.00
  258.93        3339.25           6705           0.00         2.00
  258.96        3339.50           6709           8.00        13.51
  258.99        3339.75           6713           6.00         4.80
  259.01        3340.00           6716           2.00         2.00
  259.04        3340.25           6720           3.00         2.00
  259.07        3340.50           6724           0.00         2.00
  259.09        3340.75           6728           5.00         2.00
  259.12        3341.00           6731           8.00        13.51
  259.15        3341.25           6735           8.00        13.51
  259.18        3341.50           6739           0.00         2.00
  259.20        3341.75           6743           0.00         2.00
  259.23        3342.00           6746           5.00         2.00
  259.26        3342.25           6750           1.00         2.00
  259.28        3342.50           6754           8.00        13.51
  259.31        3342.75           6758           8.00        13.51
  259.34        3343.00           6761           8.00        13.51
  259.37        3343.25           6765           7.00         9.15
  259.39        3343.50           6769           0.00         2.00
  259.42        3343.75           6773           0.00         2.00
  259.45        3344.00           6776           8.00        13.51
  259.48        3344.25           6780           3.00         2.00
  259.50        3344.50           6784           0.00         2.00
  259.53        3344.75           6788           7.00         9.15
  259.56        3345.00           6791           5.00         2.00
  259.58        3345.25           6795           6.00         4.80
  259.61        3345.50           6799           0.00         2.00
  259.64        3345.75           6803           8.00        13.51
  259.67        3346.00           6806           8.00        13.51
  259.69        3346.25           6810           8.00        13.51
  259.72        3346.50           6814           0.00         2.00
  259.75        3346.75           6818           7.00         9.15
  259.78        3347.00           6821           8.00        13.51
  259.80        3347.25           6825           8.00        13.51
  259.83        3347.50           6829           8.00        13.51
  259.86        3347.75           6833           0.00         2.00
  259.88        3348.00           6836           0.00         2.00
  259.91        3348.25           6840           8.00        13.51
  259.94        3348.50           6844           7.00         9.15
  259.97        3348.75           6848           8.00        13.51
  259.99        3349.00           6851           8.00        13.51
  260.02        3349.25           6855           8.00        13.51
  260.05        3349.50           6859           2.00         2.00
  260.07        3349.75           6863           0.00         2.00
  260.10        3350.00           6867           3.00         2.00
  260.13        3350.25           6870           0.00         2.00
  260.16        3350.50           6874           5.00         2.00
  260.18        3350.75           6878           4.00         2.00
  260.21        3351.00           6882           3.00         2.00
HL scan finished at 04:20:50
end
