************************************************************
  HL Scan of (1) Internal mercury lamp
************************************************************
Integration time is 0.2294 seconds per sample
dh070217Tamanrasset 22.79-5.529 2.680123pr865
************************************************************
Dead Time -------------------------  2.8E-08 
Number of Cycles Used -------------  4 
Starting Wavelength (Angstroms) ---  3331 
Final Wavelength (Angstoms) -------  3351 
Wavelength Increment (Angstroms) --  .25 
Filter Wheel #1 Position ---------- (1) Ground quartz diffuser (ND=2.32)
Filter Wheel #2 Position ---------- (0) Clear Aperture



************************************************************
HL scan start time = 04:14:36
Dark Count =  4.4 


Time (GMT)  Wavelength (Ang)  Step Number  Raw Counts  Counts/Second

  255.11        3331.00           6581           0.00         2.00
  255.33        3331.25           6585           0.00         2.00
  255.36        3331.50           6589           0.00         2.00
  255.39        3331.75           6593           5.00         2.62
  255.41        3332.00           6596           8.00        15.69
  255.44        3332.25           6600           8.00        15.69
  255.47        3332.50           6604           0.00         2.00
  255.50        3332.75           6608           7.00        11.33
  255.52        3333.00           6611           2.00         2.00
  255.55        3333.25           6615           8.00        15.69
  255.58        3333.50           6619           5.00         2.62
  255.60        3333.75           6623           0.00         2.00
  255.63        3334.00           6626           0.00         2.00
  255.66        3334.25           6630           3.00         2.00
  255.68        3334.50           6634           4.00         2.00
  255.71        3334.75           6638           4.00         2.00
  255.74        3335.00           6641           0.00         2.00
  255.77        3335.25           6645           8.00        15.69
  255.79        3335.50           6649           3.00         2.00
  255.82        3335.75           6653           6.00         6.97
  255.85        3336.00           6656           8.00        15.69
  255.87        3336.25           6660           3.00         2.00
  255.90        3336.50           6664           0.00         2.00
  255.93        3336.75           6668           8.00        15.69
  255.96        3337.00           6671           3.00         2.00
  255.98        3337.25           6675           1.00         2.00
  256.01        3337.50           6679           8.00        15.69
  256.04        3337.75           6683           0.00         2.00
  256.06        3338.00           6686           5.00         2.62
  256.09        3338.25           6690           6.00         6.97
  256.12        3338.50           6694           0.00         2.00
  256.15        3338.75           6698           2.00         2.00
  256.17        3339.00           6701           0.00         2.00
  256.20        3339.25           6705           0.00         2.00
  256.23        3339.50           6709           3.00         2.00
  256.25        3339.75           6713           8.00        15.69
  256.28        3340.00           6716           0.00         2.00
  256.31        3340.25           6720           8.00        15.69
  256.34        3340.50           6724           8.00        15.69
  256.36        3340.75           6728           0.00         2.00
  256.39        3341.00           6731           1.00         2.00
  256.42        3341.25           6735           0.00         2.00
  256.44        3341.50           6739           0.00         2.00
  256.47        3341.75           6743           8.00        15.69
  256.50        3342.00           6746           8.00        15.69
  256.52        3342.25           6750           3.00         2.00
  256.55        3342.50           6754           5.00         2.62
  256.58        3342.75           6758           6.00         6.97
  256.61        3343.00           6761           5.00         2.62
  256.63        3343.25           6765           8.00        15.69
  256.66        3343.50           6769           0.00         2.00
  256.69        3343.75           6773           8.00        15.69
  256.71        3344.00           6776           8.00        15.69
  256.74        3344.25           6780           3.00         2.00
  256.77        3344.50           6784           5.00         2.62
  256.80        3344.75           6788           6.00         6.97
  256.82        3345.00           6791           8.00        15.69
  256.85        3345.25           6795           6.00         6.97
  256.88        3345.50           6799           3.00         2.00
  256.91        3345.75           6803           8.00        15.69
  256.93        3346.00           6806           8.00        15.69
  256.96        3346.25           6810           0.00         2.00
  256.99        3346.50           6814           8.00        15.69
  257.01        3346.75           6818           4.00         2.00
  257.04        3347.00           6821           5.00         2.62
  257.07        3347.25           6825           8.00        15.69
  257.09        3347.50           6829           8.00        15.69
  257.12        3347.75           6833           4.00         2.00
  257.15        3348.00           6836           1.00         2.00
  257.18        3348.25           6840           0.00         2.00
  257.20        3348.50           6844           0.00         2.00
  257.23        3348.75           6848           0.00         2.00
  257.26        3349.00           6851           8.00        15.69
  257.28        3349.25           6855           8.00        15.69
  257.31        3349.50           6859           8.00        15.69
  257.34        3349.75           6863           8.00        15.69
  257.37        3350.00           6867           8.00        15.69
  257.39        3350.25           6870           0.00         2.00
  257.42        3350.50           6874           0.00         2.00
  257.45        3350.75           6878           5.00         2.62
  257.47        3351.00           6882           8.00        15.69
HL scan finished at 04:18:06
end
