************************************************************
  HL Scan of (1) Internal mercury lamp
************************************************************
Integration time is 0.2294 seconds per sample
dh010217Tamanrasset 22.79-5.529 2.700517pr865
************************************************************
Dead Time -------------------------  2.8E-08 
Number of Cycles Used -------------  4 
Starting Wavelength (Angstroms) ---  3331 
Final Wavelength (Angstoms) -------  3351 
Wavelength Increment (Angstroms) --  .25 
Filter Wheel #1 Position ---------- (1) Ground quartz diffuser (ND=2.32)
Filter Wheel #2 Position ---------- (0) Clear Aperture



************************************************************
HL scan start time = 04:17:21
Dark Count =  3 


Time (GMT)  Wavelength (Ang)  Step Number  Raw Counts  Counts/Second

  257.87        3331.00           6581           8.00        21.80
  258.08        3331.25           6585           4.00         4.36
  258.11        3331.50           6589           8.00        21.80
  258.14        3331.75           6593           8.00        21.80
  258.17        3332.00           6596           8.00        21.80
  258.19        3332.25           6600           8.00        21.80
  258.22        3332.50           6604           2.00         2.00
  258.25        3332.75           6608           0.00         2.00
  258.27        3333.00           6611           8.00        21.80
  258.30        3333.25           6615           2.00         2.00
  258.33        3333.50           6619           1.00         2.00
  258.36        3333.75           6623           0.00         2.00
  258.38        3334.00           6626           8.00        21.80
  258.41        3334.25           6630           3.00         2.00
  258.44        3334.50           6634           8.00        21.80
  258.47        3334.75           6638           8.00        21.80
  258.49        3335.00           6641           1.00         2.00
  258.52        3335.25           6645           8.00        21.80
  258.55        3335.50           6649           8.00        21.80
  258.57        3335.75           6653           1.00         2.00
  258.60        3336.00           6656           3.00         2.00
  258.63        3336.25           6660           8.00        21.80
  258.66        3336.50           6664           8.00        21.80
  258.68        3336.75           6668           8.00        21.80
  258.71        3337.00           6671           0.00         2.00
  258.74        3337.25           6675           6.00        13.08
  258.76        3337.50           6679           8.00        21.80
  258.79        3337.75           6683           7.00        17.44
  258.82        3338.00           6686           7.00        17.44
  258.85        3338.25           6690           0.00         2.00
  258.87        3338.50           6694           6.00        13.08
  258.90        3338.75           6698           8.00        21.80
  258.93        3339.00           6701           8.00        21.80
  258.96        3339.25           6705           3.00         2.00
  258.98        3339.50           6709           5.00         8.72
  259.01        3339.75           6713           1.00         2.00
  259.04        3340.00           6716           7.00        17.44
  259.06        3340.25           6720           0.00         2.00
  259.09        3340.50           6724           4.00         4.36
  259.12        3340.75           6728           1.00         2.00
  259.15        3341.00           6731           0.00         2.00
  259.17        3341.25           6735           0.00         2.00
  259.20        3341.50           6739           3.00         2.00
  259.23        3341.75           6743           6.00        13.08
  259.26        3342.00           6746           8.00        21.80
  259.28        3342.25           6750           0.00         2.00
  259.31        3342.50           6754           8.00        21.80
  259.34        3342.75           6758           2.00         2.00
  259.36        3343.00           6761           8.00        21.80
  259.39        3343.25           6765           0.00         2.00
  259.42        3343.50           6769           1.00         2.00
  259.45        3343.75           6773           4.00         4.36
  259.47        3344.00           6776           5.00         8.72
  259.50        3344.25           6780           3.00         2.00
  259.53        3344.50           6784           0.00         2.00
  259.55        3344.75           6788           0.00         2.00
  259.58        3345.00           6791           3.00         2.00
  259.61        3345.25           6795           8.00        21.80
  259.64        3345.50           6799           0.00         2.00
  259.66        3345.75           6803           8.00        21.80
  259.69        3346.00           6806           8.00        21.80
  259.72        3346.25           6810           0.00         2.00
  259.75        3346.50           6814           0.00         2.00
  259.77        3346.75           6818           0.00         2.00
  259.80        3347.00           6821           0.00         2.00
  259.83        3347.25           6825           0.00         2.00
  259.85        3347.50           6829           6.00        13.08
  259.88        3347.75           6833           5.00         8.72
  259.91        3348.00           6836           0.00         2.00
  259.94        3348.25           6840           8.00        21.80
  259.96        3348.50           6844           5.00         8.72
  259.99        3348.75           6848           7.00        17.44
  260.02        3349.00           6851           0.00         2.00
  260.05        3349.25           6855           5.00         8.72
  260.07        3349.50           6859           8.00        21.80
  260.10        3349.75           6863           4.00         4.36
  260.13        3350.00           6867           5.00         8.72
  260.15        3350.25           6870           8.00        21.80
  260.18        3350.50           6874           1.00         2.00
  260.21        3350.75           6878           2.00         2.00
  260.24        3351.00           6882           0.00         2.00
HL scan finished at 04:20:52
end
