************************************************************
  HL Scan of (1) Internal mercury lamp
************************************************************
Integration time is 0.2294 seconds per sample
dh080217Tamanrasset 22.79-5.529 2.685222pr865
************************************************************
Dead Time -------------------------  2.8E-08 
Number of Cycles Used -------------  4 
Starting Wavelength (Angstroms) ---  3331 
Final Wavelength (Angstoms) -------  3351 
Wavelength Increment (Angstroms) --  .25 
Filter Wheel #1 Position ---------- (1) Ground quartz diffuser (ND=2.32)
Filter Wheel #2 Position ---------- (0) Clear Aperture



************************************************************
HL scan start time = 04:14:15
Dark Count =  4.8 


Time (GMT)  Wavelength (Ang)  Step Number  Raw Counts  Counts/Second

  254.77        3331.00           6581           8.00        13.95
  254.98        3331.25           6585           8.00        13.95
  255.01        3331.50           6589           0.00         2.00
  255.04        3331.75           6593           8.00        13.95
  255.07        3332.00           6596           5.00         2.00
  255.09        3332.25           6600           0.00         2.00
  255.12        3332.50           6604           0.00         2.00
  255.15        3332.75           6608           1.00         2.00
  255.17        3333.00           6611           8.00        13.95
  255.20        3333.25           6615           8.00        13.95
  255.23        3333.50           6619           8.00        13.95
  255.26        3333.75           6623           8.00        13.95
  255.28        3334.00           6626           7.00         9.59
  255.31        3334.25           6630           0.00         2.00
  255.34        3334.50           6634           8.00        13.95
  255.36        3334.75           6638           0.00         2.00
  255.39        3335.00           6641           7.00         9.59
  255.42        3335.25           6645           0.00         2.00
  255.45        3335.50           6649           4.00         2.00
  255.47        3335.75           6653           8.00        13.95
  255.50        3336.00           6656           4.00         2.00
  255.53        3336.25           6660           0.00         2.00
  255.55        3336.50           6664           5.00         2.00
  255.58        3336.75           6668           5.00         2.00
  255.61        3337.00           6671           8.00        13.95
  255.64        3337.25           6675           3.00         2.00
  255.66        3337.50           6679           8.00        13.95
  255.69        3337.75           6683           8.00        13.95
  255.72        3338.00           6686           1.00         2.00
  255.74        3338.25           6690           5.00         2.00
  255.77        3338.50           6694           8.00        13.95
  255.80        3338.75           6698           5.00         2.00
  255.83        3339.00           6701           5.00         2.00
  255.85        3339.25           6705           8.00        13.95
  255.88        3339.50           6709           0.00         2.00
  255.91        3339.75           6713           0.00         2.00
  255.93        3340.00           6716           6.00         5.23
  255.96        3340.25           6720           8.00        13.95
  255.99        3340.50           6724           6.00         5.23
  256.02        3340.75           6728           0.00         2.00
  256.04        3341.00           6731           6.00         5.23
  256.07        3341.25           6735           3.00         2.00
  256.10        3341.50           6739           3.00         2.00
  256.12        3341.75           6743           8.00        13.95
  256.15        3342.00           6746           8.00        13.95
  256.18        3342.25           6750           4.00         2.00
  256.20        3342.50           6754           0.00         2.00
  256.23        3342.75           6758           7.00         9.59
  256.26        3343.00           6761           3.00         2.00
  256.29        3343.25           6765           8.00        13.95
  256.31        3343.50           6769           8.00        13.95
  256.34        3343.75           6773           0.00         2.00
  256.37        3344.00           6776           4.00         2.00
  256.39        3344.25           6780           8.00        13.95
  256.42        3344.50           6784           0.00         2.00
  256.45        3344.75           6788           8.00        13.95
  256.48        3345.00           6791           0.00         2.00
  256.50        3345.25           6795           6.00         5.23
  256.53        3345.50           6799           4.00         2.00
  256.56        3345.75           6803           0.00         2.00
  256.58        3346.00           6806           0.00         2.00
  256.61        3346.25           6810           0.00         2.00
  256.64        3346.50           6814           8.00        13.95
  256.67        3346.75           6818           7.00         9.59
  256.69        3347.00           6821           0.00         2.00
  256.72        3347.25           6825           0.00         2.00
  256.75        3347.50           6829           8.00        13.95
  256.77        3347.75           6833           1.00         2.00
  256.80        3348.00           6836           0.00         2.00
  256.83        3348.25           6840           8.00        13.95
  256.86        3348.50           6844           3.00         2.00
  256.88        3348.75           6848           8.00        13.95
  256.91        3349.00           6851           0.00         2.00
  256.94        3349.25           6855           0.00         2.00
  256.96        3349.50           6859           4.00         2.00
  256.99        3349.75           6863           8.00        13.95
  257.02        3350.00           6867           4.00         2.00
  257.05        3350.25           6870           3.00         2.00
  257.07        3350.50           6874           8.00        13.95
  257.10        3350.75           6878           8.00        13.95
  257.13        3351.00           6882           8.00        13.95
HL scan finished at 04:17:45
end
