************************************************************
  HL Scan of (1) Internal mercury lamp
************************************************************
Integration time is 0.2294 seconds per sample
dh050217Tamanrasset 22.79-5.529 2.700517pr865
************************************************************
Dead Time -------------------------  2.8E-08 
Number of Cycles Used -------------  4 
Starting Wavelength (Angstroms) ---  3331 
Final Wavelength (Angstoms) -------  3351 
Wavelength Increment (Angstroms) --  .25 
Filter Wheel #1 Position ---------- (1) Ground quartz diffuser (ND=2.32)
Filter Wheel #2 Position ---------- (0) Clear Aperture



************************************************************
HL scan start time = 04:16:19
Dark Count =  3.7 


Time (GMT)  Wavelength (Ang)  Step Number  Raw Counts  Counts/Second

  256.81        3331.00           6581           8.00        18.74
  257.03        3331.25           6585           4.00         2.00
  257.06        3331.50           6589           2.00         2.00
  257.09        3331.75           6593           8.00        18.74
  257.11        3332.00           6596           6.00        10.03
  257.14        3332.25           6600           0.00         2.00
  257.17        3332.50           6604           5.00         5.67
  257.20        3332.75           6608           8.00        18.74
  257.22        3333.00           6611           0.00         2.00
  257.25        3333.25           6615           7.00        14.39
  257.28        3333.50           6619           2.00         2.00
  257.30        3333.75           6623           8.00        18.74
  257.33        3334.00           6626           0.00         2.00
  257.36        3334.25           6630           7.00        14.39
  257.38        3334.50           6634           8.00        18.74
  257.41        3334.75           6638           6.00        10.03
  257.44        3335.00           6641           8.00        18.74
  257.47        3335.25           6645           6.00        10.03
  257.49        3335.50           6649           4.00         2.00
  257.52        3335.75           6653           6.00        10.03
  257.55        3336.00           6656           8.00        18.74
  257.57        3336.25           6660           8.00        18.74
  257.60        3336.50           6664           1.00         2.00
  257.63        3336.75           6668           0.00         2.00
  257.66        3337.00           6671           8.00        18.74
  257.68        3337.25           6675           8.00        18.74
  257.71        3337.50           6679           8.00        18.74
  257.74        3337.75           6683           8.00        18.74
  257.76        3338.00           6686           0.00         2.00
  257.79        3338.25           6690           0.00         2.00
  257.82        3338.50           6694           0.00         2.00
  257.85        3338.75           6698           8.00        18.74
  257.87        3339.00           6701           8.00        18.74
  257.90        3339.25           6705           8.00        18.74
  257.93        3339.50           6709           7.00        14.39
  257.95        3339.75           6713           0.00         2.00
  257.98        3340.00           6716           8.00        18.74
  258.01        3340.25           6720           8.00        18.74
  258.04        3340.50           6724           0.00         2.00
  258.06        3340.75           6728           0.00         2.00
  258.09        3341.00           6731           1.00         2.00
  258.12        3341.25           6735           0.00         2.00
  258.14        3341.50           6739           0.00         2.00
  258.17        3341.75           6743           0.00         2.00
  258.20        3342.00           6746           7.00        14.39
  258.23        3342.25           6750           8.00        18.74
  258.25        3342.50           6754           8.00        18.74
  258.28        3342.75           6758           8.00        18.74
  258.31        3343.00           6761           3.00         2.00
  258.33        3343.25           6765           4.00         2.00
  258.36        3343.50           6769           7.00        14.39
  258.39        3343.75           6773           0.00         2.00
  258.42        3344.00           6776           2.00         2.00
  258.44        3344.25           6780           8.00        18.74
  258.47        3344.50           6784           5.00         5.67
  258.50        3344.75           6788           3.00         2.00
  258.52        3345.00           6791           8.00        18.74
  258.55        3345.25           6795           8.00        18.74
  258.58        3345.50           6799           4.00         2.00
  258.61        3345.75           6803           1.00         2.00
  258.63        3346.00           6806           8.00        18.74
  258.66        3346.25           6810           1.00         2.00
  258.69        3346.50           6814           8.00        18.74
  258.71        3346.75           6818           2.00         2.00
  258.74        3347.00           6821           0.00         2.00
  258.77        3347.25           6825           2.00         2.00
  258.80        3347.50           6829           8.00        18.74
  258.82        3347.75           6833           2.00         2.00
  258.85        3348.00           6836           7.00        14.39
  258.88        3348.25           6840           1.00         2.00
  258.90        3348.50           6844           4.00         2.00
  258.93        3348.75           6848           5.00         5.67
  258.96        3349.00           6851           6.00        10.03
  258.99        3349.25           6855           8.00        18.74
  259.01        3349.50           6859           3.00         2.00
  259.04        3349.75           6863           8.00        18.74
  259.07        3350.00           6867           3.00         2.00
  259.09        3350.25           6870           8.00        18.74
  259.12        3350.50           6874           2.00         2.00
  259.15        3350.75           6878           1.00         2.00
  259.17        3351.00           6882           8.00        18.74
HL scan finished at 04:19:48
end
