************************************************************
  HL Scan of (1) Internal mercury lamp
************************************************************
Integration time is 0.2294 seconds per sample
dh030217Tamanrasset 22.79-5.529 2.731107pr865
************************************************************
Dead Time -------------------------  2.8E-08 
Number of Cycles Used -------------  4 
Starting Wavelength (Angstroms) ---  3331 
Final Wavelength (Angstoms) -------  3351 
Wavelength Increment (Angstroms) --  .25 
Filter Wheel #1 Position ---------- (1) Ground quartz diffuser (ND=2.32)
Filter Wheel #2 Position ---------- (0) Clear Aperture



************************************************************
HL scan start time = 04:17:21
Dark Count =  2.8 


Time (GMT)  Wavelength (Ang)  Step Number  Raw Counts  Counts/Second

  257.86        3331.00           6581           1.00         2.00
  258.07        3331.25           6585           7.00        18.31
  258.10        3331.50           6589           6.00        13.95
  258.13        3331.75           6593           6.00        13.95
  258.16        3332.00           6596           1.00         2.00
  258.18        3332.25           6600           4.00         5.23
  258.21        3332.50           6604           0.00         2.00
  258.24        3332.75           6608           6.00        13.95
  258.27        3333.00           6611           0.00         2.00
  258.29        3333.25           6615           1.00         2.00
  258.32        3333.50           6619           4.00         5.23
  258.35        3333.75           6623           8.00        22.67
  258.37        3334.00           6626           2.00         2.00
  258.40        3334.25           6630           8.00        22.67
  258.43        3334.50           6634           8.00        22.67
  258.46        3334.75           6638           1.00         2.00
  258.48        3335.00           6641           8.00        22.67
  258.51        3335.25           6645           7.00        18.31
  258.54        3335.50           6649           7.00        18.31
  258.56        3335.75           6653           0.00         2.00
  258.59        3336.00           6656           6.00        13.95
  258.62        3336.25           6660           8.00        22.67
  258.65        3336.50           6664           8.00        22.67
  258.67        3336.75           6668           0.00         2.00
  258.70        3337.00           6671           8.00        22.67
  258.73        3337.25           6675           0.00         2.00
  258.76        3337.50           6679           7.00        18.31
  258.78        3337.75           6683           4.00         5.23
  258.81        3338.00           6686           8.00        22.67
  258.84        3338.25           6690           8.00        22.67
  258.86        3338.50           6694           4.00         5.23
  258.89        3338.75           6698           8.00        22.67
  258.92        3339.00           6701           9.00        27.03
  258.95        3339.25           6705           3.00         2.00
  258.97        3339.50           6709           0.00         2.00
  259.00        3339.75           6713           0.00         2.00
  259.03        3340.00           6716           5.00         9.59
  259.05        3340.25           6720           8.00        22.67
  259.08        3340.50           6724           0.00         2.00
  259.11        3340.75           6728           0.00         2.00
  259.14        3341.00           6731           2.00         2.00
  259.16        3341.25           6735           0.00         2.00
  259.19        3341.50           6739           8.00        22.67
  259.22        3341.75           6743           7.00        18.31
  259.25        3342.00           6746           7.00        18.31
  259.27        3342.25           6750           8.00        22.67
  259.30        3342.50           6754           8.00        22.67
  259.33        3342.75           6758           8.00        22.67
  259.35        3343.00           6761           8.00        22.67
  259.38        3343.25           6765           1.00         2.00
  259.41        3343.50           6769           0.00         2.00
  259.44        3343.75           6773           0.00         2.00
  259.46        3344.00           6776           8.00        22.67
  259.49        3344.25           6780           4.00         5.23
  259.52        3344.50           6784           0.00         2.00
  259.55        3344.75           6788           2.00         2.00
  259.57        3345.00           6791           4.00         5.23
  259.60        3345.25           6795           8.00        22.67
  259.63        3345.50           6799           5.00         9.59
  259.65        3345.75           6803           1.00         2.00
  259.68        3346.00           6806           0.00         2.00
  259.71        3346.25           6810           0.00         2.00
  259.74        3346.50           6814           1.00         2.00
  259.76        3346.75           6818           0.00         2.00
  259.79        3347.00           6821           8.00        22.67
  259.82        3347.25           6825           0.00         2.00
  259.84        3347.50           6829           8.00        22.67
  259.87        3347.75           6833           8.00        22.67
  259.90        3348.00           6836           0.00         2.00
  259.93        3348.25           6840           8.00        22.67
  259.95        3348.50           6844           5.00         9.59
  259.98        3348.75           6848           8.00        22.67
  260.01        3349.00           6851           0.00         2.00
  260.04        3349.25           6855           8.00        22.67
  260.06        3349.50           6859           0.00         2.00
  260.09        3349.75           6863           1.00         2.00
  260.12        3350.00           6867           8.00        22.67
  260.14        3350.25           6870           0.00         2.00
  260.17        3350.50           6874           0.00         2.00
  260.20        3350.75           6878           3.00         2.00
  260.23        3351.00           6882           6.00        13.95
HL scan finished at 04:20:51
end
