************************************************************
  HL Scan of (1) Internal mercury lamp
************************************************************
Integration time is 0.2294 seconds per sample
dh090217Tamanrasset 22.79-5.529 2.675025pr865
************************************************************
Dead Time -------------------------  2.8E-08 
Number of Cycles Used -------------  4 
Starting Wavelength (Angstroms) ---  3331 
Final Wavelength (Angstoms) -------  3351 
Wavelength Increment (Angstroms) --  .25 
Filter Wheel #1 Position ---------- (1) Ground quartz diffuser (ND=2.32)
Filter Wheel #2 Position ---------- (0) Clear Aperture



************************************************************
HL scan start time = 04:14:16
Dark Count =  4.2 


Time (GMT)  Wavelength (Ang)  Step Number  Raw Counts  Counts/Second

  254.78        3331.00           6581           0.00         2.00
  255.00        3331.25           6585           7.00        12.21
  255.02        3331.50           6589           6.00         7.85
  255.05        3331.75           6593           8.00        16.56
  255.08        3332.00           6596           0.00         2.00
  255.10        3332.25           6600           5.00         3.49
  255.13        3332.50           6604           0.00         2.00
  255.16        3332.75           6608           0.00         2.00
  255.19        3333.00           6611           5.00         3.49
  255.21        3333.25           6615           4.00         2.00
  255.24        3333.50           6619           8.00        16.56
  255.27        3333.75           6623           8.00        16.56
  255.29        3334.00           6626           8.00        16.56
  255.32        3334.25           6630           0.00         2.00
  255.35        3334.50           6634           8.00        16.56
  255.38        3334.75           6638           7.00        12.21
  255.40        3335.00           6641           8.00        16.56
  255.43        3335.25           6645           8.00        16.56
  255.46        3335.50           6649           2.00         2.00
  255.48        3335.75           6653           1.00         2.00
  255.51        3336.00           6656           8.00        16.56
  255.54        3336.25           6660           8.00        16.56
  255.56        3336.50           6664           5.00         3.49
  255.59        3336.75           6668           8.00        16.56
  255.62        3337.00           6671           0.00         2.00
  255.65        3337.25           6675           0.00         2.00
  255.67        3337.50           6679           6.00         7.85
  255.70        3337.75           6683           3.00         2.00
  255.73        3338.00           6686           3.00         2.00
  255.75        3338.25           6690           5.00         3.49
  255.78        3338.50           6694           8.00        16.56
  255.81        3338.75           6698           4.00         2.00
  255.84        3339.00           6701           8.00        16.56
  255.86        3339.25           6705           8.00        16.56
  255.89        3339.50           6709           8.00        16.56
  255.92        3339.75           6713           6.00         7.85
  255.94        3340.00           6716           8.00        16.56
  255.97        3340.25           6720           2.00         2.00
  256.00        3340.50           6724           8.00        16.56
  256.03        3340.75           6728           0.00         2.00
  256.05        3341.00           6731           1.00         2.00
  256.08        3341.25           6735           8.00        16.56
  256.11        3341.50           6739           0.00         2.00
  256.13        3341.75           6743           0.00         2.00
  256.16        3342.00           6746           8.00        16.56
  256.19        3342.25           6750           0.00         2.00
  256.22        3342.50           6754           0.00         2.00
  256.24        3342.75           6758           7.00        12.21
  256.27        3343.00           6761           0.00         2.00
  256.30        3343.25           6765           8.00        16.56
  256.32        3343.50           6769           6.00         7.85
  256.35        3343.75           6773           7.00        12.21
  256.38        3344.00           6776           6.00         7.85
  256.40        3344.25           6780           1.00         2.00
  256.43        3344.50           6784           0.00         2.00
  256.46        3344.75           6788           8.00        16.56
  256.49        3345.00           6791           8.00        16.56
  256.51        3345.25           6795           8.00        16.56
  256.54        3345.50           6799           1.00         2.00
  256.57        3345.75           6803           3.00         2.00
  256.59        3346.00           6806           8.00        16.56
  256.62        3346.25           6810           5.00         3.49
  256.65        3346.50           6814           0.00         2.00
  256.68        3346.75           6818           7.00        12.21
  256.70        3347.00           6821           0.00         2.00
  256.73        3347.25           6825           6.00         7.85
  256.76        3347.50           6829           2.00         2.00
  256.78        3347.75           6833           8.00        16.56
  256.81        3348.00           6836           0.00         2.00
  256.84        3348.25           6840           0.00         2.00
  256.87        3348.50           6844           5.00         3.49
  256.89        3348.75           6848           8.00        16.56
  256.92        3349.00           6851           8.00        16.56
  256.95        3349.25           6855           8.00        16.56
  256.97        3349.50           6859           5.00         3.49
  257.00        3349.75           6863           0.00         2.00
  257.03        3350.00           6867           0.00         2.00
  257.06        3350.25           6870           4.00         2.00
  257.08        3350.50           6874           0.00         2.00
  257.11        3350.75           6878           0.00         2.00
  257.14        3351.00           6882           8.00        16.56
HL scan finished at 04:17:46
end
