************************************************************
  HL Scan of (1) Internal mercury lamp
************************************************************
Integration time is 0.2294 seconds per sample
dh100217Tamanrasset 22.79-5.529 2.705615pr865
************************************************************
Dead Time -------------------------  2.8E-08 
Number of Cycles Used -------------  4 
Starting Wavelength (Angstroms) ---  3331 
Final Wavelength (Angstoms) -------  3351 
Wavelength Increment (Angstroms) --  .25 
Filter Wheel #1 Position ---------- (1) Ground quartz diffuser (ND=2.32)
Filter Wheel #2 Position ---------- (0) Clear Aperture



************************************************************
HL scan start time = 04:13:18
Dark Count =  4.2 


Time (GMT)  Wavelength (Ang)  Step Number  Raw Counts  Counts/Second

  253.81        3331.00           6581           0.00         2.00
  254.03        3331.25           6585           8.00        16.56
  254.05        3331.50           6589           0.00         2.00
  254.08        3331.75           6593           0.00         2.00
  254.11        3332.00           6596           0.00         2.00
  254.13        3332.25           6600           0.00         2.00
  254.16        3332.50           6604           0.00         2.00
  254.19        3332.75           6608           5.00         3.49
  254.22        3333.00           6611           7.00        12.21
  254.24        3333.25           6615           1.00         2.00
  254.27        3333.50           6619           0.00         2.00
  254.30        3333.75           6623           3.00         2.00
  254.32        3334.00           6626           8.00        16.56
  254.35        3334.25           6630           4.00         2.00
  254.38        3334.50           6634           1.00         2.00
  254.41        3334.75           6638           8.00        16.56
  254.43        3335.00           6641           6.00         7.85
  254.46        3335.25           6645           5.00         3.49
  254.49        3335.50           6649           0.00         2.00
  254.51        3335.75           6653           8.00        16.56
  254.54        3336.00           6656           0.00         2.00
  254.57        3336.25           6660           6.00         7.85
  254.60        3336.50           6664           8.00        16.56
  254.62        3336.75           6668           0.00         2.00
  254.65        3337.00           6671           0.00         2.00
  254.68        3337.25           6675           8.00        16.56
  254.70        3337.50           6679           3.00         2.00
  254.73        3337.75           6683           7.00        12.21
  254.76        3338.00           6686           6.00         7.85
  254.79        3338.25           6690           8.00        16.56
  254.81        3338.50           6694           4.00         2.00
  254.84        3338.75           6698           3.00         2.00
  254.87        3339.00           6701           3.00         2.00
  254.89        3339.25           6705           8.00        16.56
  254.92        3339.50           6709           8.00        16.56
  254.95        3339.75           6713           6.00         7.85
  254.98        3340.00           6716           8.00        16.56
  255.00        3340.25           6720           8.00        16.56
  255.03        3340.50           6724           1.00         2.00
  255.06        3340.75           6728           0.00         2.00
  255.08        3341.00           6731           2.00         2.00
  255.11        3341.25           6735           1.00         2.00
  255.14        3341.50           6739           8.00        16.56
  255.16        3341.75           6743           6.00         7.85
  255.19        3342.00           6746           8.00        16.56
  255.22        3342.25           6750           4.00         2.00
  255.25        3342.50           6754           0.00         2.00
  255.27        3342.75           6758           5.00         3.49
  255.30        3343.00           6761           1.00         2.00
  255.33        3343.25           6765           0.00         2.00
  255.35        3343.50           6769           0.00         2.00
  255.38        3343.75           6773           8.00        16.56
  255.41        3344.00           6776           8.00        16.56
  255.44        3344.25           6780           6.00         7.85
  255.46        3344.50           6784           8.00        16.56
  255.49        3344.75           6788           0.00         2.00
  255.52        3345.00           6791           2.00         2.00
  255.54        3345.25           6795           0.00         2.00
  255.57        3345.50           6799           6.00         7.85
  255.60        3345.75           6803           0.00         2.00
  255.63        3346.00           6806           0.00         2.00
  255.65        3346.25           6810           0.00         2.00
  255.68        3346.50           6814           4.00         2.00
  255.71        3346.75           6818           0.00         2.00
  255.73        3347.00           6821           0.00         2.00
  255.76        3347.25           6825           3.00         2.00
  255.79        3347.50           6829           2.00         2.00
  255.81        3347.75           6833           0.00         2.00
  255.84        3348.00           6836           8.00        16.56
  255.87        3348.25           6840           2.00         2.00
  255.90        3348.50           6844           8.00        16.56
  255.92        3348.75           6848           0.00         2.00
  255.95        3349.00           6851           8.00        16.56
  255.98        3349.25           6855           8.00        16.56
  256.00        3349.50           6859           8.00        16.56
  256.03        3349.75           6863           0.00         2.00
  256.06        3350.00           6867           7.00        12.21
  256.09        3350.25           6870           4.00         2.00
  256.11        3350.50           6874           8.00        16.56
  256.14        3350.75           6878           3.00         2.00
  256.17        3351.00           6882           0.00         2.00
HL scan finished at 04:16:47
end
