************************************************************
  HL Scan of (1) Internal mercury lamp
************************************************************
Integration time is 0.2294 seconds per sample
dh130217Tamanrasset 22.79-5.529 2.705615pr865
************************************************************
Dead Time -------------------------  2.8E-08 
Number of Cycles Used -------------  4 
Starting Wavelength (Angstroms) ---  3331 
Final Wavelength (Angstoms) -------  3351 
Wavelength Increment (Angstroms) --  .25 
Filter Wheel #1 Position ---------- (1) Ground quartz diffuser (ND=2.32)
Filter Wheel #2 Position ---------- (0) Clear Aperture



************************************************************
HL scan start time = 04:12:15
Dark Count =  5.5 


Time (GMT)  Wavelength (Ang)  Step Number  Raw Counts  Counts/Second

  252.76        3331.00           6581           2.00         2.00
  252.98        3331.25           6585           0.00         2.00
  253.01        3331.50           6589           0.00         2.00
  253.03        3331.75           6593           5.00         2.00
  253.06        3332.00           6596           4.00         2.00
  253.09        3332.25           6600           6.00         2.18
  253.12        3332.50           6604           0.00         2.00
  253.14        3332.75           6608           6.00         2.18
  253.17        3333.00           6611           0.00         2.00
  253.20        3333.25           6615           8.00        10.90
  253.22        3333.50           6619           0.00         2.00
  253.25        3333.75           6623           8.00        10.90
  253.28        3334.00           6626           8.00        10.90
  253.31        3334.25           6630           0.00         2.00
  253.33        3334.50           6634           8.00        10.90
  253.36        3334.75           6638           8.00        10.90
  253.39        3335.00           6641           8.00        10.90
  253.41        3335.25           6645           7.00         6.54
  253.44        3335.50           6649           0.00         2.00
  253.47        3335.75           6653           0.00         2.00
  253.50        3336.00           6656           5.00         2.00
  253.52        3336.25           6660           3.00         2.00
  253.55        3336.50           6664           0.00         2.00
  253.58        3336.75           6668           0.00         2.00
  253.60        3337.00           6671           8.00        10.90
  253.63        3337.25           6675           4.00         2.00
  253.66        3337.50           6679           8.00        10.90
  253.69        3337.75           6683           4.00         2.00
  253.71        3338.00           6686           2.00         2.00
  253.74        3338.25           6690           0.00         2.00
  253.77        3338.50           6694           3.00         2.00
  253.79        3338.75           6698           3.00         2.00
  253.82        3339.00           6701           0.00         2.00
  253.85        3339.25           6705           8.00        10.90
  253.87        3339.50           6709           8.00        10.90
  253.90        3339.75           6713           8.00        10.90
  253.93        3340.00           6716           8.00        10.90
  253.96        3340.25           6720           0.00         2.00
  253.98        3340.50           6724           3.00         2.00
  254.01        3340.75           6728           0.00         2.00
  254.04        3341.00           6731           1.00         2.00
  254.06        3341.25           6735           7.00         6.54
  254.09        3341.50           6739           0.00         2.00
  254.12        3341.75           6743           0.00         2.00
  254.15        3342.00           6746           0.00         2.00
  254.17        3342.25           6750           8.00        10.90
  254.20        3342.50           6754           8.00        10.90
  254.23        3342.75           6758           4.00         2.00
  254.25        3343.00           6761           8.00        10.90
  254.28        3343.25           6765           4.00         2.00
  254.31        3343.50           6769           8.00        10.90
  254.34        3343.75           6773           0.00         2.00
  254.36        3344.00           6776           3.00         2.00
  254.39        3344.25           6780           8.00        10.90
  254.42        3344.50           6784           7.00         6.54
  254.44        3344.75           6788           8.00        10.90
  254.47        3345.00           6791           6.00         2.18
  254.50        3345.25           6795           0.00         2.00
  254.53        3345.50           6799           0.00         2.00
  254.55        3345.75           6803           6.00         2.18
  254.58        3346.00           6806           8.00        10.90
  254.61        3346.25           6810           0.00         2.00
  254.63        3346.50           6814           8.00        10.90
  254.66        3346.75           6818           9.00        15.26
  254.69        3347.00           6821           7.00         6.54
  254.72        3347.25           6825           1.00         2.00
  254.74        3347.50           6829           8.00        10.90
  254.77        3347.75           6833           7.00         6.54
  254.80        3348.00           6836           0.00         2.00
  254.82        3348.25           6840           0.00         2.00
  254.85        3348.50           6844           0.00         2.00
  254.88        3348.75           6848           8.00        10.90
  254.91        3349.00           6851           0.00         2.00
  254.93        3349.25           6855           3.00         2.00
  254.96        3349.50           6859           2.00         2.00
  254.99        3349.75           6863           5.00         2.00
  255.01        3350.00           6867           2.00         2.00
  255.04        3350.25           6870           8.00        10.90
  255.07        3350.50           6874           8.00        10.90
  255.09        3350.75           6878           7.00         6.54
  255.12        3351.00           6882           5.00         2.00
HL scan finished at 04:15:45
end
