************************************************************
  HL Scan of (1) Internal mercury lamp
************************************************************
Integration time is 0.2294 seconds per sample
dh180217Tamanrasset 22.79-5.529 2.705615pr865
************************************************************
Dead Time -------------------------  2.8E-08 
Number of Cycles Used -------------  4 
Starting Wavelength (Angstroms) ---  3331 
Final Wavelength (Angstoms) -------  3351 
Wavelength Increment (Angstroms) --  .25 
Filter Wheel #1 Position ---------- (1) Ground quartz diffuser (ND=2.32)
Filter Wheel #2 Position ---------- (0) Clear Aperture



************************************************************
HL scan start time = 04:09:10
Dark Count =  5.9 


Time (GMT)  Wavelength (Ang)  Step Number  Raw Counts  Counts/Second

  249.68        3331.00           6581           7.00         4.80
  249.90        3331.25           6585           2.00         2.00
  249.93        3331.50           6589           7.00         4.80
  249.95        3331.75           6593           0.00         2.00
  249.98        3332.00           6596           4.00         2.00
  250.01        3332.25           6600           0.00         2.00
  250.04        3332.50           6604           8.00         9.15
  250.06        3332.75           6608           8.00         9.15
  250.09        3333.00           6611           4.00         2.00
  250.12        3333.25           6615           8.00         9.15
  250.14        3333.50           6619           8.00         9.15
  250.17        3333.75           6623           6.00         2.00
  250.20        3334.00           6626           8.00         9.15
  250.22        3334.25           6630           8.00         9.15
  250.25        3334.50           6634           3.00         2.00
  250.28        3334.75           6638           6.00         2.00
  250.31        3335.00           6641           8.00         9.15
  250.33        3335.25           6645           3.00         2.00
  250.36        3335.50           6649           0.00         2.00
  250.39        3335.75           6653           6.00         2.00
  250.41        3336.00           6656           0.00         2.00
  250.44        3336.25           6660           0.00         2.00
  250.47        3336.50           6664           0.00         2.00
  250.50        3336.75           6668           1.00         2.00
  250.52        3337.00           6671           0.00         2.00
  250.55        3337.25           6675           0.00         2.00
  250.58        3337.50           6679           8.00         9.15
  250.60        3337.75           6683           7.00         4.80
  250.63        3338.00           6686           0.00         2.00
  250.66        3338.25           6690           8.00         9.15
  250.69        3338.50           6694           8.00         9.15
  250.71        3338.75           6698           8.00         9.15
  250.74        3339.00           6701           3.00         2.00
  250.77        3339.25           6705           2.00         2.00
  250.79        3339.50           6709           1.00         2.00
  250.82        3339.75           6713           5.00         2.00
  250.85        3340.00           6716           8.00         9.15
  250.88        3340.25           6720           5.00         2.00
  250.90        3340.50           6724           4.00         2.00
  250.93        3340.75           6728           0.00         2.00
  250.96        3341.00           6731           0.00         2.00
  250.98        3341.25           6735           8.00         9.15
  251.01        3341.50           6739           8.00         9.15
  251.04        3341.75           6743           8.00         9.15
  251.07        3342.00           6746           8.00         9.15
  251.09        3342.25           6750           8.00         9.15
  251.12        3342.50           6754           0.00         2.00
  251.15        3342.75           6758           6.00         2.00
  251.17        3343.00           6761           0.00         2.00
  251.20        3343.25           6765           0.00         2.00
  251.23        3343.50           6769           0.00         2.00
  251.26        3343.75           6773           5.00         2.00
  251.28        3344.00           6776           0.00         2.00
  251.31        3344.25           6780           7.00         4.80
  251.34        3344.50           6784           8.00         9.15
  251.36        3344.75           6788           6.00         2.00
  251.39        3345.00           6791           8.00         9.15
  251.42        3345.25           6795           0.00         2.00
  251.44        3345.50           6799           6.00         2.00
  251.47        3345.75           6803           8.00         9.15
  251.50        3346.00           6806           7.00         4.80
  251.53        3346.25           6810           8.00         9.15
  251.55        3346.50           6814           5.00         2.00
  251.58        3346.75           6818           0.00         2.00
  251.61        3347.00           6821           0.00         2.00
  251.63        3347.25           6825           8.00         9.15
  251.66        3347.50           6829           5.00         2.00
  251.69        3347.75           6833           6.00         2.00
  251.72        3348.00           6836           0.00         2.00
  251.74        3348.25           6840           0.00         2.00
  251.77        3348.50           6844           8.00         9.15
  251.80        3348.75           6848           7.00         4.80
  251.82        3349.00           6851           8.00         9.15
  251.85        3349.25           6855           2.00         2.00
  251.88        3349.50           6859           7.00         4.80
  251.91        3349.75           6863           5.00         2.00
  251.93        3350.00           6867           8.00         9.15
  251.96        3350.25           6870           8.00         9.15
  251.99        3350.50           6874           8.00         9.15
  252.01        3350.75           6878           8.00         9.15
  252.04        3351.00           6882           3.00         2.00
HL scan finished at 04:12:40
end
