************************************************************
  HL Scan of (1) Internal mercury lamp
************************************************************
Integration time is 0.2294 seconds per sample
dh140217Tamanrasset 22.79-5.529 2.715812pr865
************************************************************
Dead Time -------------------------  2.8E-08 
Number of Cycles Used -------------  4 
Starting Wavelength (Angstroms) ---  3331 
Final Wavelength (Angstoms) -------  3351 
Wavelength Increment (Angstroms) --  .25 
Filter Wheel #1 Position ---------- (1) Ground quartz diffuser (ND=2.32)
Filter Wheel #2 Position ---------- (0) Clear Aperture



************************************************************
HL scan start time = 04:11:15
Dark Count =  3.2 


Time (GMT)  Wavelength (Ang)  Step Number  Raw Counts  Counts/Second

  251.76        3331.00           6581           6.00        12.21
  251.97        3331.25           6585           3.00         2.00
  252.00        3331.50           6589           1.00         2.00
  252.03        3331.75           6593           6.00        12.21
  252.06        3332.00           6596           8.00        20.92
  252.08        3332.25           6600           2.00         2.00
  252.11        3332.50           6604           2.00         2.00
  252.14        3332.75           6608           8.00        20.92
  252.16        3333.00           6611           7.00        16.56
  252.19        3333.25           6615           8.00        20.92
  252.22        3333.50           6619           8.00        20.92
  252.25        3333.75           6623           4.00         3.49
  252.27        3334.00           6626           8.00        20.92
  252.30        3334.25           6630           8.00        20.92
  252.33        3334.50           6634           0.00         2.00
  252.35        3334.75           6638           6.00        12.21
  252.38        3335.00           6641           8.00        20.92
  252.41        3335.25           6645           2.00         2.00
  252.44        3335.50           6649           6.00        12.21
  252.46        3335.75           6653           3.00         2.00
  252.49        3336.00           6656           0.00         2.00
  252.52        3336.25           6660           2.00         2.00
  252.54        3336.50           6664           7.00        16.56
  252.57        3336.75           6668           1.00         2.00
  252.60        3337.00           6671           2.00         2.00
  252.63        3337.25           6675           8.00        20.92
  252.65        3337.50           6679           2.00         2.00
  252.68        3337.75           6683           3.00         2.00
  252.71        3338.00           6686           1.00         2.00
  252.73        3338.25           6690           0.00         2.00
  252.76        3338.50           6694           5.00         7.85
  252.79        3338.75           6698           0.00         2.00
  252.82        3339.00           6701           2.00         2.00
  252.84        3339.25           6705           3.00         2.00
  252.87        3339.50           6709           0.00         2.00
  252.90        3339.75           6713           6.00        12.21
  252.92        3340.00           6716           8.00        20.92
  252.95        3340.25           6720           8.00        20.92
  252.98        3340.50           6724           3.00         2.00
  253.01        3340.75           6728           0.00         2.00
  253.03        3341.00           6731           6.00        12.21
  253.06        3341.25           6735           1.00         2.00
  253.09        3341.50           6739           0.00         2.00
  253.11        3341.75           6743           0.00         2.00
  253.14        3342.00           6746           8.00        20.92
  253.17        3342.25           6750           0.00         2.00
  253.19        3342.50           6754           2.00         2.00
  253.22        3342.75           6758           8.00        20.92
  253.25        3343.00           6761           8.00        20.92
  253.28        3343.25           6765           8.00        20.92
  253.30        3343.50           6769           3.00         2.00
  253.33        3343.75           6773           8.00        20.92
  253.36        3344.00           6776           8.00        20.92
  253.38        3344.25           6780           4.00         3.49
  253.41        3344.50           6784           0.00         2.00
  253.44        3344.75           6788           2.00         2.00
  253.47        3345.00           6791           8.00        20.92
  253.49        3345.25           6795           8.00        20.92
  253.52        3345.50           6799           2.00         2.00
  253.55        3345.75           6803           4.00         3.49
  253.57        3346.00           6806           8.00        20.92
  253.60        3346.25           6810           0.00         2.00
  253.63        3346.50           6814           8.00        20.92
  253.66        3346.75           6818           0.00         2.00
  253.68        3347.00           6821           8.00        20.92
  253.71        3347.25           6825           8.00        20.92
  253.74        3347.50           6829           8.00        20.92
  253.76        3347.75           6833           0.00         2.00
  253.79        3348.00           6836           8.00        20.92
  253.82        3348.25           6840           8.00        20.92
  253.85        3348.50           6844           7.00        16.56
  253.87        3348.75           6848           0.00         2.00
  253.90        3349.00           6851           0.00         2.00
  253.93        3349.25           6855           0.00         2.00
  253.95        3349.50           6859           8.00        20.92
  253.98        3349.75           6863           8.00        20.92
  254.01        3350.00           6867           2.00         2.00
  254.03        3350.25           6870           8.00        20.92
  254.06        3350.50           6874           8.00        20.92
  254.09        3350.75           6878           0.00         2.00
  254.12        3351.00           6882           8.00        20.92
HL scan finished at 04:14:44
end
