************************************************************
  HL Scan of (1) Internal mercury lamp
************************************************************
Integration time is 0.2294 seconds per sample
dh120217Tamanrasset 22.79-5.529 2.695419pr865
************************************************************
Dead Time -------------------------  2.8E-08 
Number of Cycles Used -------------  4 
Starting Wavelength (Angstroms) ---  3331 
Final Wavelength (Angstoms) -------  3351 
Wavelength Increment (Angstroms) --  .25 
Filter Wheel #1 Position ---------- (1) Ground quartz diffuser (ND=2.32)
Filter Wheel #2 Position ---------- (0) Clear Aperture



************************************************************
HL scan start time = 04:12:15
Dark Count =  4.8 


Time (GMT)  Wavelength (Ang)  Step Number  Raw Counts  Counts/Second

  252.75        3331.00           6581           7.00         9.59
  252.97        3331.25           6585           8.00        13.95
  253.00        3331.50           6589           8.00        13.95
  253.03        3331.75           6593           1.00         2.00
  253.05        3332.00           6596           6.00         5.23
  253.08        3332.25           6600           8.00        13.95
  253.11        3332.50           6604           6.00         5.23
  253.13        3332.75           6608           8.00        13.95
  253.16        3333.00           6611           3.00         2.00
  253.19        3333.25           6615           0.00         2.00
  253.22        3333.50           6619           8.00        13.95
  253.24        3333.75           6623           0.00         2.00
  253.27        3334.00           6626           0.00         2.00
  253.30        3334.25           6630           0.00         2.00
  253.33        3334.50           6634           8.00        13.95
  253.35        3334.75           6638           7.00         9.59
  253.38        3335.00           6641           8.00        13.95
  253.41        3335.25           6645           8.00        13.95
  253.43        3335.50           6649           6.00         5.23
  253.46        3335.75           6653           8.00        13.95
  253.49        3336.00           6656           0.00         2.00
  253.51        3336.25           6660           1.00         2.00
  253.54        3336.50           6664           5.00         2.00
  253.57        3336.75           6668           8.00        13.95
  253.60        3337.00           6671           3.00         2.00
  253.62        3337.25           6675           8.00        13.95
  253.65        3337.50           6679           4.00         2.00
  253.68        3337.75           6683           0.00         2.00
  253.70        3338.00           6686           8.00        13.95
  253.73        3338.25           6690           0.00         2.00
  253.76        3338.50           6694           4.00         2.00
  253.79        3338.75           6698           2.00         2.00
  253.81        3339.00           6701           5.00         2.00
  253.84        3339.25           6705           8.00        13.95
  253.87        3339.50           6709           0.00         2.00
  253.89        3339.75           6713           8.00        13.95
  253.92        3340.00           6716           8.00        13.95
  253.95        3340.25           6720           2.00         2.00
  253.97        3340.50           6724           8.00        13.95
  254.00        3340.75           6728           6.00         5.23
  254.03        3341.00           6731           6.00         5.23
  254.06        3341.25           6735           3.00         2.00
  254.08        3341.50           6739           8.00        13.95
  254.11        3341.75           6743           6.00         5.23
  254.14        3342.00           6746           0.00         2.00
  254.16        3342.25           6750           8.00        13.95
  254.19        3342.50           6754           0.00         2.00
  254.22        3342.75           6758           5.00         2.00
  254.25        3343.00           6761           0.00         2.00
  254.27        3343.25           6765           8.00        13.95
  254.30        3343.50           6769           8.00        13.95
  254.33        3343.75           6773           8.00        13.95
  254.36        3344.00           6776           1.00         2.00
  254.38        3344.25           6780           2.00         2.00
  254.41        3344.50           6784           3.00         2.00
  254.44        3344.75           6788           7.00         9.59
  254.46        3345.00           6791           0.00         2.00
  254.49        3345.25           6795           2.00         2.00
  254.52        3345.50           6799           4.00         2.00
  254.55        3345.75           6803           8.00        13.95
  254.57        3346.00           6806           0.00         2.00
  254.60        3346.25           6810           8.00        13.95
  254.63        3346.50           6814           0.00         2.00
  254.65        3346.75           6818           0.00         2.00
  254.68        3347.00           6821           8.00        13.95
  254.71        3347.25           6825           3.00         2.00
  254.73        3347.50           6829           0.00         2.00
  254.76        3347.75           6833           0.00         2.00
  254.79        3348.00           6836           8.00        13.95
  254.82        3348.25           6840           2.00         2.00
  254.84        3348.50           6844           8.00        13.95
  254.87        3348.75           6848           0.00         2.00
  254.90        3349.00           6851           0.00         2.00
  254.92        3349.25           6855           8.00        13.95
  254.95        3349.50           6859           0.00         2.00
  254.98        3349.75           6863           0.00         2.00
  255.01        3350.00           6867           8.00        13.95
  255.03        3350.25           6870           5.00         2.00
  255.06        3350.50           6874           0.00         2.00
  255.09        3350.75           6878           0.00         2.00
  255.11        3351.00           6882           8.00        13.95
HL scan finished at 04:15:44
end
