************************************************************
  HL Scan of (1) Internal mercury lamp
************************************************************
Integration time is 0.2294 seconds per sample
dh150217Tamanrasset 22.79-5.529 2.715812pr865
************************************************************
Dead Time -------------------------  2.8E-08 
Number of Cycles Used -------------  4 
Starting Wavelength (Angstroms) ---  3331 
Final Wavelength (Angstoms) -------  3351 
Wavelength Increment (Angstroms) --  .25 
Filter Wheel #1 Position ---------- (1) Ground quartz diffuser (ND=2.32)
Filter Wheel #2 Position ---------- (0) Clear Aperture



************************************************************
HL scan start time = 04:10:16
Dark Count =  4 


Time (GMT)  Wavelength (Ang)  Step Number  Raw Counts  Counts/Second

  250.78        3331.00           6581           2.00         2.00
  251.00        3331.25           6585           7.00        13.08
  251.02        3331.50           6589           0.00         2.00
  251.05        3331.75           6593           0.00         2.00
  251.08        3332.00           6596           3.00         2.00
  251.10        3332.25           6600           0.00         2.00
  251.13        3332.50           6604           4.00         2.00
  251.16        3332.75           6608           8.00        17.44
  251.19        3333.00           6611           8.00        17.44
  251.21        3333.25           6615           4.00         2.00
  251.24        3333.50           6619           7.00        13.08
  251.27        3333.75           6623           1.00         2.00
  251.29        3334.00           6626           5.00         4.36
  251.32        3334.25           6630           8.00        17.44
  251.35        3334.50           6634           8.00        17.44
  251.37        3334.75           6638           0.00         2.00
  251.40        3335.00           6641           2.00         2.00
  251.43        3335.25           6645           8.00        17.44
  251.46        3335.50           6649           0.00         2.00
  251.48        3335.75           6653           8.00        17.44
  251.51        3336.00           6656           1.00         2.00
  251.54        3336.25           6660           5.00         4.36
  251.56        3336.50           6664           3.00         2.00
  251.59        3336.75           6668           4.00         2.00
  251.62        3337.00           6671           6.00         8.72
  251.65        3337.25           6675           3.00         2.00
  251.67        3337.50           6679           8.00        17.44
  251.70        3337.75           6683           0.00         2.00
  251.73        3338.00           6686           4.00         2.00
  251.75        3338.25           6690           3.00         2.00
  251.78        3338.50           6694           0.00         2.00
  251.81        3338.75           6698           2.00         2.00
  251.84        3339.00           6701           3.00         2.00
  251.86        3339.25           6705           2.00         2.00
  251.89        3339.50           6709           0.00         2.00
  251.92        3339.75           6713           0.00         2.00
  251.94        3340.00           6716           8.00        17.44
  251.97        3340.25           6720           1.00         2.00
  252.00        3340.50           6724           5.00         4.36
  252.02        3340.75           6728           4.00         2.00
  252.05        3341.00           6731           0.00         2.00
  252.08        3341.25           6735           7.00        13.08
  252.11        3341.50           6739           8.00        17.44
  252.13        3341.75           6743           7.00        13.08
  252.16        3342.00           6746           4.00         2.00
  252.19        3342.25           6750           5.00         4.36
  252.21        3342.50           6754           5.00         4.36
  252.24        3342.75           6758           8.00        17.44
  252.27        3343.00           6761           8.00        17.44
  252.30        3343.25           6765           4.00         2.00
  252.32        3343.50           6769           8.00        17.44
  252.35        3343.75           6773           8.00        17.44
  252.38        3344.00           6776           3.00         2.00
  252.41        3344.25           6780           5.00         4.36
  252.43        3344.50           6784           2.00         2.00
  252.46        3344.75           6788           0.00         2.00
  252.49        3345.00           6791           2.00         2.00
  252.51        3345.25           6795           3.00         2.00
  252.54        3345.50           6799           8.00        17.44
  252.57        3345.75           6803           5.00         4.36
  252.60        3346.00           6806           3.00         2.00
  252.62        3346.25           6810           6.00         8.72
  252.65        3346.50           6814           0.00         2.00
  252.68        3346.75           6818           6.00         8.72
  252.70        3347.00           6821           8.00        17.44
  252.73        3347.25           6825           2.00         2.00
  252.76        3347.50           6829           1.00         2.00
  252.79        3347.75           6833           7.00        13.08
  252.81        3348.00           6836           8.00        17.44
  252.84        3348.25           6840           6.00         8.72
  252.87        3348.50           6844           8.00        17.44
  252.89        3348.75           6848           8.00        17.44
  252.92        3349.00           6851           4.00         2.00
  252.95        3349.25           6855           0.00         2.00
  252.98        3349.50           6859           0.00         2.00
  253.00        3349.75           6863           8.00        17.44
  253.03        3350.00           6867           0.00         2.00
  253.06        3350.25           6870           8.00        17.44
  253.08        3350.50           6874           5.00         4.36
  253.11        3350.75           6878           1.00         2.00
  253.14        3351.00           6882           3.00         2.00
HL scan finished at 04:13:46
end
