************************************************************
  HL Scan of (1) Internal mercury lamp
************************************************************
Integration time is 0.2294 seconds per sample
dh170217Tamanrasset 22.79-5.529 2.72091pr865
************************************************************
Dead Time -------------------------  2.8E-08 
Number of Cycles Used -------------  4 
Starting Wavelength (Angstroms) ---  3331 
Final Wavelength (Angstoms) -------  3351 
Wavelength Increment (Angstroms) --  .25 
Filter Wheel #1 Position ---------- (1) Ground quartz diffuser (ND=2.32)
Filter Wheel #2 Position ---------- (0) Clear Aperture



************************************************************
HL scan start time = 04:10:10
Dark Count =  2.4 


Time (GMT)  Wavelength (Ang)  Step Number  Raw Counts  Counts/Second

  250.67        3331.00           6581           5.00        11.33
  250.89        3331.25           6585           8.00        24.41
  250.92        3331.50           6589           0.00         2.00
  250.94        3331.75           6593           8.00        24.41
  250.97        3332.00           6596           5.00        11.33
  251.00        3332.25           6600           8.00        24.41
  251.03        3332.50           6604           8.00        24.41
  251.05        3332.75           6608           3.00         2.62
  251.08        3333.00           6611           8.00        24.41
  251.11        3333.25           6615           8.00        24.41
  251.14        3333.50           6619           8.00        24.41
  251.16        3333.75           6623           4.00         6.97
  251.19        3334.00           6626           1.00         2.00
  251.22        3334.25           6630           8.00        24.41
  251.24        3334.50           6634           8.00        24.41
  251.27        3334.75           6638           4.00         6.97
  251.30        3335.00           6641           0.00         2.00
  251.33        3335.25           6645           7.00        20.05
  251.35        3335.50           6649           4.00         6.97
  251.38        3335.75           6653           0.00         2.00
  251.41        3336.00           6656           0.00         2.00
  251.43        3336.25           6660           5.00        11.33
  251.46        3336.50           6664           9.00        28.77
  251.49        3336.75           6668           8.00        24.41
  251.52        3337.00           6671           0.00         2.00
  251.54        3337.25           6675           0.00         2.00
  251.57        3337.50           6679           8.00        24.41
  251.60        3337.75           6683           2.00         2.00
  251.62        3338.00           6686           1.00         2.00
  251.65        3338.25           6690           8.00        24.41
  251.68        3338.50           6694           5.00        11.33
  251.70        3338.75           6698           0.00         2.00
  251.73        3339.00           6701           1.00         2.00
  251.76        3339.25           6705           5.00        11.33
  251.79        3339.50           6709           6.00        15.69
  251.81        3339.75           6713           2.00         2.00
  251.84        3340.00           6716           8.00        24.41
  251.87        3340.25           6720           8.00        24.41
  251.89        3340.50           6724           4.00         6.97
  251.92        3340.75           6728           8.00        24.41
  251.95        3341.00           6731           0.00         2.00
  251.98        3341.25           6735           4.00         6.97
  252.00        3341.50           6739           8.00        24.41
  252.03        3341.75           6743           0.00         2.00
  252.06        3342.00           6746           8.00        24.41
  252.08        3342.25           6750           8.00        24.41
  252.11        3342.50           6754           3.00         2.62
  252.14        3342.75           6758           0.00         2.00
  252.17        3343.00           6761           0.00         2.00
  252.19        3343.25           6765           1.00         2.00
  252.22        3343.50           6769           8.00        24.41
  252.25        3343.75           6773           8.00        24.41
  252.27        3344.00           6776           0.00         2.00
  252.30        3344.25           6780           4.00         6.97
  252.33        3344.50           6784           0.00         2.00
  252.36        3344.75           6788           8.00        24.41
  252.38        3345.00           6791           6.00        15.69
  252.41        3345.25           6795           1.00         2.00
  252.44        3345.50           6799           0.00         2.00
  252.46        3345.75           6803           0.00         2.00
  252.49        3346.00           6806           6.00        15.69
  252.52        3346.25           6810           8.00        24.41
  252.55        3346.50           6814           8.00        24.41
  252.57        3346.75           6818           4.00         6.97
  252.60        3347.00           6821           0.00         2.00
  252.63        3347.25           6825           8.00        24.41
  252.65        3347.50           6829           1.00         2.00
  252.68        3347.75           6833           2.00         2.00
  252.71        3348.00           6836           8.00        24.41
  252.73        3348.25           6840           1.00         2.00
  252.76        3348.50           6844           6.00        15.69
  252.79        3348.75           6848           6.00        15.69
  252.82        3349.00           6851           0.00         2.00
  252.84        3349.25           6855           4.00         6.97
  252.87        3349.50           6859           1.00         2.00
  252.90        3349.75           6863           8.00        24.41
  252.92        3350.00           6867           3.00         2.62
  252.95        3350.25           6870           0.00         2.00
  252.98        3350.50           6874           8.00        24.41
  253.01        3350.75           6878           1.00         2.00
  253.03        3351.00           6882           4.00         6.97
HL scan finished at 04:13:39
end
