************************************************************
  HL Scan of (1) Internal mercury lamp
************************************************************
Integration time is 0.2294 seconds per sample
dh160217Tamanrasset 22.79-5.529 2.715812pr865
************************************************************
Dead Time -------------------------  2.8E-08 
Number of Cycles Used -------------  4 
Starting Wavelength (Angstroms) ---  3331 
Final Wavelength (Angstoms) -------  3351 
Wavelength Increment (Angstroms) --  .25 
Filter Wheel #1 Position ---------- (1) Ground quartz diffuser (ND=2.32)
Filter Wheel #2 Position ---------- (0) Clear Aperture



************************************************************
HL scan start time = 04:11:12
Dark Count =  5 


Time (GMT)  Wavelength (Ang)  Step Number  Raw Counts  Counts/Second

  251.71        3331.00           6581           5.00         2.00
  251.93        3331.25           6585           6.00         4.36
  251.96        3331.50           6589           8.00        13.08
  251.99        3331.75           6593           4.00         2.00
  252.01        3332.00           6596           3.00         2.00
  252.04        3332.25           6600           5.00         2.00
  252.07        3332.50           6604           7.00         8.72
  252.09        3332.75           6608           1.00         2.00
  252.12        3333.00           6611           8.00        13.08
  252.15        3333.25           6615           8.00        13.08
  252.18        3333.50           6619           8.00        13.08
  252.20        3333.75           6623           0.00         2.00
  252.23        3334.00           6626           8.00        13.08
  252.26        3334.25           6630           8.00        13.08
  252.28        3334.50           6634           0.00         2.00
  252.31        3334.75           6638           6.00         4.36
  252.34        3335.00           6641           0.00         2.00
  252.37        3335.25           6645           8.00        13.08
  252.39        3335.50           6649           0.00         2.00
  252.42        3335.75           6653           8.00        13.08
  252.45        3336.00           6656           6.00         4.36
  252.47        3336.25           6660           0.00         2.00
  252.50        3336.50           6664           8.00        13.08
  252.53        3336.75           6668           8.00        13.08
  252.56        3337.00           6671           0.00         2.00
  252.58        3337.25           6675           8.00        13.08
  252.61        3337.50           6679           0.00         2.00
  252.64        3337.75           6683           1.00         2.00
  252.66        3338.00           6686           0.00         2.00
  252.69        3338.25           6690           6.00         4.36
  252.72        3338.50           6694           8.00        13.08
  252.74        3338.75           6698           0.00         2.00
  252.77        3339.00           6701           2.00         2.00
  252.80        3339.25           6705           1.00         2.00
  252.83        3339.50           6709           0.00         2.00
  252.85        3339.75           6713           3.00         2.00
  252.88        3340.00           6716           2.00         2.00
  252.91        3340.25           6720           0.00         2.00
  252.93        3340.50           6724           8.00        13.08
  252.96        3340.75           6728           0.00         2.00
  252.99        3341.00           6731           0.00         2.00
  253.02        3341.25           6735           5.00         2.00
  253.04        3341.50           6739           6.00         4.36
  253.07        3341.75           6743           0.00         2.00
  253.10        3342.00           6746           5.00         2.00
  253.12        3342.25           6750           5.00         2.00
  253.15        3342.50           6754           2.00         2.00
  253.18        3342.75           6758           0.00         2.00
  253.21        3343.00           6761           7.00         8.72
  253.23        3343.25           6765           8.00        13.08
  253.26        3343.50           6769           4.00         2.00
  253.29        3343.75           6773           3.00         2.00
  253.31        3344.00           6776           6.00         4.36
  253.34        3344.25           6780           3.00         2.00
  253.37        3344.50           6784           2.00         2.00
  253.39        3344.75           6788           0.00         2.00
  253.42        3345.00           6791           6.00         4.36
  253.45        3345.25           6795           5.00         2.00
  253.48        3345.50           6799           8.00        13.08
  253.50        3345.75           6803           8.00        13.08
  253.53        3346.00           6806           8.00        13.08
  253.56        3346.25           6810           7.00         8.72
  253.58        3346.50           6814           0.00         2.00
  253.61        3346.75           6818           8.00        13.08
  253.64        3347.00           6821           0.00         2.00
  253.67        3347.25           6825           0.00         2.00
  253.69        3347.50           6829           5.00         2.00
  253.72        3347.75           6833           7.00         8.72
  253.75        3348.00           6836           5.00         2.00
  253.77        3348.25           6840           1.00         2.00
  253.80        3348.50           6844           8.00        13.08
  253.83        3348.75           6848           0.00         2.00
  253.86        3349.00           6851           2.00         2.00
  253.88        3349.25           6855           6.00         4.36
  253.91        3349.50           6859           8.00        13.08
  253.94        3349.75           6863           5.00         2.00
  253.96        3350.00           6867           7.00         8.72
  253.99        3350.25           6870           4.00         2.00
  254.02        3350.50           6874           8.00        13.08
  254.05        3350.75           6878           4.00         2.00
  254.07        3351.00           6882           5.00         2.00
HL scan finished at 04:14:42
end
