************************************************************
  HL Scan of (1) Internal mercury lamp
************************************************************
Integration time is 0.2294 seconds per sample
dh230217Tamanrasset 22.79-5.529 2.78209pr865
************************************************************
Dead Time -------------------------  2.8E-08 
Number of Cycles Used -------------  4 
Starting Wavelength (Angstroms) ---  3331 
Final Wavelength (Angstoms) -------  3351 
Wavelength Increment (Angstroms) --  .25 
Filter Wheel #1 Position ---------- (1) Ground quartz diffuser (ND=2.32)
Filter Wheel #2 Position ---------- (0) Clear Aperture



************************************************************
HL scan start time = 04:05:26
Dark Count =  2.6 


Time (GMT)  Wavelength (Ang)  Step Number  Raw Counts  Counts/Second

  245.95        3331.00           6581           0.00         2.00
  246.16        3331.25           6585           0.00         2.00
  246.19        3331.50           6589           8.00        23.54
  246.22        3331.75           6593           8.00        23.54
  246.25        3332.00           6596           7.00        19.18
  246.27        3332.25           6600           1.00         2.00
  246.30        3332.50           6604           0.00         2.00
  246.33        3332.75           6608           5.00        10.46
  246.35        3333.00           6611           8.00        23.54
  246.38        3333.25           6615           7.00        19.18
  246.41        3333.50           6619           8.00        23.54
  246.44        3333.75           6623           3.00         2.00
  246.46        3334.00           6626           8.00        23.54
  246.49        3334.25           6630           7.00        19.18
  246.52        3334.50           6634           0.00         2.00
  246.54        3334.75           6638           8.00        23.54
  246.57        3335.00           6641           6.00        14.82
  246.60        3335.25           6645           0.00         2.00
  246.63        3335.50           6649           8.00        23.54
  246.65        3335.75           6653           3.00         2.00
  246.68        3336.00           6656           0.00         2.00
  246.71        3336.25           6660           5.00        10.46
  246.73        3336.50           6664           3.00         2.00
  246.76        3336.75           6668           8.00        23.54
  246.79        3337.00           6671           0.00         2.00
  246.82        3337.25           6675           0.00         2.00
  246.84        3337.50           6679           0.00         2.00
  246.87        3337.75           6683           3.00         2.00
  246.90        3338.00           6686           7.00        19.18
  246.92        3338.25           6690           8.00        23.54
  246.95        3338.50           6694           0.00         2.00
  246.98        3338.75           6698           7.00        19.18
  247.00        3339.00           6701           6.00        14.82
  247.03        3339.25           6705           5.00        10.46
  247.06        3339.50           6709           0.00         2.00
  247.09        3339.75           6713           8.00        23.54
  247.11        3340.00           6716           8.00        23.54
  247.14        3340.25           6720           0.00         2.00
  247.17        3340.50           6724           0.00         2.00
  247.20        3340.75           6728           0.00         2.00
  247.22        3341.00           6731           7.00        19.18
  247.25        3341.25           6735           8.00        23.54
  247.28        3341.50           6739           0.00         2.00
  247.30        3341.75           6743           8.00        23.54
  247.33        3342.00           6746           7.00        19.18
  247.36        3342.25           6750           8.00        23.54
  247.38        3342.50           6754           1.00         2.00
  247.41        3342.75           6758           1.00         2.00
  247.44        3343.00           6761           7.00        19.18
  247.47        3343.25           6765           6.00        14.82
  247.49        3343.50           6769           0.00         2.00
  247.52        3343.75           6773           8.00        23.54
  247.55        3344.00           6776           0.00         2.00
  247.58        3344.25           6780           8.00        23.54
  247.60        3344.50           6784           3.00         2.00
  247.63        3344.75           6788           8.00        23.54
  247.66        3345.00           6791           3.00         2.00
  247.68        3345.25           6795           7.00        19.18
  247.71        3345.50           6799           1.00         2.00
  247.74        3345.75           6803           3.00         2.00
  247.76        3346.00           6806           0.00         2.00
  247.79        3346.25           6810           8.00        23.54
  247.82        3346.50           6814           2.00         2.00
  247.85        3346.75           6818           0.00         2.00
  247.87        3347.00           6821           8.00        23.54
  247.90        3347.25           6825           3.00         2.00
  247.93        3347.50           6829           5.00        10.46
  247.95        3347.75           6833           2.00         2.00
  247.98        3348.00           6836           8.00        23.54
  248.01        3348.25           6840           8.00        23.54
  248.04        3348.50           6844           7.00        19.18
  248.06        3348.75           6848           2.00         2.00
  248.09        3349.00           6851           0.00         2.00
  248.12        3349.25           6855           8.00        23.54
  248.14        3349.50           6859           5.00        10.46
  248.17        3349.75           6863           7.00        19.18
  248.20        3350.00           6867           0.00         2.00
  248.23        3350.25           6870           9.00        27.90
  248.25        3350.50           6874           0.00         2.00
  248.28        3350.75           6878           4.00         6.10
  248.31        3351.00           6882           0.00         2.00
HL scan finished at 04:08:56
end
