************************************************************
  HL Scan of (1) Internal mercury lamp
************************************************************
Integration time is 0.2294 seconds per sample
dh250217Tamanrasset 22.79-5.529 2.741303pr865
************************************************************
Dead Time -------------------------  2.8E-08 
Number of Cycles Used -------------  4 
Starting Wavelength (Angstroms) ---  3331 
Final Wavelength (Angstoms) -------  3351 
Wavelength Increment (Angstroms) --  .25 
Filter Wheel #1 Position ---------- (1) Ground quartz diffuser (ND=2.32)
Filter Wheel #2 Position ---------- (0) Clear Aperture



************************************************************
HL scan start time = 04:04:29
Dark Count =  3.9 


Time (GMT)  Wavelength (Ang)  Step Number  Raw Counts  Counts/Second

  245.00        3331.00           6581           8.00        17.87
  245.22        3331.25           6585           2.00         2.00
  245.24        3331.50           6589           0.00         2.00
  245.27        3331.75           6593           0.00         2.00
  245.30        3332.00           6596           5.00         4.80
  245.32        3332.25           6600           0.00         2.00
  245.35        3332.50           6604           8.00        17.87
  245.38        3332.75           6608           4.00         2.00
  245.41        3333.00           6611           4.00         2.00
  245.43        3333.25           6615           8.00        17.87
  245.46        3333.50           6619           8.00        17.87
  245.49        3333.75           6623           8.00        17.87
  245.51        3334.00           6626           4.00         2.00
  245.54        3334.25           6630           6.00         9.15
  245.57        3334.50           6634           3.00         2.00
  245.60        3334.75           6638           8.00        17.87
  245.62        3335.00           6641           0.00         2.00
  245.65        3335.25           6645           0.00         2.00
  245.68        3335.50           6649           7.00        13.51
  245.70        3335.75           6653           8.00        17.87
  245.73        3336.00           6656           0.00         2.00
  245.76        3336.25           6660           7.00        13.51
  245.79        3336.50           6664           0.00         2.00
  245.81        3336.75           6668           8.00        17.87
  245.84        3337.00           6671           0.00         2.00
  245.87        3337.25           6675           0.00         2.00
  245.89        3337.50           6679           0.00         2.00
  245.92        3337.75           6683           7.00        13.51
  245.95        3338.00           6686           0.00         2.00
  245.98        3338.25           6690           3.00         2.00
  246.00        3338.50           6694           3.00         2.00
  246.03        3338.75           6698           2.00         2.00
  246.06        3339.00           6701           5.00         4.80
  246.08        3339.25           6705           7.00        13.51
  246.11        3339.50           6709           8.00        17.87
  246.14        3339.75           6713           0.00         2.00
  246.17        3340.00           6716           5.00         4.80
  246.19        3340.25           6720           8.00        17.87
  246.22        3340.50           6724           0.00         2.00
  246.25        3340.75           6728           3.00         2.00
  246.27        3341.00           6731           2.00         2.00
  246.30        3341.25           6735           2.00         2.00
  246.33        3341.50           6739           8.00        17.87
  246.35        3341.75           6743           6.00         9.15
  246.38        3342.00           6746           1.00         2.00
  246.41        3342.25           6750           8.00        17.87
  246.44        3342.50           6754           2.00         2.00
  246.46        3342.75           6758           8.00        17.87
  246.49        3343.00           6761           8.00        17.87
  246.52        3343.25           6765           8.00        17.87
  246.54        3343.50           6769           0.00         2.00
  246.57        3343.75           6773           7.00        13.51
  246.60        3344.00           6776           6.00         9.15
  246.63        3344.25           6780           4.00         2.00
  246.65        3344.50           6784           3.00         2.00
  246.68        3344.75           6788           0.00         2.00
  246.71        3345.00           6791           0.00         2.00
  246.73        3345.25           6795           6.00         9.15
  246.76        3345.50           6799           1.00         2.00
  246.79        3345.75           6803           0.00         2.00
  246.82        3346.00           6806           8.00        17.87
  246.84        3346.25           6810           8.00        17.87
  246.87        3346.50           6814           5.00         4.80
  246.90        3346.75           6818           3.00         2.00
  246.92        3347.00           6821           0.00         2.00
  246.95        3347.25           6825           8.00        17.87
  246.98        3347.50           6829           2.00         2.00
  247.00        3347.75           6833           7.00        13.51
  247.03        3348.00           6836           2.00         2.00
  247.06        3348.25           6840           8.00        17.87
  247.09        3348.50           6844           4.00         2.00
  247.11        3348.75           6848           8.00        17.87
  247.14        3349.00           6851           8.00        17.87
  247.17        3349.25           6855           2.00         2.00
  247.19        3349.50           6859           5.00         4.80
  247.22        3349.75           6863           3.00         2.00
  247.25        3350.00           6867           7.00        13.51
  247.28        3350.25           6870           8.00        17.87
  247.30        3350.50           6874           8.00        17.87
  247.33        3350.75           6878           1.00         2.00
  247.36        3351.00           6882           8.00        17.87
HL scan finished at 04:07:59
end
