************************************************************
  HL Scan of (1) Internal mercury lamp
************************************************************
Integration time is 0.2294 seconds per sample
dh270217Tamanrasset 22.79-5.529 2.736205pr865
************************************************************
Dead Time -------------------------  2.8E-08 
Number of Cycles Used -------------  4 
Starting Wavelength (Angstroms) ---  3331 
Final Wavelength (Angstoms) -------  3351 
Wavelength Increment (Angstroms) --  .25 
Filter Wheel #1 Position ---------- (1) Ground quartz diffuser (ND=2.32)
Filter Wheel #2 Position ---------- (0) Clear Aperture



************************************************************
HL scan start time = 04:02:33
Dark Count =  4.6 


Time (GMT)  Wavelength (Ang)  Step Number  Raw Counts  Counts/Second

  243.06        3331.00           6581           0.00         2.00
  243.28        3331.25           6585           8.00        14.82
  243.30        3331.50           6589           2.00         2.00
  243.33        3331.75           6593           1.00         2.00
  243.36        3332.00           6596           2.00         2.00
  243.38        3332.25           6600           8.00        14.82
  243.41        3332.50           6604           6.00         6.10
  243.44        3332.75           6608           8.00        14.82
  243.46        3333.00           6611           8.00        14.82
  243.49        3333.25           6615           4.00         2.00
  243.52        3333.50           6619           7.00        10.46
  243.55        3333.75           6623           0.00         2.00
  243.57        3334.00           6626           8.00        14.82
  243.60        3334.25           6630           7.00        10.46
  243.63        3334.50           6634           0.00         2.00
  243.65        3334.75           6638           0.00         2.00
  243.68        3335.00           6641           8.00        14.82
  243.71        3335.25           6645           8.00        14.82
  243.74        3335.50           6649           0.00         2.00
  243.76        3335.75           6653           8.00        14.82
  243.79        3336.00           6656           0.00         2.00
  243.82        3336.25           6660           2.00         2.00
  243.84        3336.50           6664           5.00         2.00
  243.87        3336.75           6668           0.00         2.00
  243.90        3337.00           6671           0.00         2.00
  243.93        3337.25           6675           5.00         2.00
  243.95        3337.50           6679           8.00        14.82
  243.98        3337.75           6683           4.00         2.00
  244.01        3338.00           6686           3.00         2.00
  244.03        3338.25           6690           0.00         2.00
  244.06        3338.50           6694           0.00         2.00
  244.09        3338.75           6698           1.00         2.00
  244.11        3339.00           6701           0.00         2.00
  244.14        3339.25           6705           1.00         2.00
  244.17        3339.50           6709           3.00         2.00
  244.20        3339.75           6713           6.00         6.10
  244.22        3340.00           6716           6.00         6.10
  244.25        3340.25           6720           2.00         2.00
  244.28        3340.50           6724           8.00        14.82
  244.30        3340.75           6728           8.00        14.82
  244.33        3341.00           6731           0.00         2.00
  244.36        3341.25           6735           8.00        14.82
  244.39        3341.50           6739           0.00         2.00
  244.41        3341.75           6743           1.00         2.00
  244.44        3342.00           6746           8.00        14.82
  244.47        3342.25           6750           3.00         2.00
  244.49        3342.50           6754           1.00         2.00
  244.52        3342.75           6758           7.00        10.46
  244.55        3343.00           6761           0.00         2.00
  244.58        3343.25           6765           5.00         2.00
  244.60        3343.50           6769           8.00        14.82
  244.63        3343.75           6773           8.00        14.82
  244.66        3344.00           6776           1.00         2.00
  244.68        3344.25           6780           5.00         2.00
  244.71        3344.50           6784           8.00        14.82
  244.74        3344.75           6788           8.00        14.82
  244.77        3345.00           6791           8.00        14.82
  244.79        3345.25           6795           3.00         2.00
  244.82        3345.50           6799           0.00         2.00
  244.85        3345.75           6803           7.00        10.46
  244.88        3346.00           6806           5.00         2.00
  244.90        3346.25           6810           2.00         2.00
  244.93        3346.50           6814           8.00        14.82
  244.96        3346.75           6818           5.00         2.00
  244.98        3347.00           6821           0.00         2.00
  245.01        3347.25           6825           4.00         2.00
  245.04        3347.50           6829           0.00         2.00
  245.07        3347.75           6833           0.00         2.00
  245.09        3348.00           6836           8.00        14.82
  245.12        3348.25           6840           8.00        14.82
  245.15        3348.50           6844           0.00         2.00
  245.17        3348.75           6848           8.00        14.82
  245.20        3349.00           6851           8.00        14.82
  245.23        3349.25           6855           8.00        14.82
  245.25        3349.50           6859           5.00         2.00
  245.28        3349.75           6863           4.00         2.00
  245.31        3350.00           6867           0.00         2.00
  245.34        3350.25           6870           0.00         2.00
  245.36        3350.50           6874           8.00        14.82
  245.39        3350.75           6878           0.00         2.00
  245.42        3351.00           6882           0.00         2.00
HL scan finished at 04:06:02
end
