************************************************************
  HL Scan of (1) Internal mercury lamp
************************************************************
Integration time is 0.2294 seconds per sample
dh220217Tamanrasset 22.79-5.529 2.802483pr865
************************************************************
Dead Time -------------------------  2.8E-08 
Number of Cycles Used -------------  4 
Starting Wavelength (Angstroms) ---  3331 
Final Wavelength (Angstoms) -------  3351 
Wavelength Increment (Angstroms) --  .25 
Filter Wheel #1 Position ---------- (1) Ground quartz diffuser (ND=2.32)
Filter Wheel #2 Position ---------- (0) Clear Aperture



************************************************************
HL scan start time = 04:06:41
Dark Count =  3.8 


Time (GMT)  Wavelength (Ang)  Step Number  Raw Counts  Counts/Second

  247.20        3331.00           6581           0.00         2.00
  247.42        3331.25           6585           8.00        18.31
  247.44        3331.50           6589           0.00         2.00
  247.47        3331.75           6593           4.00         2.00
  247.50        3332.00           6596           3.00         2.00
  247.52        3332.25           6600           8.00        18.31
  247.55        3332.50           6604           8.00        18.31
  247.58        3332.75           6608           2.00         2.00
  247.61        3333.00           6611           2.00         2.00
  247.63        3333.25           6615           0.00         2.00
  247.66        3333.50           6619           8.00        18.31
  247.69        3333.75           6623           0.00         2.00
  247.71        3334.00           6626           0.00         2.00
  247.74        3334.25           6630           8.00        18.31
  247.77        3334.50           6634           6.00         9.59
  247.80        3334.75           6638           2.00         2.00
  247.82        3335.00           6641           3.00         2.00
  247.85        3335.25           6645           4.00         2.00
  247.88        3335.50           6649           0.00         2.00
  247.90        3335.75           6653           8.00        18.31
  247.93        3336.00           6656           8.00        18.31
  247.96        3336.25           6660           8.00        18.31
  247.99        3336.50           6664           8.00        18.31
  248.01        3336.75           6668           8.00        18.31
  248.04        3337.00           6671           0.00         2.00
  248.07        3337.25           6675           3.00         2.00
  248.09        3337.50           6679           7.00        13.95
  248.12        3337.75           6683           8.00        18.31
  248.15        3338.00           6686           3.00         2.00
  248.17        3338.25           6690           0.00         2.00
  248.20        3338.50           6694           7.00        13.95
  248.23        3338.75           6698           8.00        18.31
  248.26        3339.00           6701           7.00        13.95
  248.28        3339.25           6705           7.00        13.95
  248.31        3339.50           6709           8.00        18.31
  248.34        3339.75           6713           8.00        18.31
  248.36        3340.00           6716           8.00        18.31
  248.39        3340.25           6720           0.00         2.00
  248.42        3340.50           6724           0.00         2.00
  248.45        3340.75           6728           2.00         2.00
  248.47        3341.00           6731           8.00        18.31
  248.50        3341.25           6735           5.00         5.23
  248.53        3341.50           6739           0.00         2.00
  248.55        3341.75           6743           6.00         9.59
  248.58        3342.00           6746           8.00        18.31
  248.61        3342.25           6750           7.00        13.95
  248.64        3342.50           6754           0.00         2.00
  248.66        3342.75           6758           8.00        18.31
  248.69        3343.00           6761           6.00         9.59
  248.72        3343.25           6765           0.00         2.00
  248.74        3343.50           6769           8.00        18.31
  248.77        3343.75           6773           4.00         2.00
  248.80        3344.00           6776           8.00        18.31
  248.83        3344.25           6780           0.00         2.00
  248.85        3344.50           6784           0.00         2.00
  248.88        3344.75           6788           0.00         2.00
  248.91        3345.00           6791           6.00         9.59
  248.93        3345.25           6795           3.00         2.00
  248.96        3345.50           6799           0.00         2.00
  248.99        3345.75           6803           2.00         2.00
  249.02        3346.00           6806           2.00         2.00
  249.04        3346.25           6810           0.00         2.00
  249.07        3346.50           6814           7.00        13.95
  249.10        3346.75           6818           6.00         9.59
  249.12        3347.00           6821           2.00         2.00
  249.15        3347.25           6825           8.00        18.31
  249.18        3347.50           6829           4.00         2.00
  249.21        3347.75           6833           2.00         2.00
  249.23        3348.00           6836           6.00         9.59
  249.26        3348.25           6840           3.00         2.00
  249.29        3348.50           6844           8.00        18.31
  249.31        3348.75           6848           7.00        13.95
  249.34        3349.00           6851           6.00         9.59
  249.37        3349.25           6855           4.00         2.00
  249.40        3349.50           6859           8.00        18.31
  249.42        3349.75           6863           6.00         9.59
  249.45        3350.00           6867           6.00         9.59
  249.48        3350.25           6870           4.00         2.00
  249.50        3350.50           6874           6.00         9.59
  249.53        3350.75           6878           7.00        13.95
  249.56        3351.00           6882           8.00        18.31
HL scan finished at 04:10:11
end
