************************************************************
  HL Scan of (1) Internal mercury lamp
************************************************************
Integration time is 0.2294 seconds per sample
dh210217Tamanrasset 22.79-5.529 2.746401pr865
************************************************************
Dead Time -------------------------  2.8E-08 
Number of Cycles Used -------------  4 
Starting Wavelength (Angstroms) ---  3331 
Final Wavelength (Angstoms) -------  3351 
Wavelength Increment (Angstroms) --  .25 
Filter Wheel #1 Position ---------- (1) Ground quartz diffuser (ND=2.32)
Filter Wheel #2 Position ---------- (0) Clear Aperture



************************************************************
HL scan start time = 04:06:44
Dark Count =  4.1 


Time (GMT)  Wavelength (Ang)  Step Number  Raw Counts  Counts/Second

  247.25        3331.00           6581           7.00        12.64
  247.47        3331.25           6585           0.00         2.00
  247.49        3331.50           6589           6.00         8.28
  247.52        3331.75           6593           4.00         2.00
  247.55        3332.00           6596           8.00        17.00
  247.58        3332.25           6600           1.00         2.00
  247.60        3332.50           6604           0.00         2.00
  247.63        3332.75           6608           8.00        17.00
  247.66        3333.00           6611           1.00         2.00
  247.68        3333.25           6615           4.00         2.00
  247.71        3333.50           6619           8.00        17.00
  247.74        3333.75           6623           8.00        17.00
  247.77        3334.00           6626           8.00        17.00
  247.79        3334.25           6630           8.00        17.00
  247.82        3334.50           6634           5.00         3.92
  247.85        3334.75           6638           8.00        17.00
  247.87        3335.00           6641           8.00        17.00
  247.90        3335.25           6645           5.00         3.92
  247.93        3335.50           6649           2.00         2.00
  247.96        3335.75           6653           8.00        17.00
  247.98        3336.00           6656           5.00         3.92
  248.01        3336.25           6660           2.00         2.00
  248.04        3336.50           6664           8.00        17.00
  248.06        3336.75           6668           8.00        17.00
  248.09        3337.00           6671           3.00         2.00
  248.12        3337.25           6675           0.00         2.00
  248.15        3337.50           6679           0.00         2.00
  248.17        3337.75           6683           7.00        12.64
  248.20        3338.00           6686           0.00         2.00
  248.23        3338.25           6690           0.00         2.00
  248.25        3338.50           6694           6.00         8.28
  248.28        3338.75           6698           8.00        17.00
  248.31        3339.00           6701           5.00         3.92
  248.34        3339.25           6705           5.00         3.92
  248.36        3339.50           6709           6.00         8.28
  248.39        3339.75           6713           4.00         2.00
  248.42        3340.00           6716           4.00         2.00
  248.44        3340.25           6720           0.00         2.00
  248.47        3340.50           6724           8.00        17.00
  248.50        3340.75           6728           4.00         2.00
  248.52        3341.00           6731           0.00         2.00
  248.55        3341.25           6735           8.00        17.00
  248.58        3341.50           6739           5.00         3.92
  248.61        3341.75           6743           8.00        17.00
  248.63        3342.00           6746           8.00        17.00
  248.66        3342.25           6750           3.00         2.00
  248.69        3342.50           6754           8.00        17.00
  248.71        3342.75           6758           4.00         2.00
  248.74        3343.00           6761           8.00        17.00
  248.77        3343.25           6765           8.00        17.00
  248.80        3343.50           6769           0.00         2.00
  248.82        3343.75           6773           8.00        17.00
  248.85        3344.00           6776           8.00        17.00
  248.88        3344.25           6780           8.00        17.00
  248.90        3344.50           6784           0.00         2.00
  248.93        3344.75           6788           6.00         8.28
  248.96        3345.00           6791           4.00         2.00
  248.99        3345.25           6795           0.00         2.00
  249.01        3345.50           6799           8.00        17.00
  249.04        3345.75           6803           8.00        17.00
  249.07        3346.00           6806           4.00         2.00
  249.09        3346.25           6810           0.00         2.00
  249.12        3346.50           6814           5.00         3.92
  249.15        3346.75           6818           4.00         2.00
  249.18        3347.00           6821           8.00        17.00
  249.20        3347.25           6825           1.00         2.00
  249.23        3347.50           6829           3.00         2.00
  249.26        3347.75           6833           4.00         2.00
  249.28        3348.00           6836           8.00        17.00
  249.31        3348.25           6840           7.00        12.64
  249.34        3348.50           6844           7.00        12.64
  249.36        3348.75           6848           6.00         8.28
  249.39        3349.00           6851           8.00        17.00
  249.42        3349.25           6855           8.00        17.00
  249.45        3349.50           6859           6.00         8.28
  249.47        3349.75           6863           7.00        12.64
  249.50        3350.00           6867           8.00        17.00
  249.53        3350.25           6870           3.00         2.00
  249.55        3350.50           6874           5.00         3.92
  249.58        3350.75           6878           0.00         2.00
  249.61        3351.00           6882           7.00        12.64
HL scan finished at 04:10:14
end
