************************************************************
  HL Scan of (1) Internal mercury lamp
************************************************************
Integration time is 0.2294 seconds per sample
dh260217Tamanrasset 22.79-5.529 2.919744pr865
************************************************************
Dead Time -------------------------  2.8E-08 
Number of Cycles Used -------------  4 
Starting Wavelength (Angstroms) ---  3331 
Final Wavelength (Angstoms) -------  3351 
Wavelength Increment (Angstroms) --  .25 
Filter Wheel #1 Position ---------- (1) Ground quartz diffuser (ND=2.32)
Filter Wheel #2 Position ---------- (0) Clear Aperture



************************************************************
HL scan start time = 04:04:00
Dark Count =  5.5 


Time (GMT)  Wavelength (Ang)  Step Number  Raw Counts  Counts/Second

  244.50        3331.00           6581           3.00         2.00
  244.72        3331.25           6585           0.00         2.00
  244.75        3331.50           6589           3.00         2.00
  244.78        3331.75           6593           2.00         2.00
  244.80        3332.00           6596           6.00         2.18
  244.83        3332.25           6600           4.00         2.00
  244.86        3332.50           6604           4.00         2.00
  244.89        3332.75           6608           2.00         2.00
  244.91        3333.00           6611           8.00        10.90
  244.94        3333.25           6615           0.00         2.00
  244.97        3333.50           6619           6.00         2.18
  244.99        3333.75           6623           4.00         2.00
  245.02        3334.00           6626           1.00         2.00
  245.05        3334.25           6630           8.00        10.90
  245.07        3334.50           6634           6.00         2.18
  245.10        3334.75           6638           0.00         2.00
  245.13        3335.00           6641           2.00         2.00
  245.16        3335.25           6645           0.00         2.00
  245.18        3335.50           6649           4.00         2.00
  245.21        3335.75           6653           1.00         2.00
  245.24        3336.00           6656           6.00         2.18
  245.26        3336.25           6660           8.00        10.90
  245.29        3336.50           6664           5.00         2.00
  245.32        3336.75           6668           5.00         2.00
  245.35        3337.00           6671           3.00         2.00
  245.37        3337.25           6675           5.00         2.00
  245.40        3337.50           6679           5.00         2.00
  245.43        3337.75           6683           7.00         6.54
  245.45        3338.00           6686           7.00         6.54
  245.48        3338.25           6690           4.00         2.00
  245.51        3338.50           6694           8.00        10.90
  245.54        3338.75           6698           7.00         6.54
  245.56        3339.00           6701           1.00         2.00
  245.59        3339.25           6705           5.00         2.00
  245.62        3339.50           6709           4.00         2.00
  245.64        3339.75           6713           8.00        10.90
  245.67        3340.00           6716           6.00         2.18
  245.70        3340.25           6720           2.00         2.00
  245.73        3340.50           6724           0.00         2.00
  245.75        3340.75           6728           0.00         2.00
  245.78        3341.00           6731           4.00         2.00
  245.81        3341.25           6735           4.00         2.00
  245.83        3341.50           6739           5.00         2.00
  245.86        3341.75           6743           2.00         2.00
  245.89        3342.00           6746           6.00         2.18
  245.92        3342.25           6750           5.00         2.00
  245.94        3342.50           6754           0.00         2.00
  245.97        3342.75           6758           8.00        10.90
  246.00        3343.00           6761           2.00         2.00
  246.02        3343.25           6765           3.00         2.00
  246.05        3343.50           6769           8.00        10.90
  246.08        3343.75           6773           8.00        10.90
  246.11        3344.00           6776           6.00         2.18
  246.13        3344.25           6780           3.00         2.00
  246.16        3344.50           6784           0.00         2.00
  246.19        3344.75           6788           1.00         2.00
  246.21        3345.00           6791           1.00         2.00
  246.24        3345.25           6795           7.00         6.54
  246.27        3345.50           6799           7.00         6.54
  246.30        3345.75           6803           5.00         2.00
  246.32        3346.00           6806           3.00         2.00
  246.35        3346.25           6810           2.00         2.00
  246.38        3346.50           6814           7.00         6.54
  246.40        3346.75           6818           6.00         2.18
  246.43        3347.00           6821           1.00         2.00
  246.46        3347.25           6825           8.00        10.90
  246.48        3347.50           6829           5.00         2.00
  246.51        3347.75           6833           8.00        10.90
  246.54        3348.00           6836           2.00         2.00
  246.57        3348.25           6840           2.00         2.00
  246.59        3348.50           6844           6.00         2.18
  246.62        3348.75           6848           8.00        10.90
  246.65        3349.00           6851           6.00         2.18
  246.67        3349.25           6855           1.00         2.00
  246.70        3349.50           6859           2.00         2.00
  246.73        3349.75           6863           0.00         2.00
  246.76        3350.00           6867           8.00        10.90
  246.78        3350.25           6870           5.00         2.00
  246.81        3350.50           6874           8.00        10.90
  246.84        3350.75           6878           3.00         2.00
  246.87        3351.00           6882           0.00         2.00
HL scan finished at 04:07:29
end
