************************************************************
  HL Scan of (1) Internal mercury lamp
************************************************************
Integration time is 0.2294 seconds per sample
dh240217Tamanrasset 22.79-5.529 2.766795pr865
************************************************************
Dead Time -------------------------  2.8E-08 
Number of Cycles Used -------------  4 
Starting Wavelength (Angstroms) ---  3331 
Final Wavelength (Angstoms) -------  3351 
Wavelength Increment (Angstroms) --  .25 
Filter Wheel #1 Position ---------- (1) Ground quartz diffuser (ND=2.32)
Filter Wheel #2 Position ---------- (0) Clear Aperture



************************************************************
HL scan start time = 04:04:43
Dark Count =  3.1 


Time (GMT)  Wavelength (Ang)  Step Number  Raw Counts  Counts/Second

  245.22        3331.00           6581           2.00         2.00
  245.44        3331.25           6585           0.00         2.00
  245.47        3331.50           6589           3.00         2.00
  245.49        3331.75           6593           3.00         2.00
  245.52        3332.00           6596           8.00        21.36
  245.55        3332.25           6600           0.00         2.00
  245.57        3332.50           6604           8.00        21.36
  245.60        3332.75           6608           8.00        21.36
  245.63        3333.00           6611           3.00         2.00
  245.65        3333.25           6615           2.00         2.00
  245.68        3333.50           6619           0.00         2.00
  245.71        3333.75           6623           0.00         2.00
  245.74        3334.00           6626           0.00         2.00
  245.76        3334.25           6630           2.00         2.00
  245.79        3334.50           6634           8.00        21.36
  245.82        3334.75           6638           4.00         3.92
  245.84        3335.00           6641           8.00        21.36
  245.87        3335.25           6645           0.00         2.00
  245.90        3335.50           6649           5.00         8.28
  245.93        3335.75           6653           6.00        12.64
  245.95        3336.00           6656           8.00        21.36
  245.98        3336.25           6660           0.00         2.00
  246.01        3336.50           6664           8.00        21.36
  246.03        3336.75           6668           8.00        21.36
  246.06        3337.00           6671           7.00        17.00
  246.09        3337.25           6675           7.00        17.00
  246.12        3337.50           6679           2.00         2.00
  246.14        3337.75           6683           0.00         2.00
  246.17        3338.00           6686           4.00         3.92
  246.20        3338.25           6690           8.00        21.36
  246.22        3338.50           6694           1.00         2.00
  246.25        3338.75           6698           0.00         2.00
  246.28        3339.00           6701           6.00        12.64
  246.31        3339.25           6705           4.00         3.92
  246.33        3339.50           6709           8.00        21.36
  246.36        3339.75           6713           0.00         2.00
  246.39        3340.00           6716           6.00        12.64
  246.41        3340.25           6720           8.00        21.36
  246.44        3340.50           6724           7.00        17.00
  246.47        3340.75           6728           8.00        21.36
  246.50        3341.00           6731           8.00        21.36
  246.52        3341.25           6735           3.00         2.00
  246.55        3341.50           6739           2.00         2.00
  246.58        3341.75           6743           2.00         2.00
  246.60        3342.00           6746           6.00        12.64
  246.63        3342.25           6750           8.00        21.36
  246.66        3342.50           6754           0.00         2.00
  246.69        3342.75           6758           7.00        17.00
  246.71        3343.00           6761           4.00         3.92
  246.74        3343.25           6765           0.00         2.00
  246.77        3343.50           6769           7.00        17.00
  246.79        3343.75           6773           8.00        21.36
  246.82        3344.00           6776           0.00         2.00
  246.85        3344.25           6780           0.00         2.00
  246.87        3344.50           6784           8.00        21.36
  246.90        3344.75           6788           8.00        21.36
  246.93        3345.00           6791           2.00         2.00
  246.96        3345.25           6795           8.00        21.36
  246.98        3345.50           6799           8.00        21.36
  247.01        3345.75           6803           8.00        21.36
  247.04        3346.00           6806           0.00         2.00
  247.06        3346.25           6810           0.00         2.00
  247.09        3346.50           6814           6.00        12.64
  247.12        3346.75           6818           4.00         3.92
  247.15        3347.00           6821           8.00        21.36
  247.17        3347.25           6825           5.00         8.28
  247.20        3347.50           6829           3.00         2.00
  247.23        3347.75           6833           0.00         2.00
  247.25        3348.00           6836           1.00         2.00
  247.28        3348.25           6840           2.00         2.00
  247.31        3348.50           6844           0.00         2.00
  247.34        3348.75           6848           0.00         2.00
  247.36        3349.00           6851           3.00         2.00
  247.39        3349.25           6855           1.00         2.00
  247.42        3349.50           6859           7.00        17.00
  247.44        3349.75           6863           8.00        21.36
  247.47        3350.00           6867           7.00        17.00
  247.50        3350.25           6870           4.00         3.92
  247.52        3350.50           6874           1.00         2.00
  247.55        3350.75           6878           8.00        21.36
  247.58        3351.00           6882           6.00        12.64
HL scan finished at 04:08:12
end
