************************************************************
  HL Scan of (1) Internal mercury lamp
************************************************************
Integration time is 0.2294 seconds per sample
dh280217Tamanrasset 22.79-5.529 2.715812pr865
************************************************************
Dead Time -------------------------  2.8E-08 
Number of Cycles Used -------------  4 
Starting Wavelength (Angstroms) ---  3331 
Final Wavelength (Angstoms) -------  3351 
Wavelength Increment (Angstroms) --  .25 
Filter Wheel #1 Position ---------- (1) Ground quartz diffuser (ND=2.32)
Filter Wheel #2 Position ---------- (0) Clear Aperture



************************************************************
HL scan start time = 04:01:45
Dark Count =  5 


Time (GMT)  Wavelength (Ang)  Step Number  Raw Counts  Counts/Second

  242.25        3331.00           6581           6.00         4.36
  242.47        3331.25           6585           2.00         2.00
  242.50        3331.50           6589           0.00         2.00
  242.53        3331.75           6593           8.00        13.08
  242.55        3332.00           6596           9.00        17.44
  242.58        3332.25           6600           1.00         2.00
  242.61        3332.50           6604           8.00        13.08
  242.64        3332.75           6608           8.00        13.08
  242.66        3333.00           6611           8.00        13.08
  242.69        3333.25           6615           8.00        13.08
  242.72        3333.50           6619           3.00         2.00
  242.74        3333.75           6623           8.00        13.08
  242.77        3334.00           6626           1.00         2.00
  242.80        3334.25           6630           2.00         2.00
  242.83        3334.50           6634           8.00        13.08
  242.85        3334.75           6638           2.00         2.00
  242.88        3335.00           6641           0.00         2.00
  242.91        3335.25           6645           0.00         2.00
  242.93        3335.50           6649           0.00         2.00
  242.96        3335.75           6653           8.00        13.08
  242.99        3336.00           6656           8.00        13.08
  243.01        3336.25           6660           8.00        13.08
  243.04        3336.50           6664           0.00         2.00
  243.07        3336.75           6668           0.00         2.00
  243.10        3337.00           6671           8.00        13.08
  243.12        3337.25           6675           8.00        13.08
  243.15        3337.50           6679           0.00         2.00
  243.18        3337.75           6683           0.00         2.00
  243.20        3338.00           6686           8.00        13.08
  243.23        3338.25           6690           8.00        13.08
  243.26        3338.50           6694           7.00         8.72
  243.29        3338.75           6698           0.00         2.00
  243.31        3339.00           6701           0.00         2.00
  243.34        3339.25           6705           4.00         2.00
  243.37        3339.50           6709           8.00        13.08
  243.39        3339.75           6713           0.00         2.00
  243.42        3340.00           6716           4.00         2.00
  243.45        3340.25           6720           0.00         2.00
  243.48        3340.50           6724           8.00        13.08
  243.50        3340.75           6728           0.00         2.00
  243.53        3341.00           6731           0.00         2.00
  243.56        3341.25           6735           2.00         2.00
  243.58        3341.50           6739           5.00         2.00
  243.61        3341.75           6743           4.00         2.00
  243.64        3342.00           6746           8.00        13.08
  243.67        3342.25           6750           0.00         2.00
  243.69        3342.50           6754           0.00         2.00
  243.72        3342.75           6758           0.00         2.00
  243.75        3343.00           6761           0.00         2.00
  243.77        3343.25           6765           9.00        17.44
  243.80        3343.50           6769           2.00         2.00
  243.83        3343.75           6773           0.00         2.00
  243.86        3344.00           6776           8.00        13.08
  243.88        3344.25           6780           4.00         2.00
  243.91        3344.50           6784           3.00         2.00
  243.94        3344.75           6788           8.00        13.08
  243.96        3345.00           6791           3.00         2.00
  243.99        3345.25           6795           0.00         2.00
  244.02        3345.50           6799           3.00         2.00
  244.04        3345.75           6803           0.00         2.00
  244.07        3346.00           6806           3.00         2.00
  244.10        3346.25           6810           0.00         2.00
  244.13        3346.50           6814           7.00         8.72
  244.15        3346.75           6818           7.00         8.72
  244.18        3347.00           6821           5.00         2.00
  244.21        3347.25           6825           8.00        13.08
  244.23        3347.50           6829           3.00         2.00
  244.26        3347.75           6833           6.00         4.36
  244.29        3348.00           6836           6.00         4.36
  244.32        3348.25           6840           8.00        13.08
  244.34        3348.50           6844           2.00         2.00
  244.37        3348.75           6848           1.00         2.00
  244.40        3349.00           6851           5.00         2.00
  244.42        3349.25           6855           8.00        13.08
  244.45        3349.50           6859           0.00         2.00
  244.48        3349.75           6863           8.00        13.08
  244.51        3350.00           6867           4.00         2.00
  244.53        3350.25           6870           8.00        13.08
  244.56        3350.50           6874           0.00         2.00
  244.59        3350.75           6878           7.00         8.72
  244.61        3351.00           6882           8.00        13.08
HL scan finished at 04:05:14
end
