************************************************************
  HL Scan of (1) Internal mercury lamp
************************************************************
Integration time is 0.2294 seconds per sample
dh200217Tamanrasset 22.79-5.529 2.7515pr865
************************************************************
Dead Time -------------------------  2.8E-08 
Number of Cycles Used -------------  4 
Starting Wavelength (Angstroms) ---  3331 
Final Wavelength (Angstoms) -------  3351 
Wavelength Increment (Angstroms) --  .25 
Filter Wheel #1 Position ---------- (1) Ground quartz diffuser (ND=2.32)
Filter Wheel #2 Position ---------- (0) Clear Aperture



************************************************************
HL scan start time = 04:07:39
Dark Count =  3.9 


Time (GMT)  Wavelength (Ang)  Step Number  Raw Counts  Counts/Second

  248.16        3331.00           6581           0.00         2.00
  248.38        3331.25           6585           8.00        17.87
  248.41        3331.50           6589           0.00         2.00
  248.43        3331.75           6593           4.00         2.00
  248.46        3332.00           6596           7.00        13.51
  248.49        3332.25           6600           2.00         2.00
  248.51        3332.50           6604           4.00         2.00
  248.54        3332.75           6608           8.00        17.87
  248.57        3333.00           6611           0.00         2.00
  248.60        3333.25           6615           8.00        17.87
  248.62        3333.50           6619           3.00         2.00
  248.65        3333.75           6623           8.00        17.87
  248.68        3334.00           6626           6.00         9.15
  248.70        3334.25           6630           6.00         9.15
  248.73        3334.50           6634           4.00         2.00
  248.76        3334.75           6638           8.00        17.87
  248.78        3335.00           6641           0.00         2.00
  248.81        3335.25           6645           8.00        17.87
  248.84        3335.50           6649           8.00        17.87
  248.87        3335.75           6653           5.00         4.80
  248.89        3336.00           6656           0.00         2.00
  248.92        3336.25           6660           5.00         4.80
  248.95        3336.50           6664           3.00         2.00
  248.97        3336.75           6668           1.00         2.00
  249.00        3337.00           6671           0.00         2.00
  249.03        3337.25           6675           6.00         9.15
  249.06        3337.50           6679           1.00         2.00
  249.08        3337.75           6683           1.00         2.00
  249.11        3338.00           6686           0.00         2.00
  249.14        3338.25           6690           0.00         2.00
  249.17        3338.50           6694           6.00         9.15
  249.19        3338.75           6698           1.00         2.00
  249.22        3339.00           6701           2.00         2.00
  249.25        3339.25           6705           0.00         2.00
  249.27        3339.50           6709           2.00         2.00
  249.30        3339.75           6713           8.00        17.87
  249.33        3340.00           6716           1.00         2.00
  249.36        3340.25           6720           4.00         2.00
  249.38        3340.50           6724           0.00         2.00
  249.41        3340.75           6728           8.00        17.87
  249.44        3341.00           6731           8.00        17.87
  249.46        3341.25           6735           0.00         2.00
  249.49        3341.50           6739           8.00        17.87
  249.52        3341.75           6743           4.00         2.00
  249.55        3342.00           6746           6.00         9.15
  249.57        3342.25           6750           8.00        17.87
  249.60        3342.50           6754           6.00         9.15
  249.63        3342.75           6758           5.00         4.80
  249.65        3343.00           6761           8.00        17.87
  249.68        3343.25           6765           5.00         4.80
  249.71        3343.50           6769           2.00         2.00
  249.73        3343.75           6773           0.00         2.00
  249.76        3344.00           6776           8.00        17.87
  249.79        3344.25           6780           0.00         2.00
  249.82        3344.50           6784           0.00         2.00
  249.84        3344.75           6788           1.00         2.00
  249.87        3345.00           6791           8.00        17.87
  249.90        3345.25           6795           0.00         2.00
  249.92        3345.50           6799           6.00         9.15
  249.95        3345.75           6803           5.00         4.80
  249.98        3346.00           6806           5.00         4.80
  250.01        3346.25           6810           7.00        13.51
  250.03        3346.50           6814           0.00         2.00
  250.06        3346.75           6818           8.00        17.87
  250.09        3347.00           6821           9.00        22.23
  250.11        3347.25           6825           8.00        17.87
  250.14        3347.50           6829           5.00         4.80
  250.17        3347.75           6833           2.00         2.00
  250.20        3348.00           6836           8.00        17.87
  250.22        3348.25           6840           0.00         2.00
  250.25        3348.50           6844           6.00         9.15
  250.28        3348.75           6848           8.00        17.87
  250.30        3349.00           6851           2.00         2.00
  250.33        3349.25           6855           8.00        17.87
  250.36        3349.50           6859           8.00        17.87
  250.39        3349.75           6863           8.00        17.87
  250.41        3350.00           6867           0.00         2.00
  250.44        3350.25           6870           2.00         2.00
  250.47        3350.50           6874           8.00        17.87
  250.49        3350.75           6878           5.00         4.80
  250.52        3351.00           6882           3.00         2.00
HL scan finished at 04:11:09
end
