************************************************************
  HL Scan of (1) Internal mercury lamp
************************************************************
Integration time is 0.2294 seconds per sample
dh050317Tamanrasset 22.79-5.529 2.746401pr865
************************************************************
Dead Time -------------------------  2.8E-08 
Number of Cycles Used -------------  4 
Starting Wavelength (Angstroms) ---  3331 
Final Wavelength (Angstoms) -------  3351 
Wavelength Increment (Angstroms) --  .25 
Filter Wheel #1 Position ---------- (1) Ground quartz diffuser (ND=2.32)
Filter Wheel #2 Position ---------- (0) Clear Aperture



************************************************************
HL scan start time = 03:57:45
Dark Count =  6.2 


Time (GMT)  Wavelength (Ang)  Step Number  Raw Counts  Counts/Second

  238.26        3331.00           6581           3.00         2.00
  238.48        3331.25           6585           0.00         2.00
  238.51        3331.50           6589           3.00         2.00
  238.53        3331.75           6593           4.00         2.00
  238.56        3332.00           6596           8.00         7.85
  238.59        3332.25           6600           4.00         2.00
  238.61        3332.50           6604           8.00         7.85
  238.64        3332.75           6608           2.00         2.00
  238.67        3333.00           6611           0.00         2.00
  238.70        3333.25           6615           6.00         2.00
  238.72        3333.50           6619           0.00         2.00
  238.75        3333.75           6623           6.00         2.00
  238.78        3334.00           6626           0.00         2.00
  238.80        3334.25           6630           6.00         2.00
  238.83        3334.50           6634           5.00         2.00
  238.86        3334.75           6638           8.00         7.85
  238.89        3335.00           6641           0.00         2.00
  238.91        3335.25           6645           5.00         2.00
  238.94        3335.50           6649           7.00         3.49
  238.97        3335.75           6653           8.00         7.85
  238.99        3336.00           6656           1.00         2.00
  239.02        3336.25           6660           3.00         2.00
  239.05        3336.50           6664           0.00         2.00
  239.07        3336.75           6668           8.00         7.85
  239.10        3337.00           6671           8.00         7.85
  239.13        3337.25           6675           8.00         7.85
  239.16        3337.50           6679           1.00         2.00
  239.18        3337.75           6683           8.00         7.85
  239.21        3338.00           6686           4.00         2.00
  239.24        3338.25           6690           8.00         7.85
  239.26        3338.50           6694           8.00         7.85
  239.29        3338.75           6698           1.00         2.00
  239.32        3339.00           6701           0.00         2.00
  239.35        3339.25           6705           0.00         2.00
  239.37        3339.50           6709           8.00         7.85
  239.40        3339.75           6713           0.00         2.00
  239.43        3340.00           6716           6.00         2.00
  239.45        3340.25           6720           8.00         7.85
  239.48        3340.50           6724           8.00         7.85
  239.51        3340.75           6728           2.00         2.00
  239.54        3341.00           6731           5.00         2.00
  239.56        3341.25           6735           8.00         7.85
  239.59        3341.50           6739           8.00         7.85
  239.62        3341.75           6743           8.00         7.85
  239.64        3342.00           6746           8.00         7.85
  239.67        3342.25           6750           0.00         2.00
  239.70        3342.50           6754           8.00         7.85
  239.73        3342.75           6758           3.00         2.00
  239.75        3343.00           6761           8.00         7.85
  239.78        3343.25           6765           5.00         2.00
  239.81        3343.50           6769           5.00         2.00
  239.83        3343.75           6773           3.00         2.00
  239.86        3344.00           6776           8.00         7.85
  239.89        3344.25           6780           6.00         2.00
  239.92        3344.50           6784           4.00         2.00
  239.94        3344.75           6788           6.00         2.00
  239.97        3345.00           6791           8.00         7.85
  240.00        3345.25           6795           8.00         7.85
  240.02        3345.50           6799           8.00         7.85
  240.05        3345.75           6803           3.00         2.00
  240.08        3346.00           6806           2.00         2.00
  240.10        3346.25           6810           8.00         7.85
  240.13        3346.50           6814           8.00         7.85
  240.16        3346.75           6818           0.00         2.00
  240.19        3347.00           6821           5.00         2.00
  240.21        3347.25           6825           0.00         2.00
  240.24        3347.50           6829           0.00         2.00
  240.27        3347.75           6833           1.00         2.00
  240.29        3348.00           6836           5.00         2.00
  240.32        3348.25           6840           8.00         7.85
  240.35        3348.50           6844           0.00         2.00
  240.38        3348.75           6848           7.00         3.49
  240.40        3349.00           6851           8.00         7.85
  240.43        3349.25           6855           2.00         2.00
  240.46        3349.50           6859           6.00         2.00
  240.48        3349.75           6863           5.00         2.00
  240.51        3350.00           6867           0.00         2.00
  240.54        3350.25           6870           4.00         2.00
  240.57        3350.50           6874           8.00         7.85
  240.59        3350.75           6878           8.00         7.85
  240.62        3351.00           6882           6.00         2.00
HL scan finished at 04:01:15
end
