************************************************************
  HL Scan of (1) Internal mercury lamp
************************************************************
Integration time is 0.2294 seconds per sample
dh080317Tamanrasset 22.79-5.529 2.731107pr865
************************************************************
Dead Time -------------------------  2.8E-08 
Number of Cycles Used -------------  4 
Starting Wavelength (Angstroms) ---  3331 
Final Wavelength (Angstoms) -------  3351 
Wavelength Increment (Angstroms) --  .25 
Filter Wheel #1 Position ---------- (1) Ground quartz diffuser (ND=2.32)
Filter Wheel #2 Position ---------- (0) Clear Aperture



************************************************************
HL scan start time = 03:55:00
Dark Count =  4.2 


Time (GMT)  Wavelength (Ang)  Step Number  Raw Counts  Counts/Second

  235.50        3331.00           6581           8.00        16.56
  235.72        3331.25           6585           8.00        16.56
  235.75        3331.50           6589           8.00        16.56
  235.78        3331.75           6593           0.00         2.00
  235.80        3332.00           6596           8.00        16.56
  235.83        3332.25           6600           6.00         7.85
  235.86        3332.50           6604           3.00         2.00
  235.88        3332.75           6608           8.00        16.56
  235.91        3333.00           6611           8.00        16.56
  235.94        3333.25           6615           0.00         2.00
  235.97        3333.50           6619           0.00         2.00
  235.99        3333.75           6623           3.00         2.00
  236.02        3334.00           6626           8.00        16.56
  236.05        3334.25           6630           8.00        16.56
  236.07        3334.50           6634           1.00         2.00
  236.10        3334.75           6638           3.00         2.00
  236.13        3335.00           6641           0.00         2.00
  236.16        3335.25           6645           4.00         2.00
  236.18        3335.50           6649           8.00        16.56
  236.21        3335.75           6653           0.00         2.00
  236.24        3336.00           6656           5.00         3.49
  236.26        3336.25           6660           4.00         2.00
  236.29        3336.50           6664           8.00        16.56
  236.32        3336.75           6668           4.00         2.00
  236.35        3337.00           6671           3.00         2.00
  236.37        3337.25           6675           0.00         2.00
  236.40        3337.50           6679           5.00         3.49
  236.43        3337.75           6683           0.00         2.00
  236.46        3338.00           6686           0.00         2.00
  236.48        3338.25           6690           5.00         3.49
  236.51        3338.50           6694           4.00         2.00
  236.54        3338.75           6698           8.00        16.56
  236.56        3339.00           6701           7.00        12.21
  236.59        3339.25           6705           0.00         2.00
  236.62        3339.50           6709           1.00         2.00
  236.65        3339.75           6713           0.00         2.00
  236.67        3340.00           6716           5.00         3.49
  236.70        3340.25           6720           3.00         2.00
  236.73        3340.50           6724           5.00         3.49
  236.75        3340.75           6728           4.00         2.00
  236.78        3341.00           6731           0.00         2.00
  236.81        3341.25           6735           8.00        16.56
  236.84        3341.50           6739           8.00        16.56
  236.86        3341.75           6743           0.00         2.00
  236.89        3342.00           6746           5.00         3.49
  236.92        3342.25           6750           0.00         2.00
  236.94        3342.50           6754           7.00        12.21
  236.97        3342.75           6758           0.00         2.00
  237.00        3343.00           6761           8.00        16.56
  237.03        3343.25           6765           4.00         2.00
  237.05        3343.50           6769           2.00         2.00
  237.08        3343.75           6773           8.00        16.56
  237.11        3344.00           6776           5.00         3.49
  237.13        3344.25           6780           8.00        16.56
  237.16        3344.50           6784           0.00         2.00
  237.19        3344.75           6788           7.00        12.21
  237.22        3345.00           6791           0.00         2.00
  237.24        3345.25           6795           4.00         2.00
  237.27        3345.50           6799           8.00        16.56
  237.30        3345.75           6803           5.00         3.49
  237.32        3346.00           6806           8.00        16.56
  237.35        3346.25           6810           3.00         2.00
  237.38        3346.50           6814           0.00         2.00
  237.41        3346.75           6818           4.00         2.00
  237.43        3347.00           6821           0.00         2.00
  237.46        3347.25           6825           7.00        12.21
  237.49        3347.50           6829           8.00        16.56
  237.51        3347.75           6833           8.00        16.56
  237.54        3348.00           6836           0.00         2.00
  237.57        3348.25           6840           4.00         2.00
  237.60        3348.50           6844           8.00        16.56
  237.62        3348.75           6848           8.00        16.56
  237.65        3349.00           6851           0.00         2.00
  237.68        3349.25           6855           6.00         7.85
  237.70        3349.50           6859           0.00         2.00
  237.73        3349.75           6863           0.00         2.00
  237.76        3350.00           6867           0.00         2.00
  237.78        3350.25           6870           7.00        12.21
  237.81        3350.50           6874           8.00        16.56
  237.84        3350.75           6878           8.00        16.56
  237.87        3351.00           6882           2.00         2.00
HL scan finished at 03:58:29
end
