************************************************************
  HL Scan of (1) Internal mercury lamp
************************************************************
Integration time is 0.2294 seconds per sample
dh070317Tamanrasset 22.79-5.529 2.736205pr865
************************************************************
Dead Time -------------------------  2.8E-08 
Number of Cycles Used -------------  4 
Starting Wavelength (Angstroms) ---  3331 
Final Wavelength (Angstoms) -------  3351 
Wavelength Increment (Angstroms) --  .25 
Filter Wheel #1 Position ---------- (1) Ground quartz diffuser (ND=2.32)
Filter Wheel #2 Position ---------- (0) Clear Aperture



************************************************************
HL scan start time = 03:55:44
Dark Count =  4.9 


Time (GMT)  Wavelength (Ang)  Step Number  Raw Counts  Counts/Second

  236.25        3331.00           6581           0.00         2.00
  236.47        3331.25           6585           0.00         2.00
  236.49        3331.50           6589           3.00         2.00
  236.52        3331.75           6593           8.00        13.51
  236.55        3332.00           6596           4.00         2.00
  236.57        3332.25           6600           8.00        13.51
  236.60        3332.50           6604           8.00        13.51
  236.63        3332.75           6608           6.00         4.80
  236.66        3333.00           6611           0.00         2.00
  236.68        3333.25           6615           8.00        13.51
  236.71        3333.50           6619           0.00         2.00
  236.74        3333.75           6623           1.00         2.00
  236.76        3334.00           6626           2.00         2.00
  236.79        3334.25           6630           7.00         9.15
  236.82        3334.50           6634           8.00        13.51
  236.85        3334.75           6638           8.00        13.51
  236.87        3335.00           6641           5.00         2.00
  236.90        3335.25           6645           6.00         4.80
  236.93        3335.50           6649           5.00         2.00
  236.95        3335.75           6653           0.00         2.00
  236.98        3336.00           6656           8.00        13.51
  237.01        3336.25           6660           5.00         2.00
  237.04        3336.50           6664           4.00         2.00
  237.06        3336.75           6668           3.00         2.00
  237.09        3337.00           6671           0.00         2.00
  237.12        3337.25           6675           5.00         2.00
  237.14        3337.50           6679           8.00        13.51
  237.17        3337.75           6683           3.00         2.00
  237.20        3338.00           6686           0.00         2.00
  237.23        3338.25           6690           7.00         9.15
  237.25        3338.50           6694           0.00         2.00
  237.28        3338.75           6698           0.00         2.00
  237.31        3339.00           6701           0.00         2.00
  237.33        3339.25           6705           8.00        13.51
  237.36        3339.50           6709           1.00         2.00
  237.39        3339.75           6713           8.00        13.51
  237.41        3340.00           6716           0.00         2.00
  237.44        3340.25           6720           7.00         9.15
  237.47        3340.50           6724           2.00         2.00
  237.50        3340.75           6728           6.00         4.80
  237.52        3341.00           6731           5.00         2.00
  237.55        3341.25           6735           7.00         9.15
  237.58        3341.50           6739           8.00        13.51
  237.60        3341.75           6743           2.00         2.00
  237.63        3342.00           6746           1.00         2.00
  237.66        3342.25           6750           5.00         2.00
  237.69        3342.50           6754           5.00         2.00
  237.71        3342.75           6758           3.00         2.00
  237.74        3343.00           6761           8.00        13.51
  237.77        3343.25           6765           0.00         2.00
  237.79        3343.50           6769           8.00        13.51
  237.82        3343.75           6773           3.00         2.00
  237.85        3344.00           6776           7.00         9.15
  237.88        3344.25           6780           0.00         2.00
  237.90        3344.50           6784           0.00         2.00
  237.93        3344.75           6788           8.00        13.51
  237.96        3345.00           6791           4.00         2.00
  237.98        3345.25           6795           8.00        13.51
  238.01        3345.50           6799           2.00         2.00
  238.04        3345.75           6803           0.00         2.00
  238.06        3346.00           6806           6.00         4.80
  238.09        3346.25           6810           8.00        13.51
  238.12        3346.50           6814           1.00         2.00
  238.15        3346.75           6818           7.00         9.15
  238.17        3347.00           6821           5.00         2.00
  238.20        3347.25           6825           8.00        13.51
  238.23        3347.50           6829           2.00         2.00
  238.26        3347.75           6833           6.00         4.80
  238.28        3348.00           6836           8.00        13.51
  238.31        3348.25           6840           8.00        13.51
  238.34        3348.50           6844           0.00         2.00
  238.36        3348.75           6848           0.00         2.00
  238.39        3349.00           6851           3.00         2.00
  238.42        3349.25           6855           3.00         2.00
  238.44        3349.50           6859           2.00         2.00
  238.47        3349.75           6863           7.00         9.15
  238.50        3350.00           6867           8.00        13.51
  238.53        3350.25           6870           2.00         2.00
  238.55        3350.50           6874           6.00         4.80
  238.58        3350.75           6878           8.00        13.51
  238.61        3351.00           6882           0.00         2.00
HL scan finished at 03:59:14
end
