************************************************************
  HL Scan of (1) Internal mercury lamp
************************************************************
Integration time is 0.2294 seconds per sample
dh100317Tamanrasset 22.79-5.529 2.746401pr865
************************************************************
Dead Time -------------------------  2.8E-08 
Number of Cycles Used -------------  4 
Starting Wavelength (Angstroms) ---  3331 
Final Wavelength (Angstoms) -------  3351 
Wavelength Increment (Angstroms) --  .25 
Filter Wheel #1 Position ---------- (1) Ground quartz diffuser (ND=2.32)
Filter Wheel #2 Position ---------- (0) Clear Aperture



************************************************************
HL scan start time = 03:52:45
Dark Count =  3.9 


Time (GMT)  Wavelength (Ang)  Step Number  Raw Counts  Counts/Second

  233.25        3331.00           6581           8.00        17.87
  233.47        3331.25           6585           2.00         2.00
  233.50        3331.50           6589           8.00        17.87
  233.53        3331.75           6593           3.00         2.00
  233.55        3332.00           6596           8.00        17.87
  233.58        3332.25           6600           7.00        13.51
  233.61        3332.50           6604           5.00         4.80
  233.63        3332.75           6608           3.00         2.00
  233.66        3333.00           6611           3.00         2.00
  233.69        3333.25           6615           0.00         2.00
  233.72        3333.50           6619           1.00         2.00
  233.74        3333.75           6623           8.00        17.87
  233.77        3334.00           6626           8.00        17.87
  233.80        3334.25           6630           8.00        17.87
  233.82        3334.50           6634           0.00         2.00
  233.85        3334.75           6638           8.00        17.87
  233.88        3335.00           6641           8.00        17.87
  233.91        3335.25           6645           8.00        17.87
  233.93        3335.50           6649           0.00         2.00
  233.96        3335.75           6653           5.00         4.80
  233.99        3336.00           6656           8.00        17.87
  234.01        3336.25           6660           4.00         2.00
  234.04        3336.50           6664           4.00         2.00
  234.07        3336.75           6668           1.00         2.00
  234.10        3337.00           6671           8.00        17.87
  234.12        3337.25           6675           6.00         9.15
  234.15        3337.50           6679           0.00         2.00
  234.18        3337.75           6683           8.00        17.87
  234.20        3338.00           6686           0.00         2.00
  234.23        3338.25           6690           2.00         2.00
  234.26        3338.50           6694           8.00        17.87
  234.29        3338.75           6698           8.00        17.87
  234.31        3339.00           6701           5.00         4.80
  234.34        3339.25           6705           8.00        17.87
  234.37        3339.50           6709           7.00        13.51
  234.39        3339.75           6713           8.00        17.87
  234.42        3340.00           6716           8.00        17.87
  234.45        3340.25           6720           4.00         2.00
  234.47        3340.50           6724           6.00         9.15
  234.50        3340.75           6728           7.00        13.51
  234.53        3341.00           6731           4.00         2.00
  234.56        3341.25           6735           4.00         2.00
  234.58        3341.50           6739           0.00         2.00
  234.61        3341.75           6743           0.00         2.00
  234.64        3342.00           6746           8.00        17.87
  234.66        3342.25           6750           8.00        17.87
  234.69        3342.50           6754           0.00         2.00
  234.72        3342.75           6758           6.00         9.15
  234.75        3343.00           6761           5.00         4.80
  234.77        3343.25           6765           8.00        17.87
  234.80        3343.50           6769           8.00        17.87
  234.83        3343.75           6773           8.00        17.87
  234.86        3344.00           6776           0.00         2.00
  234.88        3344.25           6780           0.00         2.00
  234.91        3344.50           6784           0.00         2.00
  234.94        3344.75           6788           6.00         9.15
  234.96        3345.00           6791           0.00         2.00
  234.99        3345.25           6795           7.00        13.51
  235.02        3345.50           6799           7.00        13.51
  235.04        3345.75           6803           0.00         2.00
  235.07        3346.00           6806           4.00         2.00
  235.10        3346.25           6810           3.00         2.00
  235.13        3346.50           6814           3.00         2.00
  235.15        3346.75           6818           8.00        17.87
  235.18        3347.00           6821           0.00         2.00
  235.21        3347.25           6825           0.00         2.00
  235.23        3347.50           6829           8.00        17.87
  235.26        3347.75           6833           1.00         2.00
  235.29        3348.00           6836           0.00         2.00
  235.32        3348.25           6840           0.00         2.00
  235.34        3348.50           6844           4.00         2.00
  235.37        3348.75           6848           8.00        17.87
  235.40        3349.00           6851           8.00        17.87
  235.42        3349.25           6855           3.00         2.00
  235.45        3349.50           6859           8.00        17.87
  235.48        3349.75           6863           3.00         2.00
  235.51        3350.00           6867           0.00         2.00
  235.53        3350.25           6870           6.00         9.15
  235.56        3350.50           6874           8.00        17.87
  235.59        3350.75           6878           3.00         2.00
  235.61        3351.00           6882           0.00         2.00
HL scan finished at 03:56:14
end
