************************************************************
  HL Scan of (1) Internal mercury lamp
************************************************************
Integration time is 0.2294 seconds per sample
dh010317Tamanrasset 22.79-5.529 2.700517pr865
************************************************************
Dead Time -------------------------  2.8E-08 
Number of Cycles Used -------------  4 
Starting Wavelength (Angstroms) ---  3331 
Final Wavelength (Angstoms) -------  3351 
Wavelength Increment (Angstroms) --  .25 
Filter Wheel #1 Position ---------- (1) Ground quartz diffuser (ND=2.32)
Filter Wheel #2 Position ---------- (0) Clear Aperture



************************************************************
HL scan start time = 04:00:44
Dark Count =  6.5 


Time (GMT)  Wavelength (Ang)  Step Number  Raw Counts  Counts/Second

  241.24        3331.00           6581           8.00         6.54
  241.45        3331.25           6585           0.00         2.00
  241.48        3331.50           6589           2.00         2.00
  241.51        3331.75           6593           8.00         6.54
  241.54        3332.00           6596           0.00         2.00
  241.56        3332.25           6600           0.00         2.00
  241.59        3332.50           6604           8.00         6.54
  241.62        3332.75           6608           0.00         2.00
  241.64        3333.00           6611           8.00         6.54
  241.67        3333.25           6615           0.00         2.00
  241.70        3333.50           6619           8.00         6.54
  241.73        3333.75           6623           5.00         2.00
  241.75        3334.00           6626           0.00         2.00
  241.78        3334.25           6630           0.00         2.00
  241.81        3334.50           6634           8.00         6.54
  241.83        3334.75           6638           6.00         2.00
  241.86        3335.00           6641           8.00         6.54
  241.89        3335.25           6645           4.00         2.00
  241.92        3335.50           6649           0.00         2.00
  241.94        3335.75           6653           0.00         2.00
  241.97        3336.00           6656           5.00         2.00
  242.00        3336.25           6660           5.00         2.00
  242.02        3336.50           6664           8.00         6.54
  242.05        3336.75           6668           8.00         6.54
  242.08        3337.00           6671           4.00         2.00
  242.11        3337.25           6675           0.00         2.00
  242.13        3337.50           6679           0.00         2.00
  242.16        3337.75           6683           8.00         6.54
  242.19        3338.00           6686           1.00         2.00
  242.21        3338.25           6690           8.00         6.54
  242.24        3338.50           6694           0.00         2.00
  242.27        3338.75           6698           0.00         2.00
  242.30        3339.00           6701           0.00         2.00
  242.32        3339.25           6705           5.00         2.00
  242.35        3339.50           6709           3.00         2.00
  242.38        3339.75           6713           8.00         6.54
  242.40        3340.00           6716           8.00         6.54
  242.43        3340.25           6720           4.00         2.00
  242.46        3340.50           6724           0.00         2.00
  242.49        3340.75           6728           8.00         6.54
  242.51        3341.00           6731           8.00         6.54
  242.54        3341.25           6735           6.00         2.00
  242.57        3341.50           6739           8.00         6.54
  242.59        3341.75           6743           8.00         6.54
  242.62        3342.00           6746           3.00         2.00
  242.65        3342.25           6750           5.00         2.00
  242.67        3342.50           6754           5.00         2.00
  242.70        3342.75           6758           0.00         2.00
  242.73        3343.00           6761           2.00         2.00
  242.76        3343.25           6765           8.00         6.54
  242.78        3343.50           6769           8.00         6.54
  242.81        3343.75           6773           2.00         2.00
  242.84        3344.00           6776           0.00         2.00
  242.86        3344.25           6780           0.00         2.00
  242.89        3344.50           6784           0.00         2.00
  242.92        3344.75           6788           2.00         2.00
  242.95        3345.00           6791           8.00         6.54
  242.97        3345.25           6795           8.00         6.54
  243.00        3345.50           6799           7.00         2.18
  243.03        3345.75           6803           4.00         2.00
  243.05        3346.00           6806           8.00         6.54
  243.08        3346.25           6810           3.00         2.00
  243.11        3346.50           6814           3.00         2.00
  243.14        3346.75           6818           8.00         6.54
  243.16        3347.00           6821           0.00         2.00
  243.19        3347.25           6825           4.00         2.00
  243.22        3347.50           6829           4.00         2.00
  243.24        3347.75           6833           8.00         6.54
  243.27        3348.00           6836           8.00         6.54
  243.30        3348.25           6840           7.00         2.18
  243.32        3348.50           6844           0.00         2.00
  243.35        3348.75           6848           0.00         2.00
  243.38        3349.00           6851           8.00         6.54
  243.41        3349.25           6855           1.00         2.00
  243.43        3349.50           6859           6.00         2.00
  243.46        3349.75           6863           8.00         6.54
  243.49        3350.00           6867           0.00         2.00
  243.52        3350.25           6870           1.00         2.00
  243.54        3350.50           6874           2.00         2.00
  243.57        3350.75           6878           5.00         2.00
  243.60        3351.00           6882           8.00         6.54
HL scan finished at 04:04:13
end
