************************************************************
  HL Scan of (1) Internal mercury lamp
************************************************************
Integration time is 0.2294 seconds per sample
dh040317Tamanrasset 22.79-5.529 2.710714pr865
************************************************************
Dead Time -------------------------  2.8E-08 
Number of Cycles Used -------------  4 
Starting Wavelength (Angstroms) ---  3331 
Final Wavelength (Angstoms) -------  3351 
Wavelength Increment (Angstroms) --  .25 
Filter Wheel #1 Position ---------- (1) Ground quartz diffuser (ND=2.32)
Filter Wheel #2 Position ---------- (0) Clear Aperture



************************************************************
HL scan start time = 03:58:43
Dark Count =  5.9 


Time (GMT)  Wavelength (Ang)  Step Number  Raw Counts  Counts/Second

  239.23        3331.00           6581           4.00         2.00
  239.45        3331.25           6585           8.00         9.15
  239.47        3331.50           6589           0.00         2.00
  239.50        3331.75           6593           0.00         2.00
  239.53        3332.00           6596           0.00         2.00
  239.55        3332.25           6600           0.00         2.00
  239.58        3332.50           6604           8.00         9.15
  239.61        3332.75           6608           8.00         9.15
  239.63        3333.00           6611           4.00         2.00
  239.66        3333.25           6615           3.00         2.00
  239.69        3333.50           6619           8.00         9.15
  239.72        3333.75           6623           8.00         9.15
  239.74        3334.00           6626           2.00         2.00
  239.77        3334.25           6630           0.00         2.00
  239.80        3334.50           6634           5.00         2.00
  239.82        3334.75           6638           0.00         2.00
  239.85        3335.00           6641           0.00         2.00
  239.88        3335.25           6645           5.00         2.00
  239.91        3335.50           6649           8.00         9.15
  239.93        3335.75           6653           8.00         9.15
  239.96        3336.00           6656           8.00         9.15
  239.99        3336.25           6660           0.00         2.00
  240.01        3336.50           6664           6.00         2.00
  240.04        3336.75           6668           8.00         9.15
  240.07        3337.00           6671           4.00         2.00
  240.10        3337.25           6675           0.00         2.00
  240.12        3337.50           6679           4.00         2.00
  240.15        3337.75           6683           0.00         2.00
  240.18        3338.00           6686           8.00         9.15
  240.20        3338.25           6690           2.00         2.00
  240.23        3338.50           6694           0.00         2.00
  240.26        3338.75           6698           0.00         2.00
  240.28        3339.00           6701           7.00         4.80
  240.31        3339.25           6705           8.00         9.15
  240.34        3339.50           6709           0.00         2.00
  240.37        3339.75           6713           1.00         2.00
  240.39        3340.00           6716           8.00         9.15
  240.42        3340.25           6720           7.00         4.80
  240.45        3340.50           6724           5.00         2.00
  240.47        3340.75           6728           0.00         2.00
  240.50        3341.00           6731           3.00         2.00
  240.53        3341.25           6735           8.00         9.15
  240.56        3341.50           6739           0.00         2.00
  240.58        3341.75           6743           8.00         9.15
  240.61        3342.00           6746           8.00         9.15
  240.64        3342.25           6750           2.00         2.00
  240.66        3342.50           6754           7.00         4.80
  240.69        3342.75           6758           6.00         2.00
  240.72        3343.00           6761           8.00         9.15
  240.75        3343.25           6765           4.00         2.00
  240.77        3343.50           6769           3.00         2.00
  240.80        3343.75           6773           0.00         2.00
  240.83        3344.00           6776           3.00         2.00
  240.85        3344.25           6780           8.00         9.15
  240.88        3344.50           6784           8.00         9.15
  240.91        3344.75           6788           0.00         2.00
  240.94        3345.00           6791           0.00         2.00
  240.96        3345.25           6795           8.00         9.15
  240.99        3345.50           6799           5.00         2.00
  241.02        3345.75           6803           0.00         2.00
  241.04        3346.00           6806           8.00         9.15
  241.07        3346.25           6810           4.00         2.00
  241.10        3346.50           6814           4.00         2.00
  241.12        3346.75           6818           0.00         2.00
  241.15        3347.00           6821           0.00         2.00
  241.18        3347.25           6825           8.00         9.15
  241.21        3347.50           6829           2.00         2.00
  241.23        3347.75           6833           2.00         2.00
  241.26        3348.00           6836           0.00         2.00
  241.29        3348.25           6840           0.00         2.00
  241.31        3348.50           6844           0.00         2.00
  241.34        3348.75           6848           8.00         9.15
  241.37        3349.00           6851           0.00         2.00
  241.40        3349.25           6855           0.00         2.00
  241.42        3349.50           6859           8.00         9.15
  241.45        3349.75           6863           6.00         2.00
  241.48        3350.00           6867           0.00         2.00
  241.50        3350.25           6870           8.00         9.15
  241.53        3350.50           6874           8.00         9.15
  241.56        3350.75           6878           0.00         2.00
  241.59        3351.00           6882           6.00         2.00
HL scan finished at 04:02:13
end
