************************************************************
  HL Scan of (1) Internal mercury lamp
************************************************************
Integration time is 0.2294 seconds per sample
dh090317Tamanrasset 22.79-5.529 2.761697pr865
************************************************************
Dead Time -------------------------  2.8E-08 
Number of Cycles Used -------------  4 
Starting Wavelength (Angstroms) ---  3331 
Final Wavelength (Angstoms) -------  3351 
Wavelength Increment (Angstroms) --  .25 
Filter Wheel #1 Position ---------- (1) Ground quartz diffuser (ND=2.32)
Filter Wheel #2 Position ---------- (0) Clear Aperture



************************************************************
HL scan start time = 03:53:44
Dark Count =  4.7 


Time (GMT)  Wavelength (Ang)  Step Number  Raw Counts  Counts/Second

  234.24        3331.00           6581           1.00         2.00
  234.46        3331.25           6585           2.00         2.00
  234.49        3331.50           6589           0.00         2.00
  234.51        3331.75           6593           8.00        14.39
  234.54        3332.00           6596           8.00        14.39
  234.57        3332.25           6600           2.00         2.00
  234.60        3332.50           6604           4.00         2.00
  234.62        3332.75           6608           0.00         2.00
  234.65        3333.00           6611           5.00         2.00
  234.68        3333.25           6615           3.00         2.00
  234.70        3333.50           6619           3.00         2.00
  234.73        3333.75           6623           0.00         2.00
  234.76        3334.00           6626           0.00         2.00
  234.79        3334.25           6630           8.00        14.39
  234.81        3334.50           6634           3.00         2.00
  234.84        3334.75           6638           0.00         2.00
  234.87        3335.00           6641           8.00        14.39
  234.89        3335.25           6645           8.00        14.39
  234.92        3335.50           6649           1.00         2.00
  234.95        3335.75           6653           5.00         2.00
  234.98        3336.00           6656           0.00         2.00
  235.00        3336.25           6660           5.00         2.00
  235.03        3336.50           6664           8.00        14.39
  235.06        3336.75           6668           2.00         2.00
  235.08        3337.00           6671           0.00         2.00
  235.11        3337.25           6675           8.00        14.39
  235.14        3337.50           6679           7.00        10.03
  235.17        3337.75           6683           1.00         2.00
  235.19        3338.00           6686           6.00         5.67
  235.22        3338.25           6690           0.00         2.00
  235.25        3338.50           6694           5.00         2.00
  235.27        3338.75           6698           0.00         2.00
  235.30        3339.00           6701           8.00        14.39
  235.33        3339.25           6705           0.00         2.00
  235.36        3339.50           6709           8.00        14.39
  235.38        3339.75           6713           2.00         2.00
  235.41        3340.00           6716           3.00         2.00
  235.44        3340.25           6720           2.00         2.00
  235.46        3340.50           6724           0.00         2.00
  235.49        3340.75           6728           3.00         2.00
  235.52        3341.00           6731           8.00        14.39
  235.55        3341.25           6735           5.00         2.00
  235.57        3341.50           6739           3.00         2.00
  235.60        3341.75           6743           4.00         2.00
  235.63        3342.00           6746           0.00         2.00
  235.65        3342.25           6750           8.00        14.39
  235.68        3342.50           6754           8.00        14.39
  235.71        3342.75           6758           0.00         2.00
  235.74        3343.00           6761           5.00         2.00
  235.76        3343.25           6765           8.00        14.39
  235.79        3343.50           6769           0.00         2.00
  235.82        3343.75           6773           2.00         2.00
  235.84        3344.00           6776           8.00        14.39
  235.87        3344.25           6780           3.00         2.00
  235.90        3344.50           6784           0.00         2.00
  235.92        3344.75           6788           1.00         2.00
  235.95        3345.00           6791           8.00        14.39
  235.98        3345.25           6795           8.00        14.39
  236.01        3345.50           6799           5.00         2.00
  236.03        3345.75           6803           4.00         2.00
  236.06        3346.00           6806           0.00         2.00
  236.09        3346.25           6810           8.00        14.39
  236.11        3346.50           6814           8.00        14.39
  236.14        3346.75           6818           8.00        14.39
  236.17        3347.00           6821           6.00         5.67
  236.20        3347.25           6825           8.00        14.39
  236.22        3347.50           6829           2.00         2.00
  236.25        3347.75           6833           8.00        14.39
  236.28        3348.00           6836           0.00         2.00
  236.30        3348.25           6840           2.00         2.00
  236.33        3348.50           6844           8.00        14.39
  236.36        3348.75           6848           5.00         2.00
  236.39        3349.00           6851           8.00        14.39
  236.41        3349.25           6855           8.00        14.39
  236.44        3349.50           6859           8.00        14.39
  236.47        3349.75           6863           3.00         2.00
  236.49        3350.00           6867           4.00         2.00
  236.52        3350.25           6870           0.00         2.00
  236.55        3350.50           6874           8.00        14.39
  236.57        3350.75           6878           8.00        14.39
  236.60        3351.00           6882           8.00        14.39
HL scan finished at 03:57:13
end
