************************************************************
  HL Scan of (1) Internal mercury lamp
************************************************************
Integration time is 0.2294 seconds per sample
dh020317Tamanrasset 22.79-5.529 2.700517pr865
************************************************************
Dead Time -------------------------  2.8E-08 
Number of Cycles Used -------------  4 
Starting Wavelength (Angstroms) ---  3331 
Final Wavelength (Angstoms) -------  3351 
Wavelength Increment (Angstroms) --  .25 
Filter Wheel #1 Position ---------- (1) Ground quartz diffuser (ND=2.32)
Filter Wheel #2 Position ---------- (0) Clear Aperture



************************************************************
HL scan start time = 03:59:43
Dark Count =  3.6 


Time (GMT)  Wavelength (Ang)  Step Number  Raw Counts  Counts/Second

  240.23        3331.00           6581           8.00        19.18
  240.45        3331.25           6585           1.00         2.00
  240.48        3331.50           6589           0.00         2.00
  240.51        3331.75           6593           6.00        10.46
  240.53        3332.00           6596           3.00         2.00
  240.56        3332.25           6600           4.00         2.00
  240.59        3332.50           6604           8.00        19.18
  240.62        3332.75           6608           0.00         2.00
  240.64        3333.00           6611           0.00         2.00
  240.67        3333.25           6615           7.00        14.82
  240.70        3333.50           6619           0.00         2.00
  240.72        3333.75           6623           8.00        19.18
  240.75        3334.00           6626           8.00        19.18
  240.78        3334.25           6630           2.00         2.00
  240.81        3334.50           6634           8.00        19.18
  240.83        3334.75           6638           5.00         6.10
  240.86        3335.00           6641           0.00         2.00
  240.89        3335.25           6645           7.00        14.82
  240.91        3335.50           6649           8.00        19.18
  240.94        3335.75           6653           8.00        19.18
  240.97        3336.00           6656           2.00         2.00
  241.00        3336.25           6660           8.00        19.18
  241.02        3336.50           6664           8.00        19.18
  241.05        3336.75           6668           0.00         2.00
  241.08        3337.00           6671           7.00        14.82
  241.10        3337.25           6675           0.00         2.00
  241.13        3337.50           6679           3.00         2.00
  241.16        3337.75           6683           1.00         2.00
  241.19        3338.00           6686           8.00        19.18
  241.21        3338.25           6690           3.00         2.00
  241.24        3338.50           6694           0.00         2.00
  241.27        3338.75           6698           4.00         2.00
  241.29        3339.00           6701           8.00        19.18
  241.32        3339.25           6705           8.00        19.18
  241.35        3339.50           6709           0.00         2.00
  241.37        3339.75           6713           5.00         6.10
  241.40        3340.00           6716           3.00         2.00
  241.43        3340.25           6720           1.00         2.00
  241.46        3340.50           6724           8.00        19.18
  241.48        3340.75           6728           0.00         2.00
  241.51        3341.00           6731           7.00        14.82
  241.54        3341.25           6735           4.00         2.00
  241.56        3341.50           6739           0.00         2.00
  241.59        3341.75           6743           8.00        19.18
  241.62        3342.00           6746           3.00         2.00
  241.65        3342.25           6750           3.00         2.00
  241.67        3342.50           6754           3.00         2.00
  241.70        3342.75           6758           3.00         2.00
  241.73        3343.00           6761           5.00         6.10
  241.75        3343.25           6765           0.00         2.00
  241.78        3343.50           6769           1.00         2.00
  241.81        3343.75           6773           8.00        19.18
  241.84        3344.00           6776           3.00         2.00
  241.86        3344.25           6780           8.00        19.18
  241.89        3344.50           6784           1.00         2.00
  241.92        3344.75           6788           5.00         6.10
  241.94        3345.00           6791           0.00         2.00
  241.97        3345.25           6795           4.00         2.00
  242.00        3345.50           6799           8.00        19.18
  242.03        3345.75           6803           7.00        14.82
  242.05        3346.00           6806           0.00         2.00
  242.08        3346.25           6810           8.00        19.18
  242.11        3346.50           6814           2.00         2.00
  242.13        3346.75           6818           8.00        19.18
  242.16        3347.00           6821           8.00        19.18
  242.19        3347.25           6825           0.00         2.00
  242.21        3347.50           6829           4.00         2.00
  242.24        3347.75           6833           3.00         2.00
  242.27        3348.00           6836           4.00         2.00
  242.30        3348.25           6840           6.00        10.46
  242.32        3348.50           6844           0.00         2.00
  242.35        3348.75           6848           8.00        19.18
  242.38        3349.00           6851           0.00         2.00
  242.40        3349.25           6855           7.00        14.82
  242.43        3349.50           6859           3.00         2.00
  242.46        3349.75           6863           8.00        19.18
  242.49        3350.00           6867           8.00        19.18
  242.51        3350.25           6870           0.00         2.00
  242.54        3350.50           6874           8.00        19.18
  242.57        3350.75           6878           0.00         2.00
  242.59        3351.00           6882           6.00        10.46
HL scan finished at 04:03:13
end
