************************************************************
  HL Scan of (1) Internal mercury lamp
************************************************************
Integration time is 0.2294 seconds per sample
dh060317Tamanrasset 22.79-5.529 2.741303pr865
************************************************************
Dead Time -------------------------  2.8E-08 
Number of Cycles Used -------------  4 
Starting Wavelength (Angstroms) ---  3331 
Final Wavelength (Angstoms) -------  3351 
Wavelength Increment (Angstroms) --  .25 
Filter Wheel #1 Position ---------- (1) Ground quartz diffuser (ND=2.32)
Filter Wheel #2 Position ---------- (0) Clear Aperture



************************************************************
HL scan start time = 03:56:43
Dark Count =  4.8 


Time (GMT)  Wavelength (Ang)  Step Number  Raw Counts  Counts/Second

  237.23        3331.00           6581           0.00         2.00
  237.45        3331.25           6585           6.00         5.23
  237.47        3331.50           6589           8.00        13.95
  237.50        3331.75           6593           0.00         2.00
  237.53        3332.00           6596           0.00         2.00
  237.56        3332.25           6600           3.00         2.00
  237.58        3332.50           6604           0.00         2.00
  237.61        3332.75           6608           0.00         2.00
  237.64        3333.00           6611           6.00         5.23
  237.66        3333.25           6615           7.00         9.59
  237.69        3333.50           6619           8.00        13.95
  237.72        3333.75           6623           6.00         5.23
  237.74        3334.00           6626           4.00         2.00
  237.77        3334.25           6630           8.00        13.95
  237.80        3334.50           6634           8.00        13.95
  237.83        3334.75           6638           0.00         2.00
  237.85        3335.00           6641           8.00        13.95
  237.88        3335.25           6645           5.00         2.00
  237.91        3335.50           6649           0.00         2.00
  237.93        3335.75           6653           8.00        13.95
  237.96        3336.00           6656           5.00         2.00
  237.99        3336.25           6660           4.00         2.00
  238.02        3336.50           6664           8.00        13.95
  238.04        3336.75           6668           8.00        13.95
  238.07        3337.00           6671           3.00         2.00
  238.10        3337.25           6675           0.00         2.00
  238.12        3337.50           6679           7.00         9.59
  238.15        3337.75           6683           8.00        13.95
  238.18        3338.00           6686           4.00         2.00
  238.21        3338.25           6690           8.00        13.95
  238.23        3338.50           6694           0.00         2.00
  238.26        3338.75           6698           2.00         2.00
  238.29        3339.00           6701           7.00         9.59
  238.32        3339.25           6705           8.00        13.95
  238.34        3339.50           6709           2.00         2.00
  238.37        3339.75           6713           0.00         2.00
  238.40        3340.00           6716           5.00         2.00
  238.42        3340.25           6720           8.00        13.95
  238.45        3340.50           6724           2.00         2.00
  238.48        3340.75           6728           4.00         2.00
  238.50        3341.00           6731           8.00        13.95
  238.53        3341.25           6735           2.00         2.00
  238.56        3341.50           6739           8.00        13.95
  238.59        3341.75           6743           3.00         2.00
  238.61        3342.00           6746           0.00         2.00
  238.64        3342.25           6750           8.00        13.95
  238.67        3342.50           6754           0.00         2.00
  238.69        3342.75           6758           8.00        13.95
  238.72        3343.00           6761           8.00        13.95
  238.75        3343.25           6765           0.00         2.00
  238.78        3343.50           6769           8.00        13.95
  238.80        3343.75           6773           7.00         9.59
  238.83        3344.00           6776           5.00         2.00
  238.86        3344.25           6780           8.00        13.95
  238.88        3344.50           6784           8.00        13.95
  238.91        3344.75           6788           7.00         9.59
  238.94        3345.00           6791           5.00         2.00
  238.97        3345.25           6795           7.00         9.59
  238.99        3345.50           6799           8.00        13.95
  239.02        3345.75           6803           5.00         2.00
  239.05        3346.00           6806           8.00        13.95
  239.07        3346.25           6810           0.00         2.00
  239.10        3346.50           6814           7.00         9.59
  239.13        3346.75           6818           0.00         2.00
  239.16        3347.00           6821           0.00         2.00
  239.18        3347.25           6825           2.00         2.00
  239.21        3347.50           6829           7.00         9.59
  239.24        3347.75           6833           8.00        13.95
  239.26        3348.00           6836           3.00         2.00
  239.29        3348.25           6840           1.00         2.00
  239.32        3348.50           6844           0.00         2.00
  239.35        3348.75           6848           7.00         9.59
  239.37        3349.00           6851           4.00         2.00
  239.40        3349.25           6855           8.00        13.95
  239.43        3349.50           6859           7.00         9.59
  239.45        3349.75           6863           4.00         2.00
  239.48        3350.00           6867           8.00        13.95
  239.51        3350.25           6870           6.00         5.23
  239.54        3350.50           6874           0.00         2.00
  239.56        3350.75           6878           5.00         2.00
  239.59        3351.00           6882           0.00         2.00
HL scan finished at 04:00:13
end
