************************************************************
  HL Scan of (1) Internal mercury lamp
************************************************************
Integration time is 0.2294 seconds per sample
dh190317Tamanrasset 22.79-5.529 2.81268pr865
************************************************************
Dead Time -------------------------  2.8E-08 
Number of Cycles Used -------------  4 
Starting Wavelength (Angstroms) ---  3331 
Final Wavelength (Angstoms) -------  3351 
Wavelength Increment (Angstroms) --  .25 
Filter Wheel #1 Position ---------- (1) Ground quartz diffuser (ND=2.32)
Filter Wheel #2 Position ---------- (0) Clear Aperture



************************************************************
HL scan start time = 03:44:43
Dark Count =  4.1 


Time (GMT)  Wavelength (Ang)  Step Number  Raw Counts  Counts/Second

  225.22        3331.00           6581           8.00        17.00
  225.44        3331.25           6585           8.00        17.00
  225.47        3331.50           6589           2.00         2.00
  225.50        3331.75           6593           2.00         2.00
  225.52        3332.00           6596           0.00         2.00
  225.55        3332.25           6600           8.00        17.00
  225.58        3332.50           6604           4.00         2.00
  225.61        3332.75           6608           6.00         8.28
  225.63        3333.00           6611           6.00         8.28
  225.66        3333.25           6615           3.00         2.00
  225.69        3333.50           6619           2.00         2.00
  225.71        3333.75           6623           1.00         2.00
  225.74        3334.00           6626           7.00        12.64
  225.77        3334.25           6630           8.00        17.00
  225.80        3334.50           6634           2.00         2.00
  225.82        3334.75           6638           5.00         3.92
  225.85        3335.00           6641           8.00        17.00
  225.88        3335.25           6645           8.00        17.00
  225.90        3335.50           6649           8.00        17.00
  225.93        3335.75           6653           1.00         2.00
  225.96        3336.00           6656           2.00         2.00
  225.98        3336.25           6660           4.00         2.00
  226.01        3336.50           6664           1.00         2.00
  226.04        3336.75           6668           8.00        17.00
  226.07        3337.00           6671           6.00         8.28
  226.09        3337.25           6675           6.00         8.28
  226.12        3337.50           6679           0.00         2.00
  226.15        3337.75           6683           0.00         2.00
  226.18        3338.00           6686           8.00        17.00
  226.20        3338.25           6690           3.00         2.00
  226.23        3338.50           6694           4.00         2.00
  226.26        3338.75           6698           8.00        17.00
  226.28        3339.00           6701           0.00         2.00
  226.31        3339.25           6705           8.00        17.00
  226.34        3339.50           6709           6.00         8.28
  226.36        3339.75           6713           4.00         2.00
  226.39        3340.00           6716           6.00         8.28
  226.42        3340.25           6720           1.00         2.00
  226.45        3340.50           6724           3.00         2.00
  226.47        3340.75           6728           6.00         8.28
  226.50        3341.00           6731           8.00        17.00
  226.53        3341.25           6735           8.00        17.00
  226.55        3341.50           6739           8.00        17.00
  226.58        3341.75           6743           8.00        17.00
  226.61        3342.00           6746           5.00         3.92
  226.64        3342.25           6750           4.00         2.00
  226.66        3342.50           6754           5.00         3.92
  226.69        3342.75           6758           6.00         8.28
  226.72        3343.00           6761           8.00        17.00
  226.74        3343.25           6765           7.00        12.64
  226.77        3343.50           6769           4.00         2.00
  226.80        3343.75           6773           6.00         8.28
  226.83        3344.00           6776           4.00         2.00
  226.85        3344.25           6780           7.00        12.64
  226.88        3344.50           6784           7.00        12.64
  226.91        3344.75           6788           4.00         2.00
  226.93        3345.00           6791           0.00         2.00
  226.96        3345.25           6795           8.00        17.00
  226.99        3345.50           6799           0.00         2.00
  227.02        3345.75           6803           6.00         8.28
  227.04        3346.00           6806           8.00        17.00
  227.07        3346.25           6810           4.00         2.00
  227.10        3346.50           6814           3.00         2.00
  227.12        3346.75           6818           6.00         8.28
  227.15        3347.00           6821           5.00         3.92
  227.18        3347.25           6825           4.00         2.00
  227.21        3347.50           6829           0.00         2.00
  227.23        3347.75           6833           1.00         2.00
  227.26        3348.00           6836           8.00        17.00
  227.29        3348.25           6840           7.00        12.64
  227.31        3348.50           6844           0.00         2.00
  227.34        3348.75           6848           2.00         2.00
  227.37        3349.00           6851           8.00        17.00
  227.40        3349.25           6855           2.00         2.00
  227.42        3349.50           6859           3.00         2.00
  227.45        3349.75           6863           0.00         2.00
  227.48        3350.00           6867           7.00        12.64
  227.50        3350.25           6870           5.00         3.92
  227.53        3350.50           6874           3.00         2.00
  227.56        3350.75           6878           0.00         2.00
  227.59        3351.00           6882           0.00         2.00
HL scan finished at 03:48:13
end
