************************************************************
  HL Scan of (1) Internal mercury lamp
************************************************************
Integration time is 0.2294 seconds per sample
dh200317Tamanrasset 22.79-5.529 2.945236pr865
************************************************************
Dead Time -------------------------  2.8E-08 
Number of Cycles Used -------------  4 
Starting Wavelength (Angstroms) ---  3331 
Final Wavelength (Angstoms) -------  3351 
Wavelength Increment (Angstroms) --  .25 
Filter Wheel #1 Position ---------- (1) Ground quartz diffuser (ND=2.32)
Filter Wheel #2 Position ---------- (0) Clear Aperture



************************************************************
HL scan start time = 03:43:56
Dark Count =  5.1 


Time (GMT)  Wavelength (Ang)  Step Number  Raw Counts  Counts/Second

  224.45        3331.00           6581           3.00         2.00
  224.66        3331.25           6585           0.00         2.00
  224.69        3331.50           6589           4.00         2.00
  224.72        3331.75           6593           3.00         2.00
  224.75        3332.00           6596           8.00        12.64
  224.77        3332.25           6600           1.00         2.00
  224.80        3332.50           6604           8.00        12.64
  224.83        3332.75           6608           4.00         2.00
  224.85        3333.00           6611           3.00         2.00
  224.88        3333.25           6615           6.00         3.92
  224.91        3333.50           6619           6.00         3.92
  224.94        3333.75           6623           8.00        12.64
  224.96        3334.00           6626           2.00         2.00
  224.99        3334.25           6630           3.00         2.00
  225.02        3334.50           6634           2.00         2.00
  225.04        3334.75           6638           0.00         2.00
  225.07        3335.00           6641           3.00         2.00
  225.10        3335.25           6645           3.00         2.00
  225.13        3335.50           6649           8.00        12.64
  225.15        3335.75           6653           2.00         2.00
  225.18        3336.00           6656           5.00         2.00
  225.21        3336.25           6660           7.00         8.28
  225.23        3336.50           6664           5.00         2.00
  225.26        3336.75           6668           0.00         2.00
  225.29        3337.00           6671           4.00         2.00
  225.32        3337.25           6675           0.00         2.00
  225.34        3337.50           6679           5.00         2.00
  225.37        3337.75           6683           4.00         2.00
  225.40        3338.00           6686           5.00         2.00
  225.42        3338.25           6690           7.00         8.28
  225.45        3338.50           6694           4.00         2.00
  225.48        3338.75           6698           5.00         2.00
  225.51        3339.00           6701           5.00         2.00
  225.53        3339.25           6705           0.00         2.00
  225.56        3339.50           6709           5.00         2.00
  225.59        3339.75           6713           3.00         2.00
  225.61        3340.00           6716           8.00        12.64
  225.64        3340.25           6720           8.00        12.64
  225.67        3340.50           6724           5.00         2.00
  225.70        3340.75           6728           0.00         2.00
  225.72        3341.00           6731           0.00         2.00
  225.75        3341.25           6735           3.00         2.00
  225.78        3341.50           6739           4.00         2.00
  225.80        3341.75           6743           4.00         2.00
  225.83        3342.00           6746           5.00         2.00
  225.86        3342.25           6750           1.00         2.00
  225.89        3342.50           6754           6.00         3.92
  225.91        3342.75           6758           0.00         2.00
  225.94        3343.00           6761           1.00         2.00
  225.97        3343.25           6765           5.00         2.00
  225.99        3343.50           6769           6.00         3.92
  226.02        3343.75           6773           8.00        12.64
  226.05        3344.00           6776           7.00         8.28
  226.08        3344.25           6780           2.00         2.00
  226.10        3344.50           6784           7.00         8.28
  226.13        3344.75           6788           7.00         8.28
  226.16        3345.00           6791           3.00         2.00
  226.18        3345.25           6795           0.00         2.00
  226.21        3345.50           6799           8.00        12.64
  226.24        3345.75           6803           8.00        12.64
  226.27        3346.00           6806           6.00         3.92
  226.29        3346.25           6810           6.00         3.92
  226.32        3346.50           6814           5.00         2.00
  226.35        3346.75           6818           0.00         2.00
  226.37        3347.00           6821           5.00         2.00
  226.40        3347.25           6825           5.00         2.00
  226.43        3347.50           6829           3.00         2.00
  226.46        3347.75           6833           1.00         2.00
  226.48        3348.00           6836           5.00         2.00
  226.51        3348.25           6840           2.00         2.00
  226.54        3348.50           6844           3.00         2.00
  226.56        3348.75           6848           3.00         2.00
  226.59        3349.00           6851           5.00         2.00
  226.62        3349.25           6855           7.00         8.28
  226.64        3349.50           6859          10.00        21.36
  226.67        3349.75           6863           4.00         2.00
  226.70        3350.00           6867           5.00         2.00
  226.73        3350.25           6870           7.00         8.28
  226.75        3350.50           6874           6.00         3.92
  226.78        3350.75           6878           6.00         3.92
  226.81        3351.00           6882           5.00         2.00
HL scan finished at 03:47:26
end
