************************************************************
  HL Scan of (1) Internal mercury lamp
************************************************************
Integration time is 0.2294 seconds per sample
dh140317Tamanrasset 22.79-5.529 2.766795pr865
************************************************************
Dead Time -------------------------  2.8E-08 
Number of Cycles Used -------------  4 
Starting Wavelength (Angstroms) ---  3331 
Final Wavelength (Angstoms) -------  3351 
Wavelength Increment (Angstroms) --  .25 
Filter Wheel #1 Position ---------- (1) Ground quartz diffuser (ND=2.32)
Filter Wheel #2 Position ---------- (0) Clear Aperture



************************************************************
HL scan start time = 03:49:56
Dark Count =  5.3 


Time (GMT)  Wavelength (Ang)  Step Number  Raw Counts  Counts/Second

  230.45        3331.00           6581           0.00         2.00
  230.67        3331.25           6585           2.00         2.00
  230.69        3331.50           6589           2.00         2.00
  230.72        3331.75           6593           0.00         2.00
  230.75        3332.00           6596           4.00         2.00
  230.77        3332.25           6600           6.00         3.05
  230.80        3332.50           6604           8.00        11.77
  230.83        3332.75           6608           8.00        11.77
  230.86        3333.00           6611           8.00        11.77
  230.88        3333.25           6615           4.00         2.00
  230.91        3333.50           6619           7.00         7.41
  230.94        3333.75           6623           0.00         2.00
  230.96        3334.00           6626           4.00         2.00
  230.99        3334.25           6630           2.00         2.00
  231.02        3334.50           6634           7.00         7.41
  231.04        3334.75           6638           0.00         2.00
  231.07        3335.00           6641           0.00         2.00
  231.10        3335.25           6645           0.00         2.00
  231.13        3335.50           6649           8.00        11.77
  231.15        3335.75           6653           3.00         2.00
  231.18        3336.00           6656           8.00        11.77
  231.21        3336.25           6660           5.00         2.00
  231.23        3336.50           6664           6.00         3.05
  231.26        3336.75           6668           8.00        11.77
  231.29        3337.00           6671           0.00         2.00
  231.32        3337.25           6675           7.00         7.41
  231.34        3337.50           6679           5.00         2.00
  231.37        3337.75           6683           0.00         2.00
  231.40        3338.00           6686           0.00         2.00
  231.42        3338.25           6690           0.00         2.00
  231.45        3338.50           6694           7.00         7.41
  231.48        3338.75           6698           0.00         2.00
  231.51        3339.00           6701           3.00         2.00
  231.53        3339.25           6705           5.00         2.00
  231.56        3339.50           6709           4.00         2.00
  231.59        3339.75           6713           5.00         2.00
  231.61        3340.00           6716           8.00        11.77
  231.64        3340.25           6720           4.00         2.00
  231.67        3340.50           6724           8.00        11.77
  231.70        3340.75           6728           3.00         2.00
  231.72        3341.00           6731           3.00         2.00
  231.75        3341.25           6735           5.00         2.00
  231.78        3341.50           6739           0.00         2.00
  231.80        3341.75           6743           6.00         3.05
  231.83        3342.00           6746           9.00        16.13
  231.86        3342.25           6750           0.00         2.00
  231.89        3342.50           6754           0.00         2.00
  231.91        3342.75           6758           4.00         2.00
  231.94        3343.00           6761           0.00         2.00
  231.97        3343.25           6765           5.00         2.00
  231.99        3343.50           6769           0.00         2.00
  232.02        3343.75           6773           4.00         2.00
  232.05        3344.00           6776           0.00         2.00
  232.08        3344.25           6780           5.00         2.00
  232.10        3344.50           6784           6.00         3.05
  232.13        3344.75           6788           0.00         2.00
  232.16        3345.00           6791           0.00         2.00
  232.18        3345.25           6795           4.00         2.00
  232.21        3345.50           6799           8.00        11.77
  232.24        3345.75           6803           0.00         2.00
  232.27        3346.00           6806           0.00         2.00
  232.29        3346.25           6810           5.00         2.00
  232.32        3346.50           6814           0.00         2.00
  232.35        3346.75           6818           3.00         2.00
  232.37        3347.00           6821           4.00         2.00
  232.40        3347.25           6825           8.00        11.77
  232.43        3347.50           6829           7.00         7.41
  232.46        3347.75           6833           0.00         2.00
  232.48        3348.00           6836           2.00         2.00
  232.51        3348.25           6840           8.00        11.77
  232.54        3348.50           6844           2.00         2.00
  232.56        3348.75           6848           0.00         2.00
  232.59        3349.00           6851           8.00        11.77
  232.62        3349.25           6855           8.00        11.77
  232.65        3349.50           6859           8.00        11.77
  232.67        3349.75           6863           2.00         2.00
  232.70        3350.00           6867           7.00         7.41
  232.73        3350.25           6870           8.00        11.77
  232.75        3350.50           6874           8.00        11.77
  232.78        3350.75           6878           0.00         2.00
  232.81        3351.00           6882           1.00         2.00
HL scan finished at 03:53:26
end
