************************************************************
  HL Scan of (1) Internal mercury lamp
************************************************************
Integration time is 0.2294 seconds per sample
dh160317Tamanrasset 22.79-5.529 2.731107pr865
************************************************************
Dead Time -------------------------  2.8E-08 
Number of Cycles Used -------------  4 
Starting Wavelength (Angstroms) ---  3331 
Final Wavelength (Angstoms) -------  3351 
Wavelength Increment (Angstroms) --  .25 
Filter Wheel #1 Position ---------- (1) Ground quartz diffuser (ND=2.32)
Filter Wheel #2 Position ---------- (0) Clear Aperture



************************************************************
HL scan start time = 03:47:42
Dark Count =  5.6 


Time (GMT)  Wavelength (Ang)  Step Number  Raw Counts  Counts/Second

  228.21        3331.00           6581           0.00         2.00
  228.43        3331.25           6585           0.00         2.00
  228.46        3331.50           6589           7.00         6.10
  228.48        3331.75           6593           8.00        10.46
  228.51        3332.00           6596           7.00         6.10
  228.54        3332.25           6600           5.00         2.00
  228.57        3332.50           6604           8.00        10.46
  228.59        3332.75           6608           1.00         2.00
  228.62        3333.00           6611           8.00        10.46
  228.65        3333.25           6615           3.00         2.00
  228.67        3333.50           6619           3.00         2.00
  228.70        3333.75           6623           2.00         2.00
  228.73        3334.00           6626           8.00        10.46
  228.76        3334.25           6630           0.00         2.00
  228.78        3334.50           6634           0.00         2.00
  228.81        3334.75           6638           8.00        10.46
  228.84        3335.00           6641           0.00         2.00
  228.86        3335.25           6645           8.00        10.46
  228.89        3335.50           6649           2.00         2.00
  228.92        3335.75           6653           6.00         2.00
  228.94        3336.00           6656           0.00         2.00
  228.97        3336.25           6660           6.00         2.00
  229.00        3336.50           6664           0.00         2.00
  229.03        3336.75           6668           0.00         2.00
  229.05        3337.00           6671           3.00         2.00
  229.08        3337.25           6675           2.00         2.00
  229.11        3337.50           6679           0.00         2.00
  229.13        3337.75           6683           8.00        10.46
  229.16        3338.00           6686           6.00         2.00
  229.19        3338.25           6690           2.00         2.00
  229.22        3338.50           6694           5.00         2.00
  229.24        3338.75           6698           4.00         2.00
  229.27        3339.00           6701           3.00         2.00
  229.30        3339.25           6705           0.00         2.00
  229.32        3339.50           6709           3.00         2.00
  229.35        3339.75           6713           4.00         2.00
  229.38        3340.00           6716           5.00         2.00
  229.41        3340.25           6720           8.00        10.46
  229.43        3340.50           6724           8.00        10.46
  229.46        3340.75           6728           0.00         2.00
  229.49        3341.00           6731           8.00        10.46
  229.51        3341.25           6735           6.00         2.00
  229.54        3341.50           6739           6.00         2.00
  229.57        3341.75           6743           6.00         2.00
  229.60        3342.00           6746           1.00         2.00
  229.62        3342.25           6750           0.00         2.00
  229.65        3342.50           6754           0.00         2.00
  229.68        3342.75           6758           8.00        10.46
  229.70        3343.00           6761           1.00         2.00
  229.73        3343.25           6765           8.00        10.46
  229.76        3343.50           6769           8.00        10.46
  229.79        3343.75           6773           8.00        10.46
  229.81        3344.00           6776           0.00         2.00
  229.84        3344.25           6780           4.00         2.00
  229.87        3344.50           6784           4.00         2.00
  229.89        3344.75           6788           8.00        10.46
  229.92        3345.00           6791           3.00         2.00
  229.95        3345.25           6795           4.00         2.00
  229.98        3345.50           6799           8.00        10.46
  230.00        3345.75           6803           6.00         2.00
  230.03        3346.00           6806           8.00        10.46
  230.06        3346.25           6810           3.00         2.00
  230.08        3346.50           6814           0.00         2.00
  230.11        3346.75           6818           0.00         2.00
  230.14        3347.00           6821           4.00         2.00
  230.17        3347.25           6825           8.00        10.46
  230.19        3347.50           6829           0.00         2.00
  230.22        3347.75           6833           3.00         2.00
  230.25        3348.00           6836           4.00         2.00
  230.27        3348.25           6840           1.00         2.00
  230.30        3348.50           6844           8.00        10.46
  230.33        3348.75           6848           0.00         2.00
  230.35        3349.00           6851           0.00         2.00
  230.38        3349.25           6855           8.00        10.46
  230.41        3349.50           6859           1.00         2.00
  230.44        3349.75           6863           8.00        10.46
  230.46        3350.00           6867           4.00         2.00
  230.49        3350.25           6870           6.00         2.00
  230.52        3350.50           6874           0.00         2.00
  230.54        3350.75           6878           6.00         2.00
  230.57        3351.00           6882           2.00         2.00
HL scan finished at 03:51:12
end
