************************************************************
  HL Scan of (1) Internal mercury lamp
************************************************************
Integration time is 0.2294 seconds per sample
dh130317Tamanrasset 22.79-5.529 2.741303pr865
************************************************************
Dead Time -------------------------  2.8E-08 
Number of Cycles Used -------------  4 
Starting Wavelength (Angstroms) ---  3331 
Final Wavelength (Angstoms) -------  3351 
Wavelength Increment (Angstroms) --  .25 
Filter Wheel #1 Position ---------- (1) Ground quartz diffuser (ND=2.32)
Filter Wheel #2 Position ---------- (0) Clear Aperture



************************************************************
HL scan start time = 03:49:43
Dark Count =  3.8 


Time (GMT)  Wavelength (Ang)  Step Number  Raw Counts  Counts/Second

  230.23        3331.00           6581           5.00         5.23
  230.44        3331.25           6585           5.00         5.23
  230.47        3331.50           6589           7.00        13.95
  230.50        3331.75           6593           0.00         2.00
  230.53        3332.00           6596           4.00         2.00
  230.55        3332.25           6600           6.00         9.59
  230.58        3332.50           6604           0.00         2.00
  230.61        3332.75           6608           8.00        18.31
  230.63        3333.00           6611           3.00         2.00
  230.66        3333.25           6615           8.00        18.31
  230.69        3333.50           6619           8.00        18.31
  230.72        3333.75           6623           6.00         9.59
  230.74        3334.00           6626           0.00         2.00
  230.77        3334.25           6630           0.00         2.00
  230.80        3334.50           6634           0.00         2.00
  230.82        3334.75           6638           8.00        18.31
  230.85        3335.00           6641           8.00        18.31
  230.88        3335.25           6645           0.00         2.00
  230.90        3335.50           6649           6.00         9.59
  230.93        3335.75           6653           7.00        13.95
  230.96        3336.00           6656           8.00        18.31
  230.99        3336.25           6660           5.00         5.23
  231.01        3336.50           6664           5.00         5.23
  231.04        3336.75           6668           8.00        18.31
  231.07        3337.00           6671           3.00         2.00
  231.09        3337.25           6675           0.00         2.00
  231.12        3337.50           6679           0.00         2.00
  231.15        3337.75           6683           0.00         2.00
  231.18        3338.00           6686           8.00        18.31
  231.20        3338.25           6690           8.00        18.31
  231.23        3338.50           6694           8.00        18.31
  231.26        3338.75           6698           0.00         2.00
  231.28        3339.00           6701           2.00         2.00
  231.31        3339.25           6705           3.00         2.00
  231.34        3339.50           6709           3.00         2.00
  231.37        3339.75           6713           8.00        18.31
  231.39        3340.00           6716           8.00        18.31
  231.42        3340.25           6720           0.00         2.00
  231.45        3340.50           6724           4.00         2.00
  231.47        3340.75           6728           2.00         2.00
  231.50        3341.00           6731           3.00         2.00
  231.53        3341.25           6735           8.00        18.31
  231.56        3341.50           6739           0.00         2.00
  231.58        3341.75           6743           0.00         2.00
  231.61        3342.00           6746           8.00        18.31
  231.64        3342.25           6750           0.00         2.00
  231.66        3342.50           6754           8.00        18.31
  231.69        3342.75           6758           8.00        18.31
  231.72        3343.00           6761           2.00         2.00
  231.75        3343.25           6765           8.00        18.31
  231.77        3343.50           6769           6.00         9.59
  231.80        3343.75           6773           7.00        13.95
  231.83        3344.00           6776           4.00         2.00
  231.85        3344.25           6780           8.00        18.31
  231.88        3344.50           6784           8.00        18.31
  231.91        3344.75           6788           4.00         2.00
  231.94        3345.00           6791           3.00         2.00
  231.96        3345.25           6795           5.00         5.23
  231.99        3345.50           6799           8.00        18.31
  232.02        3345.75           6803           2.00         2.00
  232.04        3346.00           6806           1.00         2.00
  232.07        3346.25           6810           2.00         2.00
  232.10        3346.50           6814           7.00        13.95
  232.12        3346.75           6818           0.00         2.00
  232.15        3347.00           6821           2.00         2.00
  232.18        3347.25           6825           8.00        18.31
  232.21        3347.50           6829           0.00         2.00
  232.23        3347.75           6833           1.00         2.00
  232.26        3348.00           6836           8.00        18.31
  232.29        3348.25           6840           6.00         9.59
  232.31        3348.50           6844           3.00         2.00
  232.34        3348.75           6848           5.00         5.23
  232.37        3349.00           6851           5.00         5.23
  232.40        3349.25           6855           6.00         9.59
  232.42        3349.50           6859           7.00        13.95
  232.45        3349.75           6863           0.00         2.00
  232.48        3350.00           6867           8.00        18.31
  232.50        3350.25           6870           2.00         2.00
  232.53        3350.50           6874           2.00         2.00
  232.56        3350.75           6878           8.00        18.31
  232.59        3351.00           6882           0.00         2.00
HL scan finished at 03:53:12
end
