************************************************************
  HL Scan of (1) Internal mercury lamp
************************************************************
Integration time is 0.2294 seconds per sample
dh150317Tamanrasset 22.79-5.529 2.726009pr865
************************************************************
Dead Time -------------------------  2.8E-08 
Number of Cycles Used -------------  4 
Starting Wavelength (Angstroms) ---  3331 
Final Wavelength (Angstoms) -------  3351 
Wavelength Increment (Angstroms) --  .25 
Filter Wheel #1 Position ---------- (1) Ground quartz diffuser (ND=2.32)
Filter Wheel #2 Position ---------- (0) Clear Aperture



************************************************************
HL scan start time = 03:48:57
Dark Count =  3.7 


Time (GMT)  Wavelength (Ang)  Step Number  Raw Counts  Counts/Second

  229.46        3331.00           6581           7.00        14.39
  229.68        3331.25           6585           0.00         2.00
  229.71        3331.50           6589           1.00         2.00
  229.74        3331.75           6593           8.00        18.74
  229.76        3332.00           6596           8.00        18.74
  229.79        3332.25           6600           3.00         2.00
  229.82        3332.50           6604           1.00         2.00
  229.84        3332.75           6608           0.00         2.00
  229.87        3333.00           6611           0.00         2.00
  229.90        3333.25           6615           5.00         5.67
  229.92        3333.50           6619           1.00         2.00
  229.95        3333.75           6623           4.00         2.00
  229.98        3334.00           6626           8.00        18.74
  230.01        3334.25           6630           6.00        10.03
  230.03        3334.50           6634           8.00        18.74
  230.06        3334.75           6638           3.00         2.00
  230.09        3335.00           6641           8.00        18.74
  230.11        3335.25           6645           8.00        18.74
  230.14        3335.50           6649           3.00         2.00
  230.17        3335.75           6653           5.00         5.67
  230.20        3336.00           6656           8.00        18.74
  230.22        3336.25           6660           1.00         2.00
  230.25        3336.50           6664           0.00         2.00
  230.28        3336.75           6668           0.00         2.00
  230.30        3337.00           6671           8.00        18.74
  230.33        3337.25           6675           5.00         5.67
  230.36        3337.50           6679           0.00         2.00
  230.39        3337.75           6683           6.00        10.03
  230.41        3338.00           6686           5.00         5.67
  230.44        3338.25           6690           0.00         2.00
  230.47        3338.50           6694           4.00         2.00
  230.49        3338.75           6698           8.00        18.74
  230.52        3339.00           6701           0.00         2.00
  230.55        3339.25           6705           8.00        18.74
  230.57        3339.50           6709           3.00         2.00
  230.60        3339.75           6713           8.00        18.74
  230.63        3340.00           6716           0.00         2.00
  230.66        3340.25           6720           4.00         2.00
  230.68        3340.50           6724           0.00         2.00
  230.71        3340.75           6728           5.00         5.67
  230.74        3341.00           6731           8.00        18.74
  230.76        3341.25           6735           8.00        18.74
  230.79        3341.50           6739           8.00        18.74
  230.82        3341.75           6743           4.00         2.00
  230.85        3342.00           6746           5.00         5.67
  230.87        3342.25           6750           0.00         2.00
  230.90        3342.50           6754           6.00        10.03
  230.93        3342.75           6758           3.00         2.00
  230.95        3343.00           6761           8.00        18.74
  230.98        3343.25           6765           6.00        10.03
  231.01        3343.50           6769           8.00        18.74
  231.04        3343.75           6773           0.00         2.00
  231.06        3344.00           6776           1.00         2.00
  231.09        3344.25           6780           7.00        14.39
  231.12        3344.50           6784           0.00         2.00
  231.14        3344.75           6788           0.00         2.00
  231.17        3345.00           6791           5.00         5.67
  231.20        3345.25           6795           8.00        18.74
  231.23        3345.50           6799           8.00        18.74
  231.25        3345.75           6803           0.00         2.00
  231.28        3346.00           6806           8.00        18.74
  231.31        3346.25           6810           6.00        10.03
  231.33        3346.50           6814           0.00         2.00
  231.36        3346.75           6818           9.00        23.10
  231.39        3347.00           6821           0.00         2.00
  231.42        3347.25           6825           7.00        14.39
  231.44        3347.50           6829           6.00        10.03
  231.47        3347.75           6833           5.00         5.67
  231.50        3348.00           6836           4.00         2.00
  231.52        3348.25           6840           0.00         2.00
  231.55        3348.50           6844           8.00        18.74
  231.58        3348.75           6848           0.00         2.00
  231.60        3349.00           6851           6.00        10.03
  231.63        3349.25           6855           4.00         2.00
  231.66        3349.50           6859           8.00        18.74
  231.69        3349.75           6863           0.00         2.00
  231.71        3350.00           6867           8.00        18.74
  231.74        3350.25           6870           8.00        18.74
  231.77        3350.50           6874           8.00        18.74
  231.79        3350.75           6878           8.00        18.74
  231.82        3351.00           6882           8.00        18.74
HL scan finished at 03:52:27
end
