************************************************************
  HL Scan of (1) Internal mercury lamp
************************************************************
Integration time is 0.2294 seconds per sample
dh110317Tamanrasset 22.79-5.529 2.715812pr865
************************************************************
Dead Time -------------------------  2.8E-08 
Number of Cycles Used -------------  4 
Starting Wavelength (Angstroms) ---  3331 
Final Wavelength (Angstoms) -------  3351 
Wavelength Increment (Angstroms) --  .25 
Filter Wheel #1 Position ---------- (1) Ground quartz diffuser (ND=2.32)
Filter Wheel #2 Position ---------- (0) Clear Aperture



************************************************************
HL scan start time = 03:51:45
Dark Count =  3.4 


Time (GMT)  Wavelength (Ang)  Step Number  Raw Counts  Counts/Second

  232.26        3331.00           6581           8.00        20.05
  232.47        3331.25           6585           8.00        20.05
  232.50        3331.50           6589           4.00         2.62
  232.53        3331.75           6593           0.00         2.00
  232.55        3332.00           6596           6.00        11.33
  232.58        3332.25           6600           5.00         6.97
  232.61        3332.50           6604           5.00         6.97
  232.64        3332.75           6608           5.00         6.97
  232.66        3333.00           6611           8.00        20.05
  232.69        3333.25           6615           8.00        20.05
  232.72        3333.50           6619           8.00        20.05
  232.74        3333.75           6623           1.00         2.00
  232.77        3334.00           6626           8.00        20.05
  232.80        3334.25           6630           4.00         2.62
  232.83        3334.50           6634           1.00         2.00
  232.85        3334.75           6638           2.00         2.00
  232.88        3335.00           6641           1.00         2.00
  232.91        3335.25           6645           8.00        20.05
  232.93        3335.50           6649           7.00        15.69
  232.96        3335.75           6653           8.00        20.05
  232.99        3336.00           6656           0.00         2.00
  233.02        3336.25           6660           5.00         6.97
  233.04        3336.50           6664           8.00        20.05
  233.07        3336.75           6668           2.00         2.00
  233.10        3337.00           6671           0.00         2.00
  233.12        3337.25           6675           0.00         2.00
  233.15        3337.50           6679           0.00         2.00
  233.18        3337.75           6683           0.00         2.00
  233.21        3338.00           6686           8.00        20.05
  233.23        3338.25           6690           0.00         2.00
  233.26        3338.50           6694           6.00        11.33
  233.29        3338.75           6698           0.00         2.00
  233.31        3339.00           6701           0.00         2.00
  233.34        3339.25           6705           0.00         2.00
  233.37        3339.50           6709           7.00        15.69
  233.40        3339.75           6713           8.00        20.05
  233.42        3340.00           6716           7.00        15.69
  233.45        3340.25           6720           2.00         2.00
  233.48        3340.50           6724           0.00         2.00
  233.50        3340.75           6728           0.00         2.00
  233.53        3341.00           6731           4.00         2.62
  233.56        3341.25           6735           8.00        20.05
  233.59        3341.50           6739           6.00        11.33
  233.61        3341.75           6743           8.00        20.05
  233.64        3342.00           6746           0.00         2.00
  233.67        3342.25           6750           0.00         2.00
  233.69        3342.50           6754           8.00        20.05
  233.72        3342.75           6758           8.00        20.05
  233.75        3343.00           6761           5.00         6.97
  233.78        3343.25           6765           1.00         2.00
  233.80        3343.50           6769           1.00         2.00
  233.83        3343.75           6773           8.00        20.05
  233.86        3344.00           6776           6.00        11.33
  233.88        3344.25           6780           1.00         2.00
  233.91        3344.50           6784           5.00         6.97
  233.94        3344.75           6788           8.00        20.05
  233.97        3345.00           6791           8.00        20.05
  233.99        3345.25           6795           1.00         2.00
  234.02        3345.50           6799           6.00        11.33
  234.05        3345.75           6803           0.00         2.00
  234.07        3346.00           6806           4.00         2.62
  234.10        3346.25           6810           8.00        20.05
  234.13        3346.50           6814           6.00        11.33
  234.16        3346.75           6818           0.00         2.00
  234.18        3347.00           6821           1.00         2.00
  234.21        3347.25           6825           0.00         2.00
  234.24        3347.50           6829           5.00         6.97
  234.26        3347.75           6833           3.00         2.00
  234.29        3348.00           6836           7.00        15.69
  234.32        3348.25           6840           0.00         2.00
  234.34        3348.50           6844           8.00        20.05
  234.37        3348.75           6848           8.00        20.05
  234.40        3349.00           6851           8.00        20.05
  234.43        3349.25           6855           0.00         2.00
  234.45        3349.50           6859           7.00        15.69
  234.48        3349.75           6863           8.00        20.05
  234.51        3350.00           6867           8.00        20.05
  234.53        3350.25           6870           0.00         2.00
  234.56        3350.50           6874           6.00        11.33
  234.59        3350.75           6878           8.00        20.05
  234.62        3351.00           6882           5.00         6.97
HL scan finished at 03:55:14
end
