************************************************************
  HL Scan of (1) Internal mercury lamp
************************************************************
Integration time is 0.2294 seconds per sample
dh120317Tamanrasset 22.79-5.529 2.736205pr865
************************************************************
Dead Time -------------------------  2.8E-08 
Number of Cycles Used -------------  4 
Starting Wavelength (Angstroms) ---  3331 
Final Wavelength (Angstoms) -------  3351 
Wavelength Increment (Angstroms) --  .25 
Filter Wheel #1 Position ---------- (1) Ground quartz diffuser (ND=2.32)
Filter Wheel #2 Position ---------- (0) Clear Aperture



************************************************************
HL scan start time = 03:50:45
Dark Count =  4.5 


Time (GMT)  Wavelength (Ang)  Step Number  Raw Counts  Counts/Second

  231.26        3331.00           6581           3.00         2.00
  231.47        3331.25           6585           8.00        15.26
  231.50        3331.50           6589           0.00         2.00
  231.53        3331.75           6593           8.00        15.26
  231.56        3332.00           6596           3.00         2.00
  231.58        3332.25           6600           0.00         2.00
  231.61        3332.50           6604           6.00         6.54
  231.64        3332.75           6608           8.00        15.26
  231.67        3333.00           6611           2.00         2.00
  231.69        3333.25           6615           8.00        15.26
  231.72        3333.50           6619           8.00        15.26
  231.75        3333.75           6623           6.00         6.54
  231.77        3334.00           6626           5.00         2.18
  231.80        3334.25           6630           2.00         2.00
  231.83        3334.50           6634           8.00        15.26
  231.85        3334.75           6638           8.00        15.26
  231.88        3335.00           6641           7.00        10.90
  231.91        3335.25           6645           8.00        15.26
  231.94        3335.50           6649           0.00         2.00
  231.96        3335.75           6653           8.00        15.26
  231.99        3336.00           6656           8.00        15.26
  232.02        3336.25           6660           6.00         6.54
  232.04        3336.50           6664           5.00         2.18
  232.07        3336.75           6668           2.00         2.00
  232.10        3337.00           6671           0.00         2.00
  232.13        3337.25           6675           8.00        15.26
  232.15        3337.50           6679           8.00        15.26
  232.18        3337.75           6683           8.00        15.26
  232.21        3338.00           6686           0.00         2.00
  232.23        3338.25           6690           5.00         2.18
  232.26        3338.50           6694           1.00         2.00
  232.29        3338.75           6698           5.00         2.18
  232.32        3339.00           6701           0.00         2.00
  232.34        3339.25           6705           4.00         2.00
  232.37        3339.50           6709           0.00         2.00
  232.40        3339.75           6713           7.00        10.90
  232.42        3340.00           6716           7.00        10.90
  232.45        3340.25           6720           2.00         2.00
  232.48        3340.50           6724           8.00        15.26
  232.51        3340.75           6728           2.00         2.00
  232.53        3341.00           6731           2.00         2.00
  232.56        3341.25           6735           0.00         2.00
  232.59        3341.50           6739           8.00        15.26
  232.61        3341.75           6743           8.00        15.26
  232.64        3342.00           6746           8.00        15.26
  232.67        3342.25           6750           8.00        15.26
  232.69        3342.50           6754           4.00         2.00
  232.72        3342.75           6758           5.00         2.18
  232.75        3343.00           6761           8.00        15.26
  232.78        3343.25           6765           3.00         2.00
  232.80        3343.50           6769           2.00         2.00
  232.83        3343.75           6773           8.00        15.26
  232.86        3344.00           6776           0.00         2.00
  232.89        3344.25           6780           6.00         6.54
  232.91        3344.50           6784           8.00        15.26
  232.94        3344.75           6788           7.00        10.90
  232.97        3345.00           6791           1.00         2.00
  232.99        3345.25           6795           0.00         2.00
  233.02        3345.50           6799           6.00         6.54
  233.05        3345.75           6803           8.00        15.26
  233.07        3346.00           6806           6.00         6.54
  233.10        3346.25           6810           0.00         2.00
  233.13        3346.50           6814           6.00         6.54
  233.16        3346.75           6818           5.00         2.18
  233.18        3347.00           6821           8.00        15.26
  233.21        3347.25           6825           0.00         2.00
  233.24        3347.50           6829           0.00         2.00
  233.26        3347.75           6833           5.00         2.18
  233.29        3348.00           6836           0.00         2.00
  233.32        3348.25           6840           8.00        15.26
  233.35        3348.50           6844           8.00        15.26
  233.37        3348.75           6848           7.00        10.90
  233.40        3349.00           6851           8.00        15.26
  233.43        3349.25           6855           8.00        15.26
  233.45        3349.50           6859           8.00        15.26
  233.48        3349.75           6863           2.00         2.00
  233.51        3350.00           6867           6.00         6.54
  233.54        3350.25           6870           4.00         2.00
  233.56        3350.50           6874           8.00        15.26
  233.59        3350.75           6878           0.00         2.00
  233.62        3351.00           6882           8.00        15.26
HL scan finished at 03:54:14
end
