************************************************************
  HL Scan of (1) Internal mercury lamp
************************************************************
Integration time is 0.2294 seconds per sample
dh250317Tamanrasset 22.79-5.529 2.736205pr865
************************************************************
Dead Time -------------------------  2.8E-08 
Number of Cycles Used -------------  4 
Starting Wavelength (Angstroms) ---  3331 
Final Wavelength (Angstoms) -------  3351 
Wavelength Increment (Angstroms) --  .25 
Filter Wheel #1 Position ---------- (1) Ground quartz diffuser (ND=2.32)
Filter Wheel #2 Position ---------- (0) Clear Aperture



************************************************************
HL scan start time = 03:38:43
Dark Count =  4 


Time (GMT)  Wavelength (Ang)  Step Number  Raw Counts  Counts/Second

  219.23        3331.00           6581           2.00         2.00
  219.45        3331.25           6585           8.00        17.44
  219.48        3331.50           6589           8.00        17.44
  219.51        3331.75           6593           8.00        17.44
  219.53        3332.00           6596           5.00         4.36
  219.56        3332.25           6600           8.00        17.44
  219.59        3332.50           6604           8.00        17.44
  219.61        3332.75           6608           3.00         2.00
  219.64        3333.00           6611           8.00        17.44
  219.67        3333.25           6615           6.00         8.72
  219.70        3333.50           6619           0.00         2.00
  219.72        3333.75           6623           8.00        17.44
  219.75        3334.00           6626           0.00         2.00
  219.78        3334.25           6630           0.00         2.00
  219.80        3334.50           6634           8.00        17.44
  219.83        3334.75           6638           2.00         2.00
  219.86        3335.00           6641           0.00         2.00
  219.89        3335.25           6645           0.00         2.00
  219.91        3335.50           6649           0.00         2.00
  219.94        3335.75           6653           2.00         2.00
  219.97        3336.00           6656           8.00        17.44
  219.99        3336.25           6660           8.00        17.44
  220.02        3336.50           6664           6.00         8.72
  220.05        3336.75           6668           8.00        17.44
  220.08        3337.00           6671           8.00        17.44
  220.10        3337.25           6675           8.00        17.44
  220.13        3337.50           6679           0.00         2.00
  220.16        3337.75           6683           7.00        13.08
  220.18        3338.00           6686           8.00        17.44
  220.21        3338.25           6690           7.00        13.08
  220.24        3338.50           6694           6.00         8.72
  220.27        3338.75           6698           0.00         2.00
  220.29        3339.00           6701           8.00        17.44
  220.32        3339.25           6705           2.00         2.00
  220.35        3339.50           6709           0.00         2.00
  220.37        3339.75           6713           5.00         4.36
  220.40        3340.00           6716           0.00         2.00
  220.43        3340.25           6720           3.00         2.00
  220.46        3340.50           6724           8.00        17.44
  220.48        3340.75           6728           8.00        17.44
  220.51        3341.00           6731           8.00        17.44
  220.54        3341.25           6735           2.00         2.00
  220.56        3341.50           6739           0.00         2.00
  220.59        3341.75           6743           3.00         2.00
  220.62        3342.00           6746           8.00        17.44
  220.64        3342.25           6750           2.00         2.00
  220.67        3342.50           6754           6.00         8.72
  220.70        3342.75           6758           8.00        17.44
  220.73        3343.00           6761           4.00         2.00
  220.75        3343.25           6765           0.00         2.00
  220.78        3343.50           6769           8.00        17.44
  220.81        3343.75           6773           8.00        17.44
  220.83        3344.00           6776           0.00         2.00
  220.86        3344.25           6780           4.00         2.00
  220.89        3344.50           6784           8.00        17.44
  220.92        3344.75           6788           8.00        17.44
  220.94        3345.00           6791           8.00        17.44
  220.97        3345.25           6795           1.00         2.00
  221.00        3345.50           6799           0.00         2.00
  221.02        3345.75           6803           5.00         4.36
  221.05        3346.00           6806           3.00         2.00
  221.08        3346.25           6810           8.00        17.44
  221.11        3346.50           6814           0.00         2.00
  221.13        3346.75           6818           0.00         2.00
  221.16        3347.00           6821           8.00        17.44
  221.19        3347.25           6825           8.00        17.44
  221.21        3347.50           6829           8.00        17.44
  221.24        3347.75           6833           0.00         2.00
  221.27        3348.00           6836           4.00         2.00
  221.30        3348.25           6840           7.00        13.08
  221.32        3348.50           6844           0.00         2.00
  221.35        3348.75           6848           3.00         2.00
  221.38        3349.00           6851           8.00        17.44
  221.40        3349.25           6855           6.00         8.72
  221.43        3349.50           6859           0.00         2.00
  221.46        3349.75           6863           0.00         2.00
  221.48        3350.00           6867           0.00         2.00
  221.51        3350.25           6870           8.00        17.44
  221.54        3350.50           6874           2.00         2.00
  221.57        3350.75           6878           0.00         2.00
  221.59        3351.00           6882           0.00         2.00
HL scan finished at 03:42:13
end
