************************************************************
  HL Scan of (1) Internal mercury lamp
************************************************************
Integration time is 0.2294 seconds per sample
dh300317Tamanrasset 22.79-5.529 2.955433pr865
************************************************************
Dead Time -------------------------  2.8E-08 
Number of Cycles Used -------------  4 
Starting Wavelength (Angstroms) ---  3331 
Final Wavelength (Angstoms) -------  3351 
Wavelength Increment (Angstroms) --  .25 
Filter Wheel #1 Position ---------- (1) Ground quartz diffuser (ND=2.32)
Filter Wheel #2 Position ---------- (0) Clear Aperture



************************************************************
HL scan start time = 03:33:45
Dark Count =  5 


Time (GMT)  Wavelength (Ang)  Step Number  Raw Counts  Counts/Second

  214.25        3331.00           6581           1.00         2.00
  214.47        3331.25           6585           0.00         2.00
  214.50        3331.50           6589           1.00         2.00
  214.53        3331.75           6593           0.00         2.00
  214.55        3332.00           6596           0.00         2.00
  214.58        3332.25           6600           8.00        13.08
  214.61        3332.50           6604           5.00         2.00
  214.64        3332.75           6608           4.00         2.00
  214.66        3333.00           6611           6.00         4.36
  214.69        3333.25           6615           4.00         2.00
  214.72        3333.50           6619           5.00         2.00
  214.74        3333.75           6623           2.00         2.00
  214.77        3334.00           6626           8.00        13.08
  214.80        3334.25           6630           8.00        13.08
  214.83        3334.50           6634           7.00         8.72
  214.85        3334.75           6638           6.00         4.36
  214.88        3335.00           6641           5.00         2.00
  214.91        3335.25           6645           4.00         2.00
  214.93        3335.50           6649           6.00         4.36
  214.96        3335.75           6653           5.00         2.00
  214.99        3336.00           6656           3.00         2.00
  215.02        3336.25           6660           0.00         2.00
  215.04        3336.50           6664           1.00         2.00
  215.07        3336.75           6668           5.00         2.00
  215.10        3337.00           6671           8.00        13.08
  215.12        3337.25           6675           8.00        13.08
  215.15        3337.50           6679           8.00        13.08
  215.18        3337.75           6683           0.00         2.00
  215.21        3338.00           6686           8.00        13.08
  215.23        3338.25           6690           7.00         8.72
  215.26        3338.50           6694           6.00         4.36
  215.29        3338.75           6698           3.00         2.00
  215.31        3339.00           6701           0.00         2.00
  215.34        3339.25           6705           2.00         2.00
  215.37        3339.50           6709           4.00         2.00
  215.40        3339.75           6713           2.00         2.00
  215.42        3340.00           6716           4.00         2.00
  215.45        3340.25           6720           5.00         2.00
  215.48        3340.50           6724           5.00         2.00
  215.50        3340.75           6728           1.00         2.00
  215.53        3341.00           6731           1.00         2.00
  215.56        3341.25           6735           7.00         8.72
  215.59        3341.50           6739           8.00        13.08
  215.61        3341.75           6743           6.00         4.36
  215.64        3342.00           6746           6.00         4.36
  215.67        3342.25           6750           6.00         4.36
  215.69        3342.50           6754           6.00         4.36
  215.72        3342.75           6758           3.00         2.00
  215.75        3343.00           6761           8.00        13.08
  215.78        3343.25           6765           5.00         2.00
  215.80        3343.50           6769           4.00         2.00
  215.83        3343.75           6773           0.00         2.00
  215.86        3344.00           6776           8.00        13.08
  215.88        3344.25           6780           8.00        13.08
  215.91        3344.50           6784           8.00        13.08
  215.94        3344.75           6788           7.00         8.72
  215.97        3345.00           6791           0.00         2.00
  215.99        3345.25           6795           3.00         2.00
  216.02        3345.50           6799           6.00         4.36
  216.05        3345.75           6803           4.00         2.00
  216.07        3346.00           6806           2.00         2.00
  216.10        3346.25           6810           8.00        13.08
  216.13        3346.50           6814           8.00        13.08
  216.16        3346.75           6818           8.00        13.08
  216.18        3347.00           6821           0.00         2.00
  216.21        3347.25           6825           5.00         2.00
  216.24        3347.50           6829           1.00         2.00
  216.26        3347.75           6833           0.00         2.00
  216.29        3348.00           6836           8.00        13.08
  216.32        3348.25           6840           4.00         2.00
  216.35        3348.50           6844           3.00         2.00
  216.37        3348.75           6848           0.00         2.00
  216.40        3349.00           6851           7.00         8.72
  216.43        3349.25           6855           5.00         2.00
  216.45        3349.50           6859           3.00         2.00
  216.48        3349.75           6863           0.00         2.00
  216.51        3350.00           6867           5.00         2.00
  216.54        3350.25           6870           2.00         2.00
  216.56        3350.50           6874           3.00         2.00
  216.59        3350.75           6878           3.00         2.00
  216.62        3351.00           6882           8.00        13.08
HL scan finished at 03:37:14
end
