************************************************************
  HL Scan of (1) Internal mercury lamp
************************************************************
Integration time is 0.2294 seconds per sample
dh210317Tamanrasset 22.79-5.529 2.822876pr865
************************************************************
Dead Time -------------------------  2.8E-08 
Number of Cycles Used -------------  4 
Starting Wavelength (Angstroms) ---  3331 
Final Wavelength (Angstoms) -------  3351 
Wavelength Increment (Angstroms) --  .25 
Filter Wheel #1 Position ---------- (1) Ground quartz diffuser (ND=2.32)
Filter Wheel #2 Position ---------- (0) Clear Aperture



************************************************************
HL scan start time = 03:42:45
Dark Count =  4.9 


Time (GMT)  Wavelength (Ang)  Step Number  Raw Counts  Counts/Second

  223.27        3331.00           6581           4.00         2.00
  223.49        3331.25           6585           0.00         2.00
  223.51        3331.50           6589           4.00         2.00
  223.54        3331.75           6593           0.00         2.00
  223.57        3332.00           6596           8.00        13.51
  223.60        3332.25           6600           5.00         2.00
  223.62        3332.50           6604           0.00         2.00
  223.65        3332.75           6608           6.00         4.80
  223.68        3333.00           6611           4.00         2.00
  223.70        3333.25           6615           2.00         2.00
  223.73        3333.50           6619           4.00         2.00
  223.76        3333.75           6623           8.00        13.51
  223.78        3334.00           6626           4.00         2.00
  223.81        3334.25           6630           2.00         2.00
  223.84        3334.50           6634           6.00         4.80
  223.87        3334.75           6638           8.00        13.51
  223.89        3335.00           6641           8.00        13.51
  223.92        3335.25           6645           0.00         2.00
  223.95        3335.50           6649           4.00         2.00
  223.97        3335.75           6653           0.00         2.00
  224.00        3336.00           6656           3.00         2.00
  224.03        3336.25           6660           0.00         2.00
  224.06        3336.50           6664           5.00         2.00
  224.08        3336.75           6668           8.00        13.51
  224.11        3337.00           6671           1.00         2.00
  224.14        3337.25           6675           0.00         2.00
  224.16        3337.50           6679           4.00         2.00
  224.19        3337.75           6683           6.00         4.80
  224.22        3338.00           6686           3.00         2.00
  224.25        3338.25           6690           7.00         9.15
  224.27        3338.50           6694           1.00         2.00
  224.30        3338.75           6698           8.00        13.51
  224.33        3339.00           6701           8.00        13.51
  224.35        3339.25           6705           3.00         2.00
  224.38        3339.50           6709           8.00        13.51
  224.41        3339.75           6713           8.00        13.51
  224.44        3340.00           6716           1.00         2.00
  224.46        3340.25           6720           8.00        13.51
  224.49        3340.50           6724           8.00        13.51
  224.52        3340.75           6728           3.00         2.00
  224.54        3341.00           6731           8.00        13.51
  224.57        3341.25           6735           0.00         2.00
  224.60        3341.50           6739           8.00        13.51
  224.63        3341.75           6743           0.00         2.00
  224.65        3342.00           6746           4.00         2.00
  224.68        3342.25           6750           7.00         9.15
  224.71        3342.50           6754           7.00         9.15
  224.73        3342.75           6758           6.00         4.80
  224.76        3343.00           6761           8.00        13.51
  224.79        3343.25           6765           6.00         4.80
  224.82        3343.50           6769           0.00         2.00
  224.84        3343.75           6773           1.00         2.00
  224.87        3344.00           6776           4.00         2.00
  224.90        3344.25           6780           8.00        13.51
  224.92        3344.50           6784           8.00        13.51
  224.95        3344.75           6788           0.00         2.00
  224.98        3345.00           6791           1.00         2.00
  225.01        3345.25           6795           5.00         2.00
  225.03        3345.50           6799           8.00        13.51
  225.06        3345.75           6803           8.00        13.51
  225.09        3346.00           6806           6.00         4.80
  225.11        3346.25           6810           8.00        13.51
  225.14        3346.50           6814           8.00        13.51
  225.17        3346.75           6818           0.00         2.00
  225.20        3347.00           6821           5.00         2.00
  225.22        3347.25           6825           5.00         2.00
  225.25        3347.50           6829           7.00         9.15
  225.28        3347.75           6833           8.00        13.51
  225.30        3348.00           6836           7.00         9.15
  225.33        3348.25           6840           8.00        13.51
  225.36        3348.50           6844           3.00         2.00
  225.39        3348.75           6848           0.00         2.00
  225.41        3349.00           6851           8.00        13.51
  225.44        3349.25           6855           4.00         2.00
  225.47        3349.50           6859           0.00         2.00
  225.49        3349.75           6863           8.00        13.51
  225.52        3350.00           6867           0.00         2.00
  225.55        3350.25           6870           2.00         2.00
  225.58        3350.50           6874           6.00         4.80
  225.60        3350.75           6878           0.00         2.00
  225.63        3351.00           6882           8.00        13.51
HL scan finished at 03:46:15
end
