************************************************************
  HL Scan of (1) Internal mercury lamp
************************************************************
Integration time is 0.2294 seconds per sample
dh240317Tamanrasset 22.79-5.529 2.736205pr865
************************************************************
Dead Time -------------------------  2.8E-08 
Number of Cycles Used -------------  4 
Starting Wavelength (Angstroms) ---  3331 
Final Wavelength (Angstoms) -------  3351 
Wavelength Increment (Angstroms) --  .25 
Filter Wheel #1 Position ---------- (1) Ground quartz diffuser (ND=2.32)
Filter Wheel #2 Position ---------- (0) Clear Aperture



************************************************************
HL scan start time = 03:39:44
Dark Count =  6 


Time (GMT)  Wavelength (Ang)  Step Number  Raw Counts  Counts/Second

  220.25        3331.00           6581           8.00         8.72
  220.47        3331.25           6585           0.00         2.00
  220.50        3331.50           6589           8.00         8.72
  220.52        3331.75           6593           8.00         8.72
  220.55        3332.00           6596           6.00         2.00
  220.58        3332.25           6600           2.00         2.00
  220.61        3332.50           6604           0.00         2.00
  220.63        3332.75           6608           4.00         2.00
  220.66        3333.00           6611           4.00         2.00
  220.69        3333.25           6615           6.00         2.00
  220.71        3333.50           6619           0.00         2.00
  220.74        3333.75           6623           6.00         2.00
  220.77        3334.00           6626           8.00         8.72
  220.79        3334.25           6630           0.00         2.00
  220.82        3334.50           6634           0.00         2.00
  220.85        3334.75           6638           0.00         2.00
  220.88        3335.00           6641           2.00         2.00
  220.90        3335.25           6645           0.00         2.00
  220.93        3335.50           6649           8.00         8.72
  220.96        3335.75           6653           4.00         2.00
  220.98        3336.00           6656           8.00         8.72
  221.01        3336.25           6660           1.00         2.00
  221.04        3336.50           6664           0.00         2.00
  221.07        3336.75           6668           7.00         4.36
  221.09        3337.00           6671           8.00         8.72
  221.12        3337.25           6675           0.00         2.00
  221.15        3337.50           6679           0.00         2.00
  221.17        3337.75           6683           7.00         4.36
  221.20        3338.00           6686           0.00         2.00
  221.23        3338.25           6690           7.00         4.36
  221.26        3338.50           6694           8.00         8.72
  221.28        3338.75           6698           5.00         2.00
  221.31        3339.00           6701           0.00         2.00
  221.34        3339.25           6705           8.00         8.72
  221.36        3339.50           6709           8.00         8.72
  221.39        3339.75           6713           3.00         2.00
  221.42        3340.00           6716           8.00         8.72
  221.45        3340.25           6720           7.00         4.36
  221.47        3340.50           6724           1.00         2.00
  221.50        3340.75           6728           5.00         2.00
  221.53        3341.00           6731           8.00         8.72
  221.55        3341.25           6735           0.00         2.00
  221.58        3341.50           6739           0.00         2.00
  221.61        3341.75           6743           2.00         2.00
  221.63        3342.00           6746           8.00         8.72
  221.66        3342.25           6750           0.00         2.00
  221.69        3342.50           6754           0.00         2.00
  221.72        3342.75           6758           7.00         4.36
  221.74        3343.00           6761           0.00         2.00
  221.77        3343.25           6765           8.00         8.72
  221.80        3343.50           6769           8.00         8.72
  221.82        3343.75           6773           0.00         2.00
  221.85        3344.00           6776           9.00        13.08
  221.88        3344.25           6780           8.00         8.72
  221.91        3344.50           6784           1.00         2.00
  221.93        3344.75           6788           8.00         8.72
  221.96        3345.00           6791           0.00         2.00
  221.99        3345.25           6795           4.00         2.00
  222.02        3345.50           6799           7.00         4.36
  222.04        3345.75           6803           0.00         2.00
  222.07        3346.00           6806           6.00         2.00
  222.10        3346.25           6810           0.00         2.00
  222.12        3346.50           6814           4.00         2.00
  222.15        3346.75           6818           8.00         8.72
  222.18        3347.00           6821           8.00         8.72
  222.21        3347.25           6825           8.00         8.72
  222.23        3347.50           6829           8.00         8.72
  222.26        3347.75           6833           8.00         8.72
  222.29        3348.00           6836           8.00         8.72
  222.31        3348.25           6840           2.00         2.00
  222.34        3348.50           6844           5.00         2.00
  222.37        3348.75           6848           8.00         8.72
  222.40        3349.00           6851           8.00         8.72
  222.42        3349.25           6855           0.00         2.00
  222.45        3349.50           6859           0.00         2.00
  222.48        3349.75           6863           0.00         2.00
  222.50        3350.00           6867           8.00         8.72
  222.53        3350.25           6870           0.00         2.00
  222.56        3350.50           6874           0.00         2.00
  222.59        3350.75           6878           1.00         2.00
  222.61        3351.00           6882           8.00         8.72
HL scan finished at 03:43:14
end
