************************************************************
  HL Scan of (1) Internal mercury lamp
************************************************************
Integration time is 0.2294 seconds per sample
dh270317Tamanrasset 22.79-5.529 2.940138pr865
************************************************************
Dead Time -------------------------  2.8E-08 
Number of Cycles Used -------------  4 
Starting Wavelength (Angstroms) ---  3331 
Final Wavelength (Angstoms) -------  3351 
Wavelength Increment (Angstroms) --  .25 
Filter Wheel #1 Position ---------- (1) Ground quartz diffuser (ND=2.32)
Filter Wheel #2 Position ---------- (0) Clear Aperture



************************************************************
HL scan start time = 03:36:57
Dark Count =  4.2 


Time (GMT)  Wavelength (Ang)  Step Number  Raw Counts  Counts/Second

  217.46        3331.00           6581           8.00        16.56
  217.68        3331.25           6585           1.00         2.00
  217.71        3331.50           6589           8.00        16.56
  217.73        3331.75           6593           4.00         2.00
  217.76        3332.00           6596           0.00         2.00
  217.79        3332.25           6600           0.00         2.00
  217.82        3332.50           6604           8.00        16.56
  217.84        3332.75           6608           2.00         2.00
  217.87        3333.00           6611           6.00         7.85
  217.90        3333.25           6615           7.00        12.21
  217.92        3333.50           6619           8.00        16.56
  217.95        3333.75           6623           8.00        16.56
  217.98        3334.00           6626           0.00         2.00
  218.01        3334.25           6630           0.00         2.00
  218.03        3334.50           6634           8.00        16.56
  218.06        3334.75           6638           7.00        12.21
  218.09        3335.00           6641           5.00         3.49
  218.11        3335.25           6645           8.00        16.56
  218.14        3335.50           6649           6.00         7.85
  218.17        3335.75           6653           7.00        12.21
  218.20        3336.00           6656           8.00        16.56
  218.22        3336.25           6660           0.00         2.00
  218.25        3336.50           6664           2.00         2.00
  218.28        3336.75           6668           1.00         2.00
  218.30        3337.00           6671           0.00         2.00
  218.33        3337.25           6675           7.00        12.21
  218.36        3337.50           6679           6.00         7.85
  218.39        3337.75           6683           5.00         3.49
  218.41        3338.00           6686           5.00         3.49
  218.44        3338.25           6690           8.00        16.56
  218.47        3338.50           6694           7.00        12.21
  218.49        3338.75           6698           5.00         3.49
  218.52        3339.00           6701           4.00         2.00
  218.55        3339.25           6705           8.00        16.56
  218.58        3339.50           6709           8.00        16.56
  218.60        3339.75           6713           0.00         2.00
  218.63        3340.00           6716           2.00         2.00
  218.66        3340.25           6720           5.00         3.49
  218.68        3340.50           6724           6.00         7.85
  218.71        3340.75           6728           1.00         2.00
  218.74        3341.00           6731           0.00         2.00
  218.77        3341.25           6735           2.00         2.00
  218.79        3341.50           6739           2.00         2.00
  218.82        3341.75           6743           3.00         2.00
  218.85        3342.00           6746           5.00         3.49
  218.87        3342.25           6750           6.00         7.85
  218.90        3342.50           6754           8.00        16.56
  218.93        3342.75           6758           5.00         3.49
  218.95        3343.00           6761           7.00        12.21
  218.98        3343.25           6765           8.00        16.56
  219.01        3343.50           6769           8.00        16.56
  219.04        3343.75           6773           2.00         2.00
  219.06        3344.00           6776           2.00         2.00
  219.09        3344.25           6780           6.00         7.85
  219.12        3344.50           6784           6.00         7.85
  219.14        3344.75           6788           8.00        16.56
  219.17        3345.00           6791           2.00         2.00
  219.20        3345.25           6795           0.00         2.00
  219.23        3345.50           6799           8.00        16.56
  219.25        3345.75           6803           6.00         7.85
  219.28        3346.00           6806           7.00        12.21
  219.31        3346.25           6810           0.00         2.00
  219.33        3346.50           6814           2.00         2.00
  219.36        3346.75           6818           8.00        16.56
  219.39        3347.00           6821           8.00        16.56
  219.42        3347.25           6825           6.00         7.85
  219.44        3347.50           6829           8.00        16.56
  219.47        3347.75           6833           1.00         2.00
  219.50        3348.00           6836           0.00         2.00
  219.52        3348.25           6840           2.00         2.00
  219.55        3348.50           6844           1.00         2.00
  219.58        3348.75           6848           6.00         7.85
  219.61        3349.00           6851           4.00         2.00
  219.63        3349.25           6855           7.00        12.21
  219.66        3349.50           6859           2.00         2.00
  219.69        3349.75           6863           6.00         7.85
  219.71        3350.00           6867           0.00         2.00
  219.74        3350.25           6870           6.00         7.85
  219.77        3350.50           6874           0.00         2.00
  219.80        3350.75           6878           3.00         2.00
  219.82        3351.00           6882           0.00         2.00
HL scan finished at 03:40:27
end
