************************************************************
  HL Scan of (1) Internal mercury lamp
************************************************************
Integration time is 0.2294 seconds per sample
dh230317Tamanrasset 22.79-5.529 2.7515pr865
************************************************************
Dead Time -------------------------  2.8E-08 
Number of Cycles Used -------------  4 
Starting Wavelength (Angstroms) ---  3331 
Final Wavelength (Angstoms) -------  3351 
Wavelength Increment (Angstroms) --  .25 
Filter Wheel #1 Position ---------- (1) Ground quartz diffuser (ND=2.32)
Filter Wheel #2 Position ---------- (0) Clear Aperture



************************************************************
HL scan start time = 03:40:58
Dark Count =  3.5 


Time (GMT)  Wavelength (Ang)  Step Number  Raw Counts  Counts/Second

  221.48        3331.00           6581           8.00        19.62
  221.70        3331.25           6585           4.00         2.18
  221.73        3331.50           6589           8.00        19.62
  221.75        3331.75           6593           8.00        19.62
  221.78        3332.00           6596           0.00         2.00
  221.81        3332.25           6600           2.00         2.00
  221.84        3332.50           6604           8.00        19.62
  221.86        3332.75           6608           8.00        19.62
  221.89        3333.00           6611           0.00         2.00
  221.92        3333.25           6615           5.00         6.54
  221.94        3333.50           6619           8.00        19.62
  221.97        3333.75           6623           3.00         2.00
  222.00        3334.00           6626           8.00        19.62
  222.02        3334.25           6630           8.00        19.62
  222.05        3334.50           6634           0.00         2.00
  222.08        3334.75           6638           1.00         2.00
  222.11        3335.00           6641           0.00         2.00
  222.13        3335.25           6645           4.00         2.18
  222.16        3335.50           6649           8.00        19.62
  222.19        3335.75           6653           8.00        19.62
  222.22        3336.00           6656           3.00         2.00
  222.24        3336.25           6660           0.00         2.00
  222.27        3336.50           6664           8.00        19.62
  222.30        3336.75           6668           7.00        15.26
  222.32        3337.00           6671           8.00        19.62
  222.35        3337.25           6675           4.00         2.18
  222.38        3337.50           6679           5.00         6.54
  222.41        3337.75           6683           5.00         6.54
  222.43        3338.00           6686           0.00         2.00
  222.46        3338.25           6690           2.00         2.00
  222.49        3338.50           6694           0.00         2.00
  222.51        3338.75           6698           7.00        15.26
  222.54        3339.00           6701           8.00        19.62
  222.57        3339.25           6705           0.00         2.00
  222.60        3339.50           6709           0.00         2.00
  222.62        3339.75           6713           6.00        10.90
  222.65        3340.00           6716           6.00        10.90
  222.68        3340.25           6720           8.00        19.62
  222.70        3340.50           6724           8.00        19.62
  222.73        3340.75           6728           5.00         6.54
  222.76        3341.00           6731           6.00        10.90
  222.79        3341.25           6735           0.00         2.00
  222.81        3341.50           6739           5.00         6.54
  222.84        3341.75           6743           0.00         2.00
  222.87        3342.00           6746           0.00         2.00
  222.89        3342.25           6750           8.00        19.62
  222.92        3342.50           6754           0.00         2.00
  222.95        3342.75           6758           6.00        10.90
  222.98        3343.00           6761           6.00        10.90
  223.00        3343.25           6765           0.00         2.00
  223.03        3343.50           6769           8.00        19.62
  223.06        3343.75           6773           7.00        15.26
  223.08        3344.00           6776           6.00        10.90
  223.11        3344.25           6780           8.00        19.62
  223.14        3344.50           6784           0.00         2.00
  223.17        3344.75           6788           1.00         2.00
  223.19        3345.00           6791           2.00         2.00
  223.22        3345.25           6795           0.00         2.00
  223.25        3345.50           6799           8.00        19.62
  223.27        3345.75           6803           8.00        19.62
  223.30        3346.00           6806           0.00         2.00
  223.33        3346.25           6810           6.00        10.90
  223.35        3346.50           6814           4.00         2.18
  223.38        3346.75           6818           0.00         2.00
  223.41        3347.00           6821           8.00        19.62
  223.44        3347.25           6825           8.00        19.62
  223.46        3347.50           6829           1.00         2.00
  223.49        3347.75           6833           8.00        19.62
  223.52        3348.00           6836           3.00         2.00
  223.54        3348.25           6840           8.00        19.62
  223.57        3348.50           6844           5.00         6.54
  223.60        3348.75           6848           3.00         2.00
  223.63        3349.00           6851           2.00         2.00
  223.65        3349.25           6855           5.00         6.54
  223.68        3349.50           6859           4.00         2.18
  223.71        3349.75           6863           0.00         2.00
  223.73        3350.00           6867           2.00         2.00
  223.76        3350.25           6870           1.00         2.00
  223.79        3350.50           6874           4.00         2.18
  223.82        3350.75           6878           8.00        19.62
  223.84        3351.00           6882           8.00        19.62
HL scan finished at 03:44:28
end
