************************************************************
  HL Scan of (1) Internal mercury lamp
************************************************************
Integration time is 0.2294 seconds per sample
dh260317Tamanrasset 22.79-5.529 2.756598pr865
************************************************************
Dead Time -------------------------  2.8E-08 
Number of Cycles Used -------------  4 
Starting Wavelength (Angstroms) ---  3331 
Final Wavelength (Angstoms) -------  3351 
Wavelength Increment (Angstroms) --  .25 
Filter Wheel #1 Position ---------- (1) Ground quartz diffuser (ND=2.32)
Filter Wheel #2 Position ---------- (0) Clear Aperture



************************************************************
HL scan start time = 03:37:44
Dark Count =  5.6 


Time (GMT)  Wavelength (Ang)  Step Number  Raw Counts  Counts/Second

  218.24        3331.00           6581           0.00         2.00
  218.46        3331.25           6585           5.00         2.00
  218.49        3331.50           6589           0.00         2.00
  218.51        3331.75           6593           1.00         2.00
  218.54        3332.00           6596           8.00        10.46
  218.57        3332.25           6600           0.00         2.00
  218.60        3332.50           6604           6.00         2.00
  218.62        3332.75           6608           0.00         2.00
  218.65        3333.00           6611           1.00         2.00
  218.68        3333.25           6615           1.00         2.00
  218.70        3333.50           6619           6.00         2.00
  218.73        3333.75           6623           7.00         6.10
  218.76        3334.00           6626           7.00         6.10
  218.79        3334.25           6630           3.00         2.00
  218.81        3334.50           6634           6.00         2.00
  218.84        3334.75           6638           0.00         2.00
  218.87        3335.00           6641           3.00         2.00
  218.89        3335.25           6645           6.00         2.00
  218.92        3335.50           6649           8.00        10.46
  218.95        3335.75           6653           8.00        10.46
  218.97        3336.00           6656           0.00         2.00
  219.00        3336.25           6660           0.00         2.00
  219.03        3336.50           6664           0.00         2.00
  219.06        3336.75           6668           8.00        10.46
  219.08        3337.00           6671           2.00         2.00
  219.11        3337.25           6675           8.00        10.46
  219.14        3337.50           6679           8.00        10.46
  219.17        3337.75           6683           0.00         2.00
  219.19        3338.00           6686           0.00         2.00
  219.22        3338.25           6690           3.00         2.00
  219.25        3338.50           6694           0.00         2.00
  219.27        3338.75           6698           0.00         2.00
  219.30        3339.00           6701           8.00        10.46
  219.33        3339.25           6705           2.00         2.00
  219.36        3339.50           6709           8.00        10.46
  219.38        3339.75           6713           7.00         6.10
  219.41        3340.00           6716           0.00         2.00
  219.44        3340.25           6720           6.00         2.00
  219.46        3340.50           6724           0.00         2.00
  219.49        3340.75           6728           0.00         2.00
  219.52        3341.00           6731           8.00        10.46
  219.54        3341.25           6735           8.00        10.46
  219.57        3341.50           6739           8.00        10.46
  219.60        3341.75           6743           3.00         2.00
  219.63        3342.00           6746           7.00         6.10
  219.65        3342.25           6750           1.00         2.00
  219.68        3342.50           6754           6.00         2.00
  219.71        3342.75           6758           3.00         2.00
  219.73        3343.00           6761           8.00        10.46
  219.76        3343.25           6765           6.00         2.00
  219.79        3343.50           6769           0.00         2.00
  219.82        3343.75           6773           5.00         2.00
  219.84        3344.00           6776           8.00        10.46
  219.87        3344.25           6780           3.00         2.00
  219.90        3344.50           6784           6.00         2.00
  219.92        3344.75           6788           8.00        10.46
  219.95        3345.00           6791           1.00         2.00
  219.98        3345.25           6795           8.00        10.46
  220.01        3345.50           6799           2.00         2.00
  220.03        3345.75           6803           2.00         2.00
  220.06        3346.00           6806           8.00        10.46
  220.09        3346.25           6810           5.00         2.00
  220.11        3346.50           6814           2.00         2.00
  220.14        3346.75           6818           5.00         2.00
  220.17        3347.00           6821           0.00         2.00
  220.20        3347.25           6825           8.00        10.46
  220.22        3347.50           6829           7.00         6.10
  220.25        3347.75           6833           8.00        10.46
  220.28        3348.00           6836           4.00         2.00
  220.30        3348.25           6840           0.00         2.00
  220.33        3348.50           6844           8.00        10.46
  220.36        3348.75           6848           5.00         2.00
  220.39        3349.00           6851           5.00         2.00
  220.41        3349.25           6855           0.00         2.00
  220.44        3349.50           6859           8.00        10.46
  220.47        3349.75           6863           4.00         2.00
  220.49        3350.00           6867           0.00         2.00
  220.52        3350.25           6870           8.00        10.46
  220.55        3350.50           6874           0.00         2.00
  220.57        3350.75           6878           0.00         2.00
  220.60        3351.00           6882           7.00         6.10
HL scan finished at 03:41:13
end
