************************************************************
  HL Scan of (1) Internal mercury lamp
************************************************************
Integration time is 0.2294 seconds per sample
dh080417Tamanrasset 22.79-5.529 2.975825pr865
************************************************************
Dead Time -------------------------  2.8E-08 
Number of Cycles Used -------------  4 
Starting Wavelength (Angstroms) ---  3331 
Final Wavelength (Angstoms) -------  3351 
Wavelength Increment (Angstroms) --  .25 
Filter Wheel #1 Position ---------- (1) Ground quartz diffuser (ND=2.32)
Filter Wheel #2 Position ---------- (0) Clear Aperture



************************************************************
HL scan start time = 03:25:44
Dark Count =  4.6 


Time (GMT)  Wavelength (Ang)  Step Number  Raw Counts  Counts/Second

  206.25        3331.00           6581           6.00         6.10
  206.47        3331.25           6585           2.00         2.00
  206.49        3331.50           6589           4.00         2.00
  206.52        3331.75           6593           8.00        14.82
  206.55        3332.00           6596           0.00         2.00
  206.57        3332.25           6600           2.00         2.00
  206.60        3332.50           6604           8.00        14.82
  206.63        3332.75           6608           5.00         2.00
  206.66        3333.00           6611           4.00         2.00
  206.68        3333.25           6615           8.00        14.82
  206.71        3333.50           6619           0.00         2.00
  206.74        3333.75           6623           6.00         6.10
  206.76        3334.00           6626           8.00        14.82
  206.79        3334.25           6630           6.00         6.10
  206.82        3334.50           6634           8.00        14.82
  206.85        3334.75           6638           8.00        14.82
  206.87        3335.00           6641           4.00         2.00
  206.90        3335.25           6645           8.00        14.82
  206.93        3335.50           6649           7.00        10.46
  206.95        3335.75           6653           4.00         2.00
  206.98        3336.00           6656           3.00         2.00
  207.01        3336.25           6660           4.00         2.00
  207.04        3336.50           6664           8.00        14.82
  207.06        3336.75           6668           6.00         6.10
  207.09        3337.00           6671           0.00         2.00
  207.12        3337.25           6675           8.00        14.82
  207.14        3337.50           6679           4.00         2.00
  207.17        3337.75           6683           2.00         2.00
  207.20        3338.00           6686           7.00        10.46
  207.23        3338.25           6690           4.00         2.00
  207.25        3338.50           6694           5.00         2.00
  207.28        3338.75           6698           5.00         2.00
  207.31        3339.00           6701           1.00         2.00
  207.33        3339.25           6705           3.00         2.00
  207.36        3339.50           6709           3.00         2.00
  207.39        3339.75           6713           5.00         2.00
  207.42        3340.00           6716           5.00         2.00
  207.44        3340.25           6720           2.00         2.00
  207.47        3340.50           6724           7.00        10.46
  207.50        3340.75           6728           4.00         2.00
  207.52        3341.00           6731           8.00        14.82
  207.55        3341.25           6735           6.00         6.10
  207.58        3341.50           6739           2.00         2.00
  207.61        3341.75           6743           5.00         2.00
  207.63        3342.00           6746           8.00        14.82
  207.66        3342.25           6750           8.00        14.82
  207.69        3342.50           6754           0.00         2.00
  207.71        3342.75           6758           0.00         2.00
  207.74        3343.00           6761           4.00         2.00
  207.77        3343.25           6765           8.00        14.82
  207.80        3343.50           6769           0.00         2.00
  207.82        3343.75           6773           6.00         6.10
  207.85        3344.00           6776           0.00         2.00
  207.88        3344.25           6780           2.00         2.00
  207.90        3344.50           6784           2.00         2.00
  207.93        3344.75           6788           7.00        10.46
  207.96        3345.00           6791           5.00         2.00
  207.98        3345.25           6795           5.00         2.00
  208.01        3345.50           6799           7.00        10.46
  208.04        3345.75           6803           8.00        14.82
  208.07        3346.00           6806           6.00         6.10
  208.09        3346.25           6810           7.00        10.46
  208.12        3346.50           6814           6.00         6.10
  208.15        3346.75           6818           5.00         2.00
  208.17        3347.00           6821           7.00        10.46
  208.20        3347.25           6825           6.00         6.10
  208.23        3347.50           6829           6.00         6.10
  208.26        3347.75           6833           6.00         6.10
  208.28        3348.00           6836           4.00         2.00
  208.31        3348.25           6840           8.00        14.82
  208.34        3348.50           6844           3.00         2.00
  208.36        3348.75           6848           2.00         2.00
  208.39        3349.00           6851           5.00         2.00
  208.42        3349.25           6855           8.00        14.82
  208.45        3349.50           6859           4.00         2.00
  208.47        3349.75           6863           8.00        14.82
  208.50        3350.00           6867           5.00         2.00
  208.53        3350.25           6870           7.00        10.46
  208.55        3350.50           6874           5.00         2.00
  208.58        3350.75           6878           1.00         2.00
  208.61        3351.00           6882           8.00        14.82
HL scan finished at 03:29:14
end
