************************************************************
  HL Scan of (1) Internal mercury lamp
************************************************************
Integration time is 0.2294 seconds per sample
dh050417Tamanrasset 22.79-5.529 2.929941pr865
************************************************************
Dead Time -------------------------  2.8E-08 
Number of Cycles Used -------------  4 
Starting Wavelength (Angstroms) ---  3331 
Final Wavelength (Angstoms) -------  3351 
Wavelength Increment (Angstroms) --  .25 
Filter Wheel #1 Position ---------- (1) Ground quartz diffuser (ND=2.32)
Filter Wheel #2 Position ---------- (0) Clear Aperture



************************************************************
HL scan start time = 03:27:46
Dark Count =  3.3 


Time (GMT)  Wavelength (Ang)  Step Number  Raw Counts  Counts/Second

  208.28        3331.00           6581           6.00        11.77
  208.50        3331.25           6585           0.00         2.00
  208.52        3331.50           6589           4.00         3.05
  208.55        3331.75           6593           2.00         2.00
  208.58        3332.00           6596           8.00        20.49
  208.61        3332.25           6600           4.00         3.05
  208.63        3332.50           6604           3.00         2.00
  208.66        3332.75           6608           0.00         2.00
  208.69        3333.00           6611           6.00        11.77
  208.71        3333.25           6615           3.00         2.00
  208.74        3333.50           6619           5.00         7.41
  208.77        3333.75           6623           9.00        24.85
  208.80        3334.00           6626           1.00         2.00
  208.82        3334.25           6630           5.00         7.41
  208.85        3334.50           6634           8.00        20.49
  208.88        3334.75           6638           9.00        24.85
  208.90        3335.00           6641           2.00         2.00
  208.93        3335.25           6645           0.00         2.00
  208.96        3335.50           6649           8.00        20.49
  208.99        3335.75           6653           3.00         2.00
  209.01        3336.00           6656           6.00        11.77
  209.04        3336.25           6660           6.00        11.77
  209.07        3336.50           6664           4.00         3.05
  209.09        3336.75           6668           6.00        11.77
  209.12        3337.00           6671           6.00        11.77
  209.15        3337.25           6675           0.00         2.00
  209.17        3337.50           6679           0.00         2.00
  209.20        3337.75           6683           0.00         2.00
  209.23        3338.00           6686           8.00        20.49
  209.26        3338.25           6690           2.00         2.00
  209.28        3338.50           6694           8.00        20.49
  209.31        3338.75           6698           0.00         2.00
  209.34        3339.00           6701           8.00        20.49
  209.36        3339.25           6705           4.00         3.05
  209.39        3339.50           6709           3.00         2.00
  209.42        3339.75           6713           8.00        20.49
  209.45        3340.00           6716           0.00         2.00
  209.47        3340.25           6720           7.00        16.13
  209.50        3340.50           6724           2.00         2.00
  209.53        3340.75           6728           6.00        11.77
  209.55        3341.00           6731           4.00         3.05
  209.58        3341.25           6735           4.00         3.05
  209.61        3341.50           6739           8.00        20.49
  209.64        3341.75           6743           3.00         2.00
  209.66        3342.00           6746           7.00        16.13
  209.69        3342.25           6750           8.00        20.49
  209.72        3342.50           6754           3.00         2.00
  209.74        3342.75           6758           3.00         2.00
  209.77        3343.00           6761           8.00        20.49
  209.80        3343.25           6765           0.00         2.00
  209.83        3343.50           6769           3.00         2.00
  209.85        3343.75           6773           2.00         2.00
  209.88        3344.00           6776           8.00        20.49
  209.91        3344.25           6780           6.00        11.77
  209.93        3344.50           6784           8.00        20.49
  209.96        3344.75           6788           4.00         3.05
  209.99        3345.00           6791           4.00         3.05
  210.02        3345.25           6795           7.00        16.13
  210.04        3345.50           6799           3.00         2.00
  210.07        3345.75           6803           8.00        20.49
  210.10        3346.00           6806           8.00        20.49
  210.12        3346.25           6810           8.00        20.49
  210.15        3346.50           6814           0.00         2.00
  210.18        3346.75           6818           6.00        11.77
  210.20        3347.00           6821           8.00        20.49
  210.23        3347.25           6825           3.00         2.00
  210.26        3347.50           6829           7.00        16.13
  210.29        3347.75           6833           8.00        20.49
  210.31        3348.00           6836           8.00        20.49
  210.34        3348.25           6840           5.00         7.41
  210.37        3348.50           6844           8.00        20.49
  210.39        3348.75           6848           4.00         3.05
  210.42        3349.00           6851           0.00         2.00
  210.45        3349.25           6855           0.00         2.00
  210.48        3349.50           6859           3.00         2.00
  210.50        3349.75           6863           6.00        11.77
  210.53        3350.00           6867           8.00        20.49
  210.56        3350.25           6870           4.00         3.05
  210.58        3350.50           6874           6.00        11.77
  210.61        3350.75           6878           8.00        20.49
  210.64        3351.00           6882           8.00        20.49
HL scan finished at 03:31:16
end
