************************************************************
  HL Scan of (1) Internal mercury lamp
************************************************************
Integration time is 0.2294 seconds per sample
dh070417Tamanrasset 22.79-5.529 2.970727pr865
************************************************************
Dead Time -------------------------  2.8E-08 
Number of Cycles Used -------------  4 
Starting Wavelength (Angstroms) ---  3331 
Final Wavelength (Angstoms) -------  3351 
Wavelength Increment (Angstroms) --  .25 
Filter Wheel #1 Position ---------- (1) Ground quartz diffuser (ND=2.32)
Filter Wheel #2 Position ---------- (0) Clear Aperture



************************************************************
HL scan start time = 03:25:43
Dark Count =  4.9 


Time (GMT)  Wavelength (Ang)  Step Number  Raw Counts  Counts/Second

  206.23        3331.00           6581           8.00        13.51
  206.45        3331.25           6585           5.00         2.00
  206.48        3331.50           6589           2.00         2.00
  206.51        3331.75           6593           0.00         2.00
  206.53        3332.00           6596           3.00         2.00
  206.56        3332.25           6600           6.00         4.80
  206.59        3332.50           6604           8.00        13.51
  206.61        3332.75           6608           4.00         2.00
  206.64        3333.00           6611           0.00         2.00
  206.67        3333.25           6615           7.00         9.15
  206.70        3333.50           6619           3.00         2.00
  206.72        3333.75           6623           2.00         2.00
  206.75        3334.00           6626           8.00        13.51
  206.78        3334.25           6630           8.00        13.51
  206.80        3334.50           6634           7.00         9.15
  206.83        3334.75           6638           8.00        13.51
  206.86        3335.00           6641           7.00         9.15
  206.89        3335.25           6645           5.00         2.00
  206.91        3335.50           6649           5.00         2.00
  206.94        3335.75           6653           5.00         2.00
  206.97        3336.00           6656           0.00         2.00
  206.99        3336.25           6660           6.00         4.80
  207.02        3336.50           6664           5.00         2.00
  207.05        3336.75           6668           4.00         2.00
  207.07        3337.00           6671           6.00         4.80
  207.10        3337.25           6675           4.00         2.00
  207.13        3337.50           6679           3.00         2.00
  207.16        3337.75           6683           5.00         2.00
  207.18        3338.00           6686           0.00         2.00
  207.21        3338.25           6690           6.00         4.80
  207.24        3338.50           6694           6.00         4.80
  207.27        3338.75           6698           5.00         2.00
  207.29        3339.00           6701           2.00         2.00
  207.32        3339.25           6705           8.00        13.51
  207.35        3339.50           6709           0.00         2.00
  207.37        3339.75           6713           0.00         2.00
  207.40        3340.00           6716           7.00         9.15
  207.43        3340.25           6720           8.00        13.51
  207.46        3340.50           6724           4.00         2.00
  207.48        3340.75           6728           0.00         2.00
  207.51        3341.00           6731           0.00         2.00
  207.54        3341.25           6735           8.00        13.51
  207.56        3341.50           6739           8.00        13.51
  207.59        3341.75           6743           8.00        13.51
  207.62        3342.00           6746           7.00         9.15
  207.64        3342.25           6750           8.00        13.51
  207.67        3342.50           6754           7.00         9.15
  207.70        3342.75           6758           4.00         2.00
  207.73        3343.00           6761           0.00         2.00
  207.75        3343.25           6765           5.00         2.00
  207.78        3343.50           6769           8.00        13.51
  207.81        3343.75           6773           1.00         2.00
  207.84        3344.00           6776           1.00         2.00
  207.86        3344.25           6780           4.00         2.00
  207.89        3344.50           6784           3.00         2.00
  207.92        3344.75           6788           5.00         2.00
  207.94        3345.00           6791           3.00         2.00
  207.97        3345.25           6795           2.00         2.00
  208.00        3345.50           6799           2.00         2.00
  208.03        3345.75           6803           1.00         2.00
  208.05        3346.00           6806           8.00        13.51
  208.08        3346.25           6810           0.00         2.00
  208.11        3346.50           6814           3.00         2.00
  208.13        3346.75           6818           9.00        17.87
  208.16        3347.00           6821           1.00         2.00
  208.19        3347.25           6825           4.00         2.00
  208.21        3347.50           6829           1.00         2.00
  208.24        3347.75           6833           6.00         4.80
  208.27        3348.00           6836           2.00         2.00
  208.30        3348.25           6840           7.00         9.15
  208.32        3348.50           6844           8.00        13.51
  208.35        3348.75           6848           8.00        13.51
  208.38        3349.00           6851           8.00        13.51
  208.40        3349.25           6855           8.00        13.51
  208.43        3349.50           6859           4.00         2.00
  208.46        3349.75           6863           2.00         2.00
  208.49        3350.00           6867           5.00         2.00
  208.51        3350.25           6870           5.00         2.00
  208.54        3350.50           6874           0.00         2.00
  208.57        3350.75           6878           4.00         2.00
  208.59        3351.00           6882           5.00         2.00
HL scan finished at 03:29:13
end
