************************************************************
  HL Scan of (1) Internal mercury lamp
************************************************************
Integration time is 0.2294 seconds per sample
dh090419Tamanrasset 22.79-5.529 4.974364pr865
************************************************************
Dead Time -------------------------  2.8E-08 
Number of Cycles Used -------------  4 
Starting Wavelength (Angstroms) ---  3331 
Final Wavelength (Angstoms) -------  3351 
Wavelength Increment (Angstroms) --  .25 
Filter Wheel #1 Position ---------- (1) Ground quartz diffuser (ND=2.32)
Filter Wheel #2 Position ---------- (0) Clear Aperture



************************************************************
HL scan start time = 03:53:15
Dark Count =  2.2 


Time (GMT)  Wavelength (Ang)  Step Number  Raw Counts  Counts/Second

  233.77        3331.00           6581          25.00        99.39
  233.99        3331.25           6585          22.00        86.31
  234.02        3331.50           6589          28.00       112.47
  234.04        3331.75           6593          31.00       125.55
  234.07        3332.00           6596          29.00       116.83
  234.10        3332.25           6600          24.00        95.03
  234.12        3332.50           6604          32.00       129.90
  234.15        3332.75           6608          27.00       108.11
  234.18        3333.00           6611          27.00       108.11
  234.21        3333.25           6615          27.00       108.11
  234.23        3333.50           6619          29.00       116.83
  234.26        3333.75           6623          30.00       121.19
  234.29        3334.00           6626          20.00        77.59
  234.31        3334.25           6630          27.00       108.11
  234.34        3334.50           6634          28.00       112.47
  234.37        3334.75           6638          31.00       125.55
  234.40        3335.00           6641          31.00       125.55
  234.42        3335.25           6645          36.00       147.34
  234.45        3335.50           6649          36.00       147.34
  234.48        3335.75           6653          43.00       177.86
  234.50        3336.00           6656          84.00       356.59
  234.53        3336.25           6660         245.00      1058.44
  234.56        3336.50           6664         562.00      2440.45
  234.59        3336.75           6668        1029.00      4476.59
  234.61        3337.00           6671        1677.00      7302.28
  234.64        3337.25           6675        2850.00     12418.44
  234.67        3337.50           6679        4230.00     18439.33
  234.70        3337.75           6683        5655.00     24658.69
  234.72        3338.00           6686        6651.00     29006.99
  234.75        3338.25           6690        8055.00     35138.31
  234.78        3338.50           6694        9482.00     41372.22
  234.80        3338.75           6698       10917.00     47643.29
  234.83        3339.00           6701       12016.00     52447.50
  234.86        3339.25           6705       13400.00     58499.41
  234.89        3339.50           6709       14849.00     64837.74
  234.91        3339.75           6713       16090.00     70268.03
  234.94        3340.00           6716       17156.00     74933.87
  234.97        3340.25           6720       18673.00     81575.85
  235.00        3340.50           6724       20147.00     88031.90
  235.02        3340.75           6728       21403.00     93534.97
  235.05        3341.00           6731       22448.00     98114.86
  235.08        3341.25           6735       23572.00    103042.30
  235.10        3341.50           6739       24128.00    105480.20
  235.13        3341.75           6743       24508.00    107146.60
  235.16        3342.00           6746       24423.00    106773.90
  235.19        3342.25           6750       24100.00    105357.40
  235.21        3342.50           6754       23010.00    100578.40
  235.24        3342.75           6758       21684.00     94766.38
  235.27        3343.00           6761       20562.00     89850.01
  235.30        3343.25           6765       19520.00     85285.38
  235.32        3343.50           6769       17972.00     78506.31
  235.35        3343.75           6773       16573.00     72381.95
  235.38        3344.00           6776       15308.00     66846.02
  235.40        3344.25           6780       14082.00     61482.39
  235.43        3344.50           6784       12581.00     54917.87
  235.46        3344.75           6788       11219.00     48963.33
  235.49        3345.00           6791       10070.00     43941.56
  235.51        3345.25           6795        8509.00     37121.39
  235.54        3345.50           6799        6667.00     29076.85
  235.57        3345.75           6803        4928.00     21485.46
  235.60        3346.00           6806        3869.00     16864.11
  235.62        3346.25           6810        2843.00     12387.91
  235.65        3346.50           6814        2068.00      9007.50
  235.68        3346.75           6818        1266.00      5510.00
  235.70        3347.00           6821         643.00      2793.59
  235.73        3347.25           6825         196.00       844.83
  235.76        3347.50           6829          48.00       199.65
  235.79        3347.75           6833          30.00       121.19
  235.81        3348.00           6836          33.00       134.26
  235.84        3348.25           6840          32.00       129.90
  235.87        3348.50           6844          27.00       108.11
  235.89        3348.75           6848          29.00       116.83
  235.92        3349.00           6851          25.00        99.39
  235.95        3349.25           6855          28.00       112.47
  235.98        3349.50           6859          29.00       116.83
  236.00        3349.75           6863          26.00       103.75
  236.03        3350.00           6867          32.00       129.90
  236.06        3350.25           6870          26.00       103.75
  236.08        3350.50           6874          32.00       129.90
  236.11        3350.75           6878          27.00       108.11
  236.14        3351.00           6882          27.00       108.11
HL scan finished at 03:56:46
end
