************************************************************
  HL Scan of (1) Internal mercury lamp
************************************************************
Integration time is 0.2294 seconds per sample
dh060417Tamanrasset 22.79-5.529 3.02171pr865
************************************************************
Dead Time -------------------------  2.8E-08 
Number of Cycles Used -------------  4 
Starting Wavelength (Angstroms) ---  3331 
Final Wavelength (Angstoms) -------  3351 
Wavelength Increment (Angstroms) --  .25 
Filter Wheel #1 Position ---------- (1) Ground quartz diffuser (ND=2.32)
Filter Wheel #2 Position ---------- (0) Clear Aperture



************************************************************
HL scan start time = 03:26:46
Dark Count =  4.3 


Time (GMT)  Wavelength (Ang)  Step Number  Raw Counts  Counts/Second

  207.28        3331.00           6581           2.00         2.00
  207.49        3331.25           6585           3.00         2.00
  207.52        3331.50           6589           8.00        16.13
  207.55        3331.75           6593           5.00         3.05
  207.58        3332.00           6596           4.00         2.00
  207.60        3332.25           6600           5.00         3.05
  207.63        3332.50           6604           8.00        16.13
  207.66        3332.75           6608           1.00         2.00
  207.68        3333.00           6611           4.00         2.00
  207.71        3333.25           6615           5.00         3.05
  207.74        3333.50           6619           8.00        16.13
  207.77        3333.75           6623           3.00         2.00
  207.79        3334.00           6626           6.00         7.41
  207.82        3334.25           6630           5.00         3.05
  207.85        3334.50           6634           7.00        11.77
  207.87        3334.75           6638           8.00        16.13
  207.90        3335.00           6641           3.00         2.00
  207.93        3335.25           6645           7.00        11.77
  207.96        3335.50           6649           8.00        16.13
  207.98        3335.75           6653           9.00        20.49
  208.01        3336.00           6656           2.00         2.00
  208.04        3336.25           6660           8.00        16.13
  208.06        3336.50           6664           0.00         2.00
  208.09        3336.75           6668           3.00         2.00
  208.12        3337.00           6671           4.00         2.00
  208.15        3337.25           6675           6.00         7.41
  208.17        3337.50           6679           1.00         2.00
  208.20        3337.75           6683           6.00         7.41
  208.23        3338.00           6686           2.00         2.00
  208.25        3338.25           6690           6.00         7.41
  208.28        3338.50           6694           6.00         7.41
  208.31        3338.75           6698           7.00        11.77
  208.34        3339.00           6701           3.00         2.00
  208.36        3339.25           6705           6.00         7.41
  208.39        3339.50           6709           5.00         3.05
  208.42        3339.75           6713           6.00         7.41
  208.44        3340.00           6716           0.00         2.00
  208.47        3340.25           6720           7.00        11.77
  208.50        3340.50           6724           1.00         2.00
  208.52        3340.75           6728           5.00         3.05
  208.55        3341.00           6731           4.00         2.00
  208.58        3341.25           6735           6.00         7.41
  208.61        3341.50           6739           8.00        16.13
  208.63        3341.75           6743           0.00         2.00
  208.66        3342.00           6746           3.00         2.00
  208.69        3342.25           6750           7.00        11.77
  208.71        3342.50           6754           5.00         3.05
  208.74        3342.75           6758           5.00         3.05
  208.77        3343.00           6761           7.00        11.77
  208.80        3343.25           6765           5.00         3.05
  208.82        3343.50           6769           4.00         2.00
  208.85        3343.75           6773           6.00         7.41
  208.88        3344.00           6776           7.00        11.77
  208.90        3344.25           6780           9.00        20.49
  208.93        3344.50           6784           3.00         2.00
  208.96        3344.75           6788           2.00         2.00
  208.99        3345.00           6791           4.00         2.00
  209.01        3345.25           6795           6.00         7.41
  209.04        3345.50           6799           5.00         3.05
  209.07        3345.75           6803           5.00         3.05
  209.09        3346.00           6806           1.00         2.00
  209.12        3346.25           6810           8.00        16.13
  209.15        3346.50           6814           4.00         2.00
  209.17        3346.75           6818           3.00         2.00
  209.20        3347.00           6821           0.00         2.00
  209.23        3347.25           6825           3.00         2.00
  209.26        3347.50           6829           7.00        11.77
  209.28        3347.75           6833           4.00         2.00
  209.31        3348.00           6836           7.00        11.77
  209.34        3348.25           6840           4.00         2.00
  209.36        3348.50           6844           8.00        16.13
  209.39        3348.75           6848           0.00         2.00
  209.42        3349.00           6851           6.00         7.41
  209.45        3349.25           6855           2.00         2.00
  209.47        3349.50           6859           3.00         2.00
  209.50        3349.75           6863           0.00         2.00
  209.53        3350.00           6867           1.00         2.00
  209.55        3350.25           6870           7.00        11.77
  209.58        3350.50           6874           7.00        11.77
  209.61        3350.75           6878           3.00         2.00
  209.64        3351.00           6882           2.00         2.00
HL scan finished at 03:30:15
end
