************************************************************
  HL Scan of (1) Internal mercury lamp
************************************************************
Integration time is 0.2294 seconds per sample
dh080419Tamanrasset 22.79-5.529 4.974364pr865
************************************************************
Dead Time -------------------------  2.8E-08 
Number of Cycles Used -------------  4 
Starting Wavelength (Angstroms) ---  3331 
Final Wavelength (Angstoms) -------  3351 
Wavelength Increment (Angstroms) --  .25 
Filter Wheel #1 Position ---------- (1) Ground quartz diffuser (ND=2.32)
Filter Wheel #2 Position ---------- (0) Clear Aperture



************************************************************
HL scan start time = 03:53:46
Dark Count =  3.5 


Time (GMT)  Wavelength (Ang)  Step Number  Raw Counts  Counts/Second

  234.28        3331.00           6581          26.00        98.08
  234.50        3331.25           6585          35.00       137.32
  234.53        3331.50           6589          29.00       111.16
  234.55        3331.75           6593          28.00       106.80
  234.58        3332.00           6596          28.00       106.80
  234.61        3332.25           6600          33.00       128.60
  234.64        3332.50           6604          29.00       111.16
  234.66        3332.75           6608          31.00       119.88
  234.69        3333.00           6611          30.00       115.52
  234.72        3333.25           6615          27.00       102.44
  234.75        3333.50           6619          25.00        93.72
  234.77        3333.75           6623          35.00       137.32
  234.80        3334.00           6626          31.00       119.88
  234.83        3334.25           6630          28.00       106.80
  234.85        3334.50           6634          30.00       115.52
  234.88        3334.75           6638          31.00       119.88
  234.91        3335.00           6641          25.00        93.72
  234.94        3335.25           6645          32.00       124.24
  234.96        3335.50           6649          33.00       128.60
  234.99        3335.75           6653          32.00       124.24
  235.02        3336.00           6656          66.00       272.45
  235.04        3336.25           6660         195.00       834.81
  235.07        3336.50           6664         438.00      1894.17
  235.10        3336.75           6668         783.00      3398.32
  235.13        3337.00           6671        1340.00      5827.02
  235.15        3337.25           6675        2494.00     10859.89
  235.18        3337.50           6679        3758.00     16374.12
  235.21        3337.75           6683        5046.00     21994.80
  235.23        3338.00           6686        6006.00     26185.28
  235.26        3338.25           6690        7474.00     32595.12
  235.29        3338.50           6694        8703.00     37963.18
  235.32        3338.75           6698       10044.00     43822.26
  235.34        3339.00           6701       11099.00     48433.12
  235.37        3339.25           6705       12370.00     53989.58
  235.40        3339.50           6709       13780.00     60155.73
  235.43        3339.75           6713       15069.00     65794.60
  235.45        3340.00           6716       16165.00     70590.57
  235.48        3340.25           6720       17465.00     76280.88
  235.51        3340.50           6724       18708.00     81723.41
  235.54        3340.75           6728       20055.00     87623.18
  235.56        3341.00           6731       20901.00     91329.59
  235.59        3341.25           6735       22156.00     96829.30
  235.62        3341.50           6739       22870.00     99958.98
  235.65        3341.75           6743       23179.00    101313.60
  235.67        3342.00           6746       23246.00    101607.30
  235.70        3342.25           6750       22915.00    100156.30
  235.73        3342.50           6754       22184.00     96952.03
  235.75        3342.75           6758       20814.00     90948.40
  235.78        3343.00           6761       19923.00     87044.94
  235.81        3343.25           6765       18736.00     81846.03
  235.84        3343.50           6769       17377.00     75895.63
  235.86        3343.75           6773       16020.00     69955.99
  235.89        3344.00           6776       15073.00     65812.10
  235.92        3344.25           6780       13812.00     60295.69
  235.95        3344.50           6784       12354.00     53919.62
  235.97        3344.75           6788       10992.00     47965.42
  236.00        3345.00           6791        9970.00     43498.89
  236.03        3345.25           6795        8421.00     36731.31
  236.06        3345.50           6799        6886.00     30027.42
  236.08        3345.75           6803        5289.00     23055.42
  236.11        3346.00           6806        4111.00     17914.39
  236.14        3346.25           6810        2984.00     12997.32
  236.16        3346.50           6814        2104.00      9158.84
  236.19        3346.75           6818        1488.00      6472.40
  236.22        3347.00           6821         874.00      3795.09
  236.25        3347.25           6825         293.00      1262.03
  236.27        3347.50           6829          63.00       259.37
  236.30        3347.75           6833          29.00       111.16
  236.33        3348.00           6836          32.00       124.24
  236.35        3348.25           6840          33.00       128.60
  236.38        3348.50           6844          28.00       106.80
  236.41        3348.75           6848          34.00       132.96
  236.44        3349.00           6851          28.00       106.80
  236.46        3349.25           6855          27.00       102.44
  236.49        3349.50           6859          23.00        85.00
  236.52        3349.75           6863          26.00        98.08
  236.54        3350.00           6867          32.00       124.24
  236.57        3350.25           6870          35.00       137.32
  236.60        3350.50           6874          31.00       119.88
  236.63        3350.75           6878          31.00       119.88
  236.65        3351.00           6882          32.00       124.24
HL scan finished at 03:57:17
end
