************************************************************
  HL Scan of (1) Internal mercury lamp
************************************************************
Integration time is 0.2294 seconds per sample
dh010417Tamanrasset 22.79-5.529 2.802483pr865
************************************************************
Dead Time -------------------------  2.8E-08 
Number of Cycles Used -------------  4 
Starting Wavelength (Angstroms) ---  3331 
Final Wavelength (Angstoms) -------  3351 
Wavelength Increment (Angstroms) --  .25 
Filter Wheel #1 Position ---------- (1) Ground quartz diffuser (ND=2.32)
Filter Wheel #2 Position ---------- (0) Clear Aperture



************************************************************
HL scan start time = 03:31:43
Dark Count =  4 


Time (GMT)  Wavelength (Ang)  Step Number  Raw Counts  Counts/Second

  212.23        3331.00           6581           3.00         2.00
  212.45        3331.25           6585           6.00         8.72
  212.48        3331.50           6589           8.00        17.44
  212.50        3331.75           6593           0.00         2.00
  212.53        3332.00           6596           8.00        17.44
  212.56        3332.25           6600           1.00         2.00
  212.59        3332.50           6604           8.00        17.44
  212.61        3332.75           6608           4.00         2.00
  212.64        3333.00           6611           0.00         2.00
  212.67        3333.25           6615           7.00        13.08
  212.69        3333.50           6619           0.00         2.00
  212.72        3333.75           6623           7.00        13.08
  212.75        3334.00           6626           2.00         2.00
  212.77        3334.25           6630           0.00         2.00
  212.80        3334.50           6634           8.00        17.44
  212.83        3334.75           6638           2.00         2.00
  212.86        3335.00           6641           2.00         2.00
  212.88        3335.25           6645           0.00         2.00
  212.91        3335.50           6649           3.00         2.00
  212.94        3335.75           6653           3.00         2.00
  212.96        3336.00           6656           8.00        17.44
  212.99        3336.25           6660           5.00         4.36
  213.02        3336.50           6664           7.00        13.08
  213.05        3336.75           6668           0.00         2.00
  213.07        3337.00           6671           1.00         2.00
  213.10        3337.25           6675           4.00         2.00
  213.13        3337.50           6679           5.00         4.36
  213.15        3337.75           6683           6.00         8.72
  213.18        3338.00           6686           3.00         2.00
  213.21        3338.25           6690           6.00         8.72
  213.24        3338.50           6694           8.00        17.44
  213.26        3338.75           6698           6.00         8.72
  213.29        3339.00           6701           0.00         2.00
  213.32        3339.25           6705           8.00        17.44
  213.34        3339.50           6709           8.00        17.44
  213.37        3339.75           6713           8.00        17.44
  213.40        3340.00           6716           2.00         2.00
  213.43        3340.25           6720           0.00         2.00
  213.45        3340.50           6724           6.00         8.72
  213.48        3340.75           6728           8.00        17.44
  213.51        3341.00           6731           8.00        17.44
  213.53        3341.25           6735           7.00        13.08
  213.56        3341.50           6739           8.00        17.44
  213.59        3341.75           6743           4.00         2.00
  213.61        3342.00           6746           6.00         8.72
  213.64        3342.25           6750           1.00         2.00
  213.67        3342.50           6754           8.00        17.44
  213.70        3342.75           6758           0.00         2.00
  213.72        3343.00           6761           5.00         4.36
  213.75        3343.25           6765           8.00        17.44
  213.78        3343.50           6769           8.00        17.44
  213.80        3343.75           6773           8.00        17.44
  213.83        3344.00           6776           8.00        17.44
  213.86        3344.25           6780           2.00         2.00
  213.89        3344.50           6784           3.00         2.00
  213.91        3344.75           6788           0.00         2.00
  213.94        3345.00           6791           0.00         2.00
  213.97        3345.25           6795           3.00         2.00
  214.00        3345.50           6799           8.00        17.44
  214.02        3345.75           6803           2.00         2.00
  214.05        3346.00           6806           0.00         2.00
  214.08        3346.25           6810           2.00         2.00
  214.10        3346.50           6814           8.00        17.44
  214.13        3346.75           6818           1.00         2.00
  214.16        3347.00           6821           7.00        13.08
  214.19        3347.25           6825           3.00         2.00
  214.21        3347.50           6829           3.00         2.00
  214.24        3347.75           6833           7.00        13.08
  214.27        3348.00           6836           8.00        17.44
  214.29        3348.25           6840           1.00         2.00
  214.32        3348.50           6844           5.00         4.36
  214.35        3348.75           6848           5.00         4.36
  214.38        3349.00           6851           6.00         8.72
  214.40        3349.25           6855           4.00         2.00
  214.43        3349.50           6859           5.00         4.36
  214.46        3349.75           6863           0.00         2.00
  214.48        3350.00           6867           8.00        17.44
  214.51        3350.25           6870           8.00        17.44
  214.54        3350.50           6874           8.00        17.44
  214.56        3350.75           6878           0.00         2.00
  214.59        3351.00           6882           1.00         2.00
HL scan finished at 03:35:13
end
