************************************************************
  HL Scan of (1) Internal mercury lamp
************************************************************
Integration time is 0.2294 seconds per sample
dh030417Tamanrasset 22.79-5.529 2.756598pr865
************************************************************
Dead Time -------------------------  2.8E-08 
Number of Cycles Used -------------  4 
Starting Wavelength (Angstroms) ---  3331 
Final Wavelength (Angstoms) -------  3351 
Wavelength Increment (Angstroms) --  .25 
Filter Wheel #1 Position ---------- (1) Ground quartz diffuser (ND=2.32)
Filter Wheel #2 Position ---------- (0) Clear Aperture



************************************************************
HL scan start time = 03:29:57
Dark Count =  4.4 


Time (GMT)  Wavelength (Ang)  Step Number  Raw Counts  Counts/Second

  210.47        3331.00           6581           5.00         2.62
  210.68        3331.25           6585           0.00         2.00
  210.71        3331.50           6589           0.00         2.00
  210.74        3331.75           6593           8.00        15.69
  210.77        3332.00           6596           8.00        15.69
  210.79        3332.25           6600           4.00         2.00
  210.82        3332.50           6604           0.00         2.00
  210.85        3332.75           6608           0.00         2.00
  210.87        3333.00           6611           5.00         2.62
  210.90        3333.25           6615           5.00         2.62
  210.93        3333.50           6619           3.00         2.00
  210.96        3333.75           6623           3.00         2.00
  210.98        3334.00           6626           0.00         2.00
  211.01        3334.25           6630           0.00         2.00
  211.04        3334.50           6634           2.00         2.00
  211.06        3334.75           6638           1.00         2.00
  211.09        3335.00           6641           5.00         2.62
  211.12        3335.25           6645           0.00         2.00
  211.15        3335.50           6649           1.00         2.00
  211.17        3335.75           6653           0.00         2.00
  211.20        3336.00           6656           0.00         2.00
  211.23        3336.25           6660           8.00        15.69
  211.25        3336.50           6664           1.00         2.00
  211.28        3336.75           6668           8.00        15.69
  211.31        3337.00           6671           6.00         6.97
  211.34        3337.25           6675           0.00         2.00
  211.36        3337.50           6679           8.00        15.69
  211.39        3337.75           6683           0.00         2.00
  211.42        3338.00           6686           7.00        11.33
  211.44        3338.25           6690           0.00         2.00
  211.47        3338.50           6694           8.00        15.69
  211.50        3338.75           6698           0.00         2.00
  211.52        3339.00           6701           8.00        15.69
  211.55        3339.25           6705           1.00         2.00
  211.58        3339.50           6709           3.00         2.00
  211.61        3339.75           6713           6.00         6.97
  211.63        3340.00           6716           8.00        15.69
  211.66        3340.25           6720           6.00         6.97
  211.69        3340.50           6724           0.00         2.00
  211.71        3340.75           6728           8.00        15.69
  211.74        3341.00           6731           3.00         2.00
  211.77        3341.25           6735           5.00         2.62
  211.80        3341.50           6739           0.00         2.00
  211.82        3341.75           6743           0.00         2.00
  211.85        3342.00           6746           0.00         2.00
  211.88        3342.25           6750           3.00         2.00
  211.90        3342.50           6754           0.00         2.00
  211.93        3342.75           6758           8.00        15.69
  211.96        3343.00           6761           5.00         2.62
  211.99        3343.25           6765           4.00         2.00
  212.01        3343.50           6769           8.00        15.69
  212.04        3343.75           6773           5.00         2.62
  212.07        3344.00           6776           4.00         2.00
  212.09        3344.25           6780           8.00        15.69
  212.12        3344.50           6784           4.00         2.00
  212.15        3344.75           6788           8.00        15.69
  212.18        3345.00           6791           3.00         2.00
  212.20        3345.25           6795           8.00        15.69
  212.23        3345.50           6799           0.00         2.00
  212.26        3345.75           6803           3.00         2.00
  212.28        3346.00           6806           0.00         2.00
  212.31        3346.25           6810           8.00        15.69
  212.34        3346.50           6814           3.00         2.00
  212.36        3346.75           6818           1.00         2.00
  212.39        3347.00           6821           8.00        15.69
  212.42        3347.25           6825           8.00        15.69
  212.45        3347.50           6829           8.00        15.69
  212.47        3347.75           6833           6.00         6.97
  212.50        3348.00           6836           4.00         2.00
  212.53        3348.25           6840           8.00        15.69
  212.55        3348.50           6844           6.00         6.97
  212.58        3348.75           6848           8.00        15.69
  212.61        3349.00           6851           1.00         2.00
  212.64        3349.25           6855           8.00        15.69
  212.66        3349.50           6859           8.00        15.69
  212.69        3349.75           6863           4.00         2.00
  212.72        3350.00           6867           4.00         2.00
  212.74        3350.25           6870           0.00         2.00
  212.77        3350.50           6874           0.00         2.00
  212.80        3350.75           6878           7.00        11.33
  212.83        3351.00           6882           0.00         2.00
HL scan finished at 03:33:27
end
