************************************************************
  HL Scan of (1) Internal mercury lamp
************************************************************
Integration time is 0.2294 seconds per sample
dh040417Tamanrasset 22.79-5.529 2.833073pr865
************************************************************
Dead Time -------------------------  2.8E-08 
Number of Cycles Used -------------  4 
Starting Wavelength (Angstroms) ---  3331 
Final Wavelength (Angstoms) -------  3351 
Wavelength Increment (Angstroms) --  .25 
Filter Wheel #1 Position ---------- (1) Ground quartz diffuser (ND=2.32)
Filter Wheel #2 Position ---------- (0) Clear Aperture



************************************************************
HL scan start time = 03:28:47
Dark Count =  5 


Time (GMT)  Wavelength (Ang)  Step Number  Raw Counts  Counts/Second

  209.29        3331.00           6581           8.00        13.08
  209.51        3331.25           6585           4.00         2.00
  209.53        3331.50           6589           4.00         2.00
  209.56        3331.75           6593           9.00        17.44
  209.59        3332.00           6596           8.00        13.08
  209.62        3332.25           6600           1.00         2.00
  209.64        3332.50           6604           4.00         2.00
  209.67        3332.75           6608           8.00        13.08
  209.70        3333.00           6611           0.00         2.00
  209.72        3333.25           6615           1.00         2.00
  209.75        3333.50           6619           8.00        13.08
  209.78        3333.75           6623           8.00        13.08
  209.81        3334.00           6626           3.00         2.00
  209.83        3334.25           6630           1.00         2.00
  209.86        3334.50           6634           8.00        13.08
  209.89        3334.75           6638           0.00         2.00
  209.91        3335.00           6641           7.00         8.72
  209.94        3335.25           6645           3.00         2.00
  209.97        3335.50           6649           8.00        13.08
  210.00        3335.75           6653           6.00         4.36
  210.02        3336.00           6656           0.00         2.00
  210.05        3336.25           6660           3.00         2.00
  210.08        3336.50           6664           6.00         4.36
  210.10        3336.75           6668           6.00         4.36
  210.13        3337.00           6671           1.00         2.00
  210.16        3337.25           6675           7.00         8.72
  210.19        3337.50           6679           6.00         4.36
  210.21        3337.75           6683           8.00        13.08
  210.24        3338.00           6686           0.00         2.00
  210.27        3338.25           6690           2.00         2.00
  210.29        3338.50           6694           8.00        13.08
  210.32        3338.75           6698           7.00         8.72
  210.35        3339.00           6701           8.00        13.08
  210.38        3339.25           6705           8.00        13.08
  210.40        3339.50           6709           2.00         2.00
  210.43        3339.75           6713           7.00         8.72
  210.46        3340.00           6716           5.00         2.00
  210.48        3340.25           6720           8.00        13.08
  210.51        3340.50           6724           5.00         2.00
  210.54        3340.75           6728           6.00         4.36
  210.57        3341.00           6731           8.00        13.08
  210.59        3341.25           6735           3.00         2.00
  210.62        3341.50           6739           0.00         2.00
  210.65        3341.75           6743           0.00         2.00
  210.67        3342.00           6746           6.00         4.36
  210.70        3342.25           6750           7.00         8.72
  210.73        3342.50           6754           3.00         2.00
  210.76        3342.75           6758           4.00         2.00
  210.78        3343.00           6761           4.00         2.00
  210.81        3343.25           6765           4.00         2.00
  210.84        3343.50           6769           1.00         2.00
  210.86        3343.75           6773           6.00         4.36
  210.89        3344.00           6776           0.00         2.00
  210.92        3344.25           6780           5.00         2.00
  210.94        3344.50           6784           1.00         2.00
  210.97        3344.75           6788           8.00        13.08
  211.00        3345.00           6791           8.00        13.08
  211.03        3345.25           6795           0.00         2.00
  211.05        3345.50           6799           0.00         2.00
  211.08        3345.75           6803           0.00         2.00
  211.11        3346.00           6806           0.00         2.00
  211.13        3346.25           6810           8.00        13.08
  211.16        3346.50           6814           0.00         2.00
  211.19        3346.75           6818           8.00        13.08
  211.22        3347.00           6821           0.00         2.00
  211.24        3347.25           6825           3.00         2.00
  211.27        3347.50           6829           8.00        13.08
  211.30        3347.75           6833           5.00         2.00
  211.32        3348.00           6836           3.00         2.00
  211.35        3348.25           6840           2.00         2.00
  211.38        3348.50           6844           6.00         4.36
  211.41        3348.75           6848           1.00         2.00
  211.43        3349.00           6851           3.00         2.00
  211.46        3349.25           6855           8.00        13.08
  211.49        3349.50           6859           8.00        13.08
  211.51        3349.75           6863           8.00        13.08
  211.54        3350.00           6867           1.00         2.00
  211.57        3350.25           6870           7.00         8.72
  211.60        3350.50           6874           1.00         2.00
  211.62        3350.75           6878           0.00         2.00
  211.65        3351.00           6882           0.00         2.00
HL scan finished at 03:32:16
end
