************************************************************
  HL Scan of (1) Internal mercury lamp
************************************************************
Integration time is 0.2294 seconds per sample
dh190417Tamanrasset 22.79-5.529 2.838171pr865
************************************************************
Dead Time -------------------------  2.8E-08 
Number of Cycles Used -------------  4 
Starting Wavelength (Angstroms) ---  3331 
Final Wavelength (Angstoms) -------  3351 
Wavelength Increment (Angstroms) --  .25 
Filter Wheel #1 Position ---------- (1) Ground quartz diffuser (ND=2.32)
Filter Wheel #2 Position ---------- (0) Clear Aperture



************************************************************
HL scan start time = 03:15:48
Dark Count =  4.5 


Time (GMT)  Wavelength (Ang)  Step Number  Raw Counts  Counts/Second

  196.31        3331.00           6581           8.00        15.26
  196.53        3331.25           6585           8.00        15.26
  196.56        3331.50           6589           7.00        10.90
  196.58        3331.75           6593           0.00         2.00
  196.61        3332.00           6596           8.00        15.26
  196.64        3332.25           6600           2.00         2.00
  196.67        3332.50           6604           8.00        15.26
  196.69        3332.75           6608           5.00         2.18
  196.72        3333.00           6611           8.00        15.26
  196.75        3333.25           6615           6.00         6.54
  196.77        3333.50           6619           4.00         2.00
  196.80        3333.75           6623           3.00         2.00
  196.83        3334.00           6626           0.00         2.00
  196.86        3334.25           6630           3.00         2.00
  196.88        3334.50           6634           0.00         2.00
  196.91        3334.75           6638           4.00         2.00
  196.94        3335.00           6641           6.00         6.54
  196.97        3335.25           6645           0.00         2.00
  196.99        3335.50           6649           0.00         2.00
  197.02        3335.75           6653           3.00         2.00
  197.05        3336.00           6656           1.00         2.00
  197.07        3336.25           6660           8.00        15.26
  197.10        3336.50           6664           8.00        15.26
  197.13        3336.75           6668           4.00         2.00
  197.16        3337.00           6671           8.00        15.26
  197.18        3337.25           6675           4.00         2.00
  197.21        3337.50           6679           8.00        15.26
  197.24        3337.75           6683           3.00         2.00
  197.26        3338.00           6686           4.00         2.00
  197.29        3338.25           6690           2.00         2.00
  197.32        3338.50           6694           6.00         6.54
  197.35        3338.75           6698           0.00         2.00
  197.37        3339.00           6701           5.00         2.18
  197.40        3339.25           6705           0.00         2.00
  197.43        3339.50           6709           5.00         2.18
  197.46        3339.75           6713           8.00        15.26
  197.48        3340.00           6716           8.00        15.26
  197.51        3340.25           6720           6.00         6.54
  197.54        3340.50           6724           8.00        15.26
  197.56        3340.75           6728           0.00         2.00
  197.59        3341.00           6731           8.00        15.26
  197.62        3341.25           6735           2.00         2.00
  197.65        3341.50           6739           3.00         2.00
  197.67        3341.75           6743           7.00        10.90
  197.70        3342.00           6746           0.00         2.00
  197.73        3342.25           6750           0.00         2.00
  197.76        3342.50           6754           4.00         2.00
  197.78        3342.75           6758           2.00         2.00
  197.81        3343.00           6761           0.00         2.00
  197.84        3343.25           6765           3.00         2.00
  197.86        3343.50           6769           6.00         6.54
  197.89        3343.75           6773           8.00        15.26
  197.92        3344.00           6776           0.00         2.00
  197.95        3344.25           6780           8.00        15.26
  197.97        3344.50           6784           0.00         2.00
  198.00        3344.75           6788           0.00         2.00
  198.03        3345.00           6791           3.00         2.00
  198.05        3345.25           6795           1.00         2.00
  198.08        3345.50           6799           6.00         6.54
  198.11        3345.75           6803           1.00         2.00
  198.14        3346.00           6806           5.00         2.18
  198.16        3346.25           6810           3.00         2.00
  198.19        3346.50           6814           7.00        10.90
  198.22        3346.75           6818           6.00         6.54
  198.25        3347.00           6821           8.00        15.26
  198.27        3347.25           6825           8.00        15.26
  198.30        3347.50           6829           6.00         6.54
  198.33        3347.75           6833           1.00         2.00
  198.36        3348.00           6836           0.00         2.00
  198.38        3348.25           6840           3.00         2.00
  198.41        3348.50           6844           2.00         2.00
  198.44        3348.75           6848           5.00         2.18
  198.46        3349.00           6851           5.00         2.18
  198.49        3349.25           6855           8.00        15.26
  198.52        3349.50           6859           0.00         2.00
  198.55        3349.75           6863           3.00         2.00
  198.57        3350.00           6867           1.00         2.00
  198.60        3350.25           6870           6.00         6.54
  198.63        3350.50           6874           7.00        10.90
  198.66        3350.75           6878           0.00         2.00
  198.68        3351.00           6882           5.00         2.18
HL scan finished at 03:19:18
end
