************************************************************
  HL Scan of (1) Internal mercury lamp
************************************************************
Integration time is 0.2294 seconds per sample
dh110417Tamanrasset 22.79-5.529 2.756598pr865
************************************************************
Dead Time -------------------------  2.8E-08 
Number of Cycles Used -------------  4 
Starting Wavelength (Angstroms) ---  3331 
Final Wavelength (Angstoms) -------  3351 
Wavelength Increment (Angstroms) --  .25 
Filter Wheel #1 Position ---------- (1) Ground quartz diffuser (ND=2.32)
Filter Wheel #2 Position ---------- (0) Clear Aperture



************************************************************
HL scan start time = 03:23:00
Dark Count =  3.4 


Time (GMT)  Wavelength (Ang)  Step Number  Raw Counts  Counts/Second

  203.52        3331.00           6581           8.00        20.05
  203.74        3331.25           6585           8.00        20.05
  203.76        3331.50           6589           2.00         2.00
  203.79        3331.75           6593           6.00        11.33
  203.82        3332.00           6596           5.00         6.97
  203.85        3332.25           6600           4.00         2.62
  203.87        3332.50           6604           8.00        20.05
  203.90        3332.75           6608           7.00        15.69
  203.93        3333.00           6611           8.00        20.05
  203.96        3333.25           6615           8.00        20.05
  203.98        3333.50           6619           6.00        11.33
  204.01        3333.75           6623           0.00         2.00
  204.04        3334.00           6626           2.00         2.00
  204.07        3334.25           6630           1.00         2.00
  204.09        3334.50           6634           5.00         6.97
  204.12        3334.75           6638           8.00        20.05
  204.15        3335.00           6641           0.00         2.00
  204.17        3335.25           6645           8.00        20.05
  204.20        3335.50           6649           3.00         2.00
  204.23        3335.75           6653           8.00        20.05
  204.26        3336.00           6656           0.00         2.00
  204.28        3336.25           6660           5.00         6.97
  204.31        3336.50           6664           8.00        20.05
  204.34        3336.75           6668           8.00        20.05
  204.37        3337.00           6671           8.00        20.05
  204.39        3337.25           6675           8.00        20.05
  204.42        3337.50           6679           3.00         2.00
  204.45        3337.75           6683           8.00        20.05
  204.47        3338.00           6686           6.00        11.33
  204.50        3338.25           6690           8.00        20.05
  204.53        3338.50           6694           3.00         2.00
  204.56        3338.75           6698           0.00         2.00
  204.58        3339.00           6701           8.00        20.05
  204.61        3339.25           6705           4.00         2.62
  204.64        3339.50           6709           0.00         2.00
  204.66        3339.75           6713           7.00        15.69
  204.69        3340.00           6716           0.00         2.00
  204.72        3340.25           6720           7.00        15.69
  204.75        3340.50           6724           8.00        20.05
  204.77        3340.75           6728           2.00         2.00
  204.80        3341.00           6731           8.00        20.05
  204.83        3341.25           6735           0.00         2.00
  204.86        3341.50           6739           2.00         2.00
  204.88        3341.75           6743           0.00         2.00
  204.91        3342.00           6746           8.00        20.05
  204.94        3342.25           6750           5.00         6.97
  204.96        3342.50           6754           0.00         2.00
  204.99        3342.75           6758           5.00         6.97
  205.02        3343.00           6761           8.00        20.05
  205.05        3343.25           6765           4.00         2.62
  205.07        3343.50           6769           8.00        20.05
  205.10        3343.75           6773           0.00         2.00
  205.13        3344.00           6776           6.00        11.33
  205.16        3344.25           6780           4.00         2.62
  205.18        3344.50           6784           0.00         2.00
  205.21        3344.75           6788           8.00        20.05
  205.24        3345.00           6791           0.00         2.00
  205.26        3345.25           6795           8.00        20.05
  205.29        3345.50           6799           1.00         2.00
  205.32        3345.75           6803           0.00         2.00
  205.35        3346.00           6806           0.00         2.00
  205.37        3346.25           6810           0.00         2.00
  205.40        3346.50           6814           0.00         2.00
  205.43        3346.75           6818           0.00         2.00
  205.46        3347.00           6821           1.00         2.00
  205.48        3347.25           6825           1.00         2.00
  205.51        3347.50           6829           8.00        20.05
  205.54        3347.75           6833           0.00         2.00
  205.56        3348.00           6836           0.00         2.00
  205.59        3348.25           6840           3.00         2.00
  205.62        3348.50           6844           8.00        20.05
  205.65        3348.75           6848           7.00        15.69
  205.67        3349.00           6851           3.00         2.00
  205.70        3349.25           6855           4.00         2.62
  205.73        3349.50           6859           3.00         2.00
  205.75        3349.75           6863           3.00         2.00
  205.78        3350.00           6867           0.00         2.00
  205.81        3350.25           6870           0.00         2.00
  205.84        3350.50           6874           8.00        20.05
  205.86        3350.75           6878           0.00         2.00
  205.89        3351.00           6882           8.00        20.05
HL scan finished at 03:26:31
end
