************************************************************
  HL Scan of (1) Internal mercury lamp
************************************************************
Integration time is 0.2294 seconds per sample
dh130417Tamanrasset 22.79-5.529 2.776991pr865
************************************************************
Dead Time -------------------------  2.8E-08 
Number of Cycles Used -------------  4 
Starting Wavelength (Angstroms) ---  3331 
Final Wavelength (Angstoms) -------  3351 
Wavelength Increment (Angstroms) --  .25 
Filter Wheel #1 Position ---------- (1) Ground quartz diffuser (ND=2.32)
Filter Wheel #2 Position ---------- (0) Clear Aperture



************************************************************
HL scan start time = 03:21:00
Dark Count =  6.1 


Time (GMT)  Wavelength (Ang)  Step Number  Raw Counts  Counts/Second

  201.51        3331.00           6581           0.00         2.00
  201.73        3331.25           6585           8.00         8.28
  201.76        3331.50           6589           1.00         2.00
  201.79        3331.75           6593           8.00         8.28
  201.81        3332.00           6596           3.00         2.00
  201.84        3332.25           6600           8.00         8.28
  201.87        3332.50           6604           0.00         2.00
  201.90        3332.75           6608           7.00         3.92
  201.92        3333.00           6611           8.00         8.28
  201.95        3333.25           6615           8.00         8.28
  201.98        3333.50           6619           0.00         2.00
  202.00        3333.75           6623           8.00         8.28
  202.03        3334.00           6626           7.00         3.92
  202.06        3334.25           6630           8.00         8.28
  202.09        3334.50           6634           8.00         8.28
  202.11        3334.75           6638           0.00         2.00
  202.14        3335.00           6641           2.00         2.00
  202.17        3335.25           6645           1.00         2.00
  202.19        3335.50           6649           8.00         8.28
  202.22        3335.75           6653           6.00         2.00
  202.25        3336.00           6656           8.00         8.28
  202.28        3336.25           6660           8.00         8.28
  202.30        3336.50           6664           5.00         2.00
  202.33        3336.75           6668           8.00         8.28
  202.36        3337.00           6671           8.00         8.28
  202.39        3337.25           6675           3.00         2.00
  202.41        3337.50           6679           4.00         2.00
  202.44        3337.75           6683           7.00         3.92
  202.47        3338.00           6686           6.00         2.00
  202.50        3338.25           6690           1.00         2.00
  202.52        3338.50           6694           2.00         2.00
  202.55        3338.75           6698           0.00         2.00
  202.58        3339.00           6701           0.00         2.00
  202.60        3339.25           6705           5.00         2.00
  202.63        3339.50           6709           8.00         8.28
  202.66        3339.75           6713           7.00         3.92
  202.69        3340.00           6716           2.00         2.00
  202.71        3340.25           6720           8.00         8.28
  202.74        3340.50           6724           5.00         2.00
  202.77        3340.75           6728           0.00         2.00
  202.79        3341.00           6731           8.00         8.28
  202.82        3341.25           6735           0.00         2.00
  202.85        3341.50           6739           0.00         2.00
  202.88        3341.75           6743           1.00         2.00
  202.90        3342.00           6746           6.00         2.00
  202.93        3342.25           6750           8.00         8.28
  202.96        3342.50           6754           0.00         2.00
  202.99        3342.75           6758           0.00         2.00
  203.01        3343.00           6761           8.00         8.28
  203.04        3343.25           6765           9.00        12.64
  203.07        3343.50           6769           0.00         2.00
  203.09        3343.75           6773           6.00         2.00
  203.12        3344.00           6776           0.00         2.00
  203.15        3344.25           6780           0.00         2.00
  203.18        3344.50           6784           0.00         2.00
  203.20        3344.75           6788           8.00         8.28
  203.23        3345.00           6791           8.00         8.28
  203.26        3345.25           6795           0.00         2.00
  203.29        3345.50           6799           8.00         8.28
  203.31        3345.75           6803           8.00         8.28
  203.34        3346.00           6806           8.00         8.28
  203.37        3346.25           6810           1.00         2.00
  203.39        3346.50           6814           8.00         8.28
  203.42        3346.75           6818           4.00         2.00
  203.45        3347.00           6821           0.00         2.00
  203.48        3347.25           6825           8.00         8.28
  203.50        3347.50           6829           0.00         2.00
  203.53        3347.75           6833           2.00         2.00
  203.56        3348.00           6836           7.00         3.92
  203.58        3348.25           6840           1.00         2.00
  203.61        3348.50           6844           7.00         3.92
  203.64        3348.75           6848           7.00         3.92
  203.67        3349.00           6851           0.00         2.00
  203.69        3349.25           6855           1.00         2.00
  203.72        3349.50           6859           8.00         8.28
  203.75        3349.75           6863           8.00         8.28
  203.78        3350.00           6867           8.00         8.28
  203.80        3350.25           6870           5.00         2.00
  203.83        3350.50           6874           1.00         2.00
  203.86        3350.75           6878           8.00         8.28
  203.88        3351.00           6882           8.00         8.28
HL scan finished at 03:24:31
end
