************************************************************
  HL Scan of (1) Internal mercury lamp
************************************************************
Integration time is 0.2294 seconds per sample
dh120417Tamanrasset 22.79-5.529 2.761697pr865
************************************************************
Dead Time -------------------------  2.8E-08 
Number of Cycles Used -------------  4 
Starting Wavelength (Angstroms) ---  3331 
Final Wavelength (Angstoms) -------  3351 
Wavelength Increment (Angstroms) --  .25 
Filter Wheel #1 Position ---------- (1) Ground quartz diffuser (ND=2.32)
Filter Wheel #2 Position ---------- (0) Clear Aperture



************************************************************
HL scan start time = 03:21:46
Dark Count =  4.1 


Time (GMT)  Wavelength (Ang)  Step Number  Raw Counts  Counts/Second

  202.29        3331.00           6581           8.00        17.00
  202.50        3331.25           6585           1.00         2.00
  202.53        3331.50           6589           6.00         8.28
  202.56        3331.75           6593           6.00         8.28
  202.58        3332.00           6596           8.00        17.00
  202.61        3332.25           6600           0.00         2.00
  202.64        3332.50           6604           8.00        17.00
  202.67        3332.75           6608           8.00        17.00
  202.69        3333.00           6611           3.00         2.00
  202.72        3333.25           6615           5.00         3.92
  202.75        3333.50           6619           4.00         2.00
  202.78        3333.75           6623           4.00         2.00
  202.80        3334.00           6626           3.00         2.00
  202.83        3334.25           6630           8.00        17.00
  202.86        3334.50           6634           0.00         2.00
  202.88        3334.75           6638           4.00         2.00
  202.91        3335.00           6641           9.00        21.36
  202.94        3335.25           6645           8.00        17.00
  202.97        3335.50           6649           6.00         8.28
  202.99        3335.75           6653           0.00         2.00
  203.02        3336.00           6656           8.00        17.00
  203.05        3336.25           6660           6.00         8.28
  203.08        3336.50           6664           0.00         2.00
  203.10        3336.75           6668           8.00        17.00
  203.13        3337.00           6671           8.00        17.00
  203.16        3337.25           6675           6.00         8.28
  203.18        3337.50           6679           8.00        17.00
  203.21        3337.75           6683           7.00        12.64
  203.24        3338.00           6686           4.00         2.00
  203.27        3338.25           6690           0.00         2.00
  203.29        3338.50           6694           1.00         2.00
  203.32        3338.75           6698           7.00        12.64
  203.35        3339.00           6701           8.00        17.00
  203.37        3339.25           6705           0.00         2.00
  203.40        3339.50           6709           6.00         8.28
  203.43        3339.75           6713           1.00         2.00
  203.46        3340.00           6716           8.00        17.00
  203.48        3340.25           6720           0.00         2.00
  203.51        3340.50           6724           5.00         3.92
  203.54        3340.75           6728           2.00         2.00
  203.57        3341.00           6731           4.00         2.00
  203.59        3341.25           6735           6.00         8.28
  203.62        3341.50           6739           0.00         2.00
  203.65        3341.75           6743           0.00         2.00
  203.67        3342.00           6746           8.00        17.00
  203.70        3342.25           6750           3.00         2.00
  203.73        3342.50           6754           3.00         2.00
  203.76        3342.75           6758           8.00        17.00
  203.78        3343.00           6761           0.00         2.00
  203.81        3343.25           6765           0.00         2.00
  203.84        3343.50           6769           8.00        17.00
  203.87        3343.75           6773           2.00         2.00
  203.89        3344.00           6776           0.00         2.00
  203.92        3344.25           6780           0.00         2.00
  203.95        3344.50           6784           2.00         2.00
  203.97        3344.75           6788           3.00         2.00
  204.00        3345.00           6791           5.00         3.92
  204.03        3345.25           6795           8.00        17.00
  204.06        3345.50           6799           8.00        17.00
  204.08        3345.75           6803           0.00         2.00
  204.11        3346.00           6806           8.00        17.00
  204.14        3346.25           6810           8.00        17.00
  204.16        3346.50           6814           8.00        17.00
  204.19        3346.75           6818           1.00         2.00
  204.22        3347.00           6821           0.00         2.00
  204.25        3347.25           6825           3.00         2.00
  204.27        3347.50           6829           0.00         2.00
  204.30        3347.75           6833           0.00         2.00
  204.33        3348.00           6836           7.00        12.64
  204.36        3348.25           6840           5.00         3.92
  204.38        3348.50           6844           0.00         2.00
  204.41        3348.75           6848           2.00         2.00
  204.44        3349.00           6851           1.00         2.00
  204.46        3349.25           6855           0.00         2.00
  204.49        3349.50           6859           0.00         2.00
  204.52        3349.75           6863           0.00         2.00
  204.55        3350.00           6867           0.00         2.00
  204.57        3350.25           6870           1.00         2.00
  204.60        3350.50           6874           8.00        17.00
  204.63        3350.75           6878           8.00        17.00
  204.65        3351.00           6882           0.00         2.00
HL scan finished at 03:25:17
end
