************************************************************
  HL Scan of (1) Internal mercury lamp
************************************************************
Integration time is 0.2294 seconds per sample
dh140417Tamanrasset 22.79-5.529 2.756598pr865
************************************************************
Dead Time -------------------------  2.8E-08 
Number of Cycles Used -------------  4 
Starting Wavelength (Angstroms) ---  3331 
Final Wavelength (Angstoms) -------  3351 
Wavelength Increment (Angstroms) --  .25 
Filter Wheel #1 Position ---------- (1) Ground quartz diffuser (ND=2.32)
Filter Wheel #2 Position ---------- (0) Clear Aperture



************************************************************
HL scan start time = 03:19:48
Dark Count =  6 


Time (GMT)  Wavelength (Ang)  Step Number  Raw Counts  Counts/Second

  200.31        3331.00           6581           8.00         8.72
  200.52        3331.25           6585           8.00         8.72
  200.55        3331.50           6589           0.00         2.00
  200.58        3331.75           6593           5.00         2.00
  200.61        3332.00           6596           7.00         4.36
  200.63        3332.25           6600           0.00         2.00
  200.66        3332.50           6604           0.00         2.00
  200.69        3332.75           6608           0.00         2.00
  200.72        3333.00           6611           8.00         8.72
  200.74        3333.25           6615           7.00         4.36
  200.77        3333.50           6619           8.00         8.72
  200.80        3333.75           6623           3.00         2.00
  200.82        3334.00           6626           1.00         2.00
  200.85        3334.25           6630           2.00         2.00
  200.88        3334.50           6634           8.00         8.72
  200.91        3334.75           6638           8.00         8.72
  200.93        3335.00           6641           0.00         2.00
  200.96        3335.25           6645           0.00         2.00
  200.99        3335.50           6649           0.00         2.00
  201.02        3335.75           6653           0.00         2.00
  201.04        3336.00           6656           0.00         2.00
  201.07        3336.25           6660           8.00         8.72
  201.10        3336.50           6664           2.00         2.00
  201.12        3336.75           6668           1.00         2.00
  201.15        3337.00           6671           0.00         2.00
  201.18        3337.25           6675           8.00         8.72
  201.21        3337.50           6679           8.00         8.72
  201.23        3337.75           6683           4.00         2.00
  201.26        3338.00           6686           7.00         4.36
  201.29        3338.25           6690           8.00         8.72
  201.32        3338.50           6694           5.00         2.00
  201.34        3338.75           6698           0.00         2.00
  201.37        3339.00           6701           0.00         2.00
  201.40        3339.25           6705           4.00         2.00
  201.42        3339.50           6709           5.00         2.00
  201.45        3339.75           6713           0.00         2.00
  201.48        3340.00           6716           2.00         2.00
  201.51        3340.25           6720           4.00         2.00
  201.53        3340.50           6724           5.00         2.00
  201.56        3340.75           6728           0.00         2.00
  201.59        3341.00           6731           0.00         2.00
  201.62        3341.25           6735           1.00         2.00
  201.64        3341.50           6739           8.00         8.72
  201.67        3341.75           6743           0.00         2.00
  201.70        3342.00           6746           0.00         2.00
  201.72        3342.25           6750           5.00         2.00
  201.75        3342.50           6754           8.00         8.72
  201.78        3342.75           6758           2.00         2.00
  201.81        3343.00           6761           1.00         2.00
  201.83        3343.25           6765           7.00         4.36
  201.86        3343.50           6769           0.00         2.00
  201.89        3343.75           6773           0.00         2.00
  201.92        3344.00           6776           7.00         4.36
  201.94        3344.25           6780           6.00         2.00
  201.97        3344.50           6784           8.00         8.72
  202.00        3344.75           6788           3.00         2.00
  202.02        3345.00           6791           7.00         4.36
  202.05        3345.25           6795           8.00         8.72
  202.08        3345.50           6799           6.00         2.00
  202.11        3345.75           6803           8.00         8.72
  202.13        3346.00           6806           3.00         2.00
  202.16        3346.25           6810           8.00         8.72
  202.19        3346.50           6814           1.00         2.00
  202.22        3346.75           6818           0.00         2.00
  202.24        3347.00           6821           3.00         2.00
  202.27        3347.25           6825           8.00         8.72
  202.30        3347.50           6829           4.00         2.00
  202.32        3347.75           6833           0.00         2.00
  202.35        3348.00           6836           0.00         2.00
  202.38        3348.25           6840           8.00         8.72
  202.41        3348.50           6844           7.00         4.36
  202.43        3348.75           6848           6.00         2.00
  202.46        3349.00           6851           8.00         8.72
  202.49        3349.25           6855           8.00         8.72
  202.51        3349.50           6859           0.00         2.00
  202.54        3349.75           6863           1.00         2.00
  202.57        3350.00           6867           0.00         2.00
  202.60        3350.25           6870           8.00         8.72
  202.62        3350.50           6874           8.00         8.72
  202.65        3350.75           6878           0.00         2.00
  202.68        3351.00           6882           3.00         2.00
HL scan finished at 03:23:18
end
