************************************************************
  HL Scan of (1) Internal mercury lamp
************************************************************
Integration time is 0.2294 seconds per sample
dh160417Tamanrasset 22.79-5.529 2.736205pr865
************************************************************
Dead Time -------------------------  2.8E-08 
Number of Cycles Used -------------  4 
Starting Wavelength (Angstroms) ---  3331 
Final Wavelength (Angstoms) -------  3351 
Wavelength Increment (Angstroms) --  .25 
Filter Wheel #1 Position ---------- (1) Ground quartz diffuser (ND=2.32)
Filter Wheel #2 Position ---------- (0) Clear Aperture



************************************************************
HL scan start time = 03:17:49
Dark Count =  4.6 


Time (GMT)  Wavelength (Ang)  Step Number  Raw Counts  Counts/Second

  198.33        3331.00           6581           0.00         2.00
  198.55        3331.25           6585           8.00        14.82
  198.58        3331.50           6589           7.00        10.46
  198.60        3331.75           6593           1.00         2.00
  198.63        3332.00           6596           6.00         6.10
  198.66        3332.25           6600           8.00        14.82
  198.69        3332.50           6604           3.00         2.00
  198.71        3332.75           6608           8.00        14.82
  198.74        3333.00           6611           7.00        10.46
  198.77        3333.25           6615           0.00         2.00
  198.79        3333.50           6619           6.00         6.10
  198.82        3333.75           6623           8.00        14.82
  198.85        3334.00           6626           8.00        14.82
  198.88        3334.25           6630           8.00        14.82
  198.90        3334.50           6634           2.00         2.00
  198.93        3334.75           6638           8.00        14.82
  198.96        3335.00           6641           5.00         2.00
  198.98        3335.25           6645           0.00         2.00
  199.01        3335.50           6649           1.00         2.00
  199.04        3335.75           6653           0.00         2.00
  199.07        3336.00           6656           5.00         2.00
  199.09        3336.25           6660           4.00         2.00
  199.12        3336.50           6664           0.00         2.00
  199.15        3336.75           6668           7.00        10.46
  199.17        3337.00           6671           2.00         2.00
  199.20        3337.25           6675           0.00         2.00
  199.23        3337.50           6679           2.00         2.00
  199.26        3337.75           6683           0.00         2.00
  199.28        3338.00           6686           7.00        10.46
  199.31        3338.25           6690           8.00        14.82
  199.34        3338.50           6694           8.00        14.82
  199.37        3338.75           6698           0.00         2.00
  199.39        3339.00           6701           8.00        14.82
  199.42        3339.25           6705           8.00        14.82
  199.45        3339.50           6709           1.00         2.00
  199.47        3339.75           6713           5.00         2.00
  199.50        3340.00           6716           8.00        14.82
  199.53        3340.25           6720           8.00        14.82
  199.56        3340.50           6724           8.00        14.82
  199.58        3340.75           6728           7.00        10.46
  199.61        3341.00           6731           0.00         2.00
  199.64        3341.25           6735           0.00         2.00
  199.67        3341.50           6739           0.00         2.00
  199.69        3341.75           6743           0.00         2.00
  199.72        3342.00           6746           8.00        14.82
  199.75        3342.25           6750           3.00         2.00
  199.77        3342.50           6754           2.00         2.00
  199.80        3342.75           6758           8.00        14.82
  199.83        3343.00           6761           0.00         2.00
  199.86        3343.25           6765           0.00         2.00
  199.88        3343.50           6769           5.00         2.00
  199.91        3343.75           6773           3.00         2.00
  199.94        3344.00           6776           0.00         2.00
  199.96        3344.25           6780           3.00         2.00
  199.99        3344.50           6784           8.00        14.82
  200.02        3344.75           6788           8.00        14.82
  200.05        3345.00           6791           0.00         2.00
  200.07        3345.25           6795           6.00         6.10
  200.10        3345.50           6799           8.00        14.82
  200.13        3345.75           6803           1.00         2.00
  200.16        3346.00           6806           1.00         2.00
  200.18        3346.25           6810           5.00         2.00
  200.21        3346.50           6814           8.00        14.82
  200.24        3346.75           6818           0.00         2.00
  200.26        3347.00           6821           4.00         2.00
  200.29        3347.25           6825           0.00         2.00
  200.32        3347.50           6829           0.00         2.00
  200.35        3347.75           6833           0.00         2.00
  200.37        3348.00           6836           6.00         6.10
  200.40        3348.25           6840           2.00         2.00
  200.43        3348.50           6844           8.00        14.82
  200.45        3348.75           6848           8.00        14.82
  200.48        3349.00           6851           5.00         2.00
  200.51        3349.25           6855           0.00         2.00
  200.54        3349.50           6859           0.00         2.00
  200.56        3349.75           6863           0.00         2.00
  200.59        3350.00           6867           2.00         2.00
  200.62        3350.25           6870           0.00         2.00
  200.65        3350.50           6874           8.00        14.82
  200.67        3350.75           6878           8.00        14.82
  200.70        3351.00           6882           4.00         2.00
HL scan finished at 03:21:19
end
