************************************************************
  HL Scan of (1) Internal mercury lamp
************************************************************
Integration time is 0.2294 seconds per sample
dh150417Tamanrasset 22.79-5.529 2.736205pr865
************************************************************
Dead Time -------------------------  2.8E-08 
Number of Cycles Used -------------  4 
Starting Wavelength (Angstroms) ---  3331 
Final Wavelength (Angstoms) -------  3351 
Wavelength Increment (Angstroms) --  .25 
Filter Wheel #1 Position ---------- (1) Ground quartz diffuser (ND=2.32)
Filter Wheel #2 Position ---------- (0) Clear Aperture



************************************************************
HL scan start time = 03:18:48
Dark Count =  5.2 


Time (GMT)  Wavelength (Ang)  Step Number  Raw Counts  Counts/Second

  199.32        3331.00           6581           5.00         2.00
  199.54        3331.25           6585           0.00         2.00
  199.56        3331.50           6589           8.00        12.21
  199.59        3331.75           6593           5.00         2.00
  199.62        3332.00           6596           0.00         2.00
  199.65        3332.25           6600           3.00         2.00
  199.67        3332.50           6604           1.00         2.00
  199.70        3332.75           6608           1.00         2.00
  199.73        3333.00           6611           0.00         2.00
  199.75        3333.25           6615           1.00         2.00
  199.78        3333.50           6619           6.00         3.49
  199.81        3333.75           6623           4.00         2.00
  199.84        3334.00           6626           4.00         2.00
  199.86        3334.25           6630           0.00         2.00
  199.89        3334.50           6634           4.00         2.00
  199.92        3334.75           6638           0.00         2.00
  199.94        3335.00           6641           8.00        12.21
  199.97        3335.25           6645           0.00         2.00
  200.00        3335.50           6649           4.00         2.00
  200.03        3335.75           6653           8.00        12.21
  200.05        3336.00           6656           0.00         2.00
  200.08        3336.25           6660           7.00         7.85
  200.11        3336.50           6664           1.00         2.00
  200.14        3336.75           6668           0.00         2.00
  200.16        3337.00           6671           6.00         3.49
  200.19        3337.25           6675           0.00         2.00
  200.22        3337.50           6679           8.00        12.21
  200.25        3337.75           6683           4.00         2.00
  200.27        3338.00           6686           8.00        12.21
  200.30        3338.25           6690           0.00         2.00
  200.33        3338.50           6694           5.00         2.00
  200.35        3338.75           6698           0.00         2.00
  200.38        3339.00           6701           0.00         2.00
  200.41        3339.25           6705           8.00        12.21
  200.44        3339.50           6709           2.00         2.00
  200.46        3339.75           6713           0.00         2.00
  200.49        3340.00           6716           0.00         2.00
  200.52        3340.25           6720           8.00        12.21
  200.54        3340.50           6724           8.00        12.21
  200.57        3340.75           6728           8.00        12.21
  200.60        3341.00           6731           6.00         3.49
  200.63        3341.25           6735           7.00         7.85
  200.65        3341.50           6739           1.00         2.00
  200.68        3341.75           6743           8.00        12.21
  200.71        3342.00           6746           8.00        12.21
  200.74        3342.25           6750           8.00        12.21
  200.76        3342.50           6754           6.00         3.49
  200.79        3342.75           6758           7.00         7.85
  200.82        3343.00           6761           8.00        12.21
  200.84        3343.25           6765           0.00         2.00
  200.87        3343.50           6769           8.00        12.21
  200.90        3343.75           6773           0.00         2.00
  200.93        3344.00           6776           3.00         2.00
  200.95        3344.25           6780           8.00        12.21
  200.98        3344.50           6784           4.00         2.00
  201.01        3344.75           6788           5.00         2.00
  201.04        3345.00           6791           0.00         2.00
  201.06        3345.25           6795           5.00         2.00
  201.09        3345.50           6799           8.00        12.21
  201.12        3345.75           6803           5.00         2.00
  201.14        3346.00           6806           0.00         2.00
  201.17        3346.25           6810           0.00         2.00
  201.20        3346.50           6814           6.00         3.49
  201.23        3346.75           6818           6.00         3.49
  201.25        3347.00           6821           0.00         2.00
  201.28        3347.25           6825           8.00        12.21
  201.31        3347.50           6829           8.00        12.21
  201.33        3347.75           6833           7.00         7.85
  201.36        3348.00           6836           4.00         2.00
  201.39        3348.25           6840           8.00        12.21
  201.42        3348.50           6844           4.00         2.00
  201.44        3348.75           6848           1.00         2.00
  201.47        3349.00           6851           6.00         3.49
  201.50        3349.25           6855           8.00        12.21
  201.52        3349.50           6859           1.00         2.00
  201.55        3349.75           6863           6.00         3.49
  201.58        3350.00           6867           4.00         2.00
  201.61        3350.25           6870           0.00         2.00
  201.63        3350.50           6874           0.00         2.00
  201.66        3350.75           6878           7.00         7.85
  201.69        3351.00           6882           0.00         2.00
HL scan finished at 03:22:19
end
