************************************************************
  HL Scan of (1) Internal mercury lamp
************************************************************
Integration time is 0.2294 seconds per sample
dh170417Tamanrasset 22.79-5.529 2.746401pr865
************************************************************
Dead Time -------------------------  2.8E-08 
Number of Cycles Used -------------  4 
Starting Wavelength (Angstroms) ---  3331 
Final Wavelength (Angstoms) -------  3351 
Wavelength Increment (Angstroms) --  .25 
Filter Wheel #1 Position ---------- (1) Ground quartz diffuser (ND=2.32)
Filter Wheel #2 Position ---------- (0) Clear Aperture



************************************************************
HL scan start time = 03:16:48
Dark Count =  4.2 


Time (GMT)  Wavelength (Ang)  Step Number  Raw Counts  Counts/Second

  197.31        3331.00           6581           0.00         2.00
  197.53        3331.25           6585           5.00         3.49
  197.55        3331.50           6589           6.00         7.85
  197.58        3331.75           6593           8.00        16.56
  197.61        3332.00           6596           3.00         2.00
  197.64        3332.25           6600           8.00        16.56
  197.66        3332.50           6604           0.00         2.00
  197.69        3332.75           6608           0.00         2.00
  197.72        3333.00           6611           3.00         2.00
  197.74        3333.25           6615           8.00        16.56
  197.77        3333.50           6619           6.00         7.85
  197.80        3333.75           6623           8.00        16.56
  197.83        3334.00           6626           0.00         2.00
  197.85        3334.25           6630           0.00         2.00
  197.88        3334.50           6634           0.00         2.00
  197.91        3334.75           6638           0.00         2.00
  197.94        3335.00           6641           8.00        16.56
  197.96        3335.25           6645           3.00         2.00
  197.99        3335.50           6649           2.00         2.00
  198.02        3335.75           6653           6.00         7.85
  198.04        3336.00           6656           0.00         2.00
  198.07        3336.25           6660           3.00         2.00
  198.10        3336.50           6664           0.00         2.00
  198.13        3336.75           6668           0.00         2.00
  198.15        3337.00           6671           0.00         2.00
  198.18        3337.25           6675           0.00         2.00
  198.21        3337.50           6679           8.00        16.56
  198.23        3337.75           6683           0.00         2.00
  198.26        3338.00           6686           5.00         3.49
  198.29        3338.25           6690           5.00         3.49
  198.32        3338.50           6694           0.00         2.00
  198.34        3338.75           6698           4.00         2.00
  198.37        3339.00           6701           0.00         2.00
  198.40        3339.25           6705           4.00         2.00
  198.43        3339.50           6709           4.00         2.00
  198.45        3339.75           6713           3.00         2.00
  198.48        3340.00           6716           8.00        16.56
  198.51        3340.25           6720           8.00        16.56
  198.53        3340.50           6724           2.00         2.00
  198.56        3340.75           6728           8.00        16.56
  198.59        3341.00           6731           8.00        16.56
  198.62        3341.25           6735           8.00        16.56
  198.64        3341.50           6739           3.00         2.00
  198.67        3341.75           6743           5.00         3.49
  198.70        3342.00           6746           1.00         2.00
  198.72        3342.25           6750           0.00         2.00
  198.75        3342.50           6754           8.00        16.56
  198.78        3342.75           6758           8.00        16.56
  198.81        3343.00           6761           3.00         2.00
  198.83        3343.25           6765           8.00        16.56
  198.86        3343.50           6769           3.00         2.00
  198.89        3343.75           6773           0.00         2.00
  198.92        3344.00           6776           2.00         2.00
  198.94        3344.25           6780           8.00        16.56
  198.97        3344.50           6784           4.00         2.00
  199.00        3344.75           6788           3.00         2.00
  199.02        3345.00           6791           6.00         7.85
  199.05        3345.25           6795           6.00         7.85
  199.08        3345.50           6799           0.00         2.00
  199.11        3345.75           6803           8.00        16.56
  199.13        3346.00           6806           8.00        16.56
  199.16        3346.25           6810           2.00         2.00
  199.19        3346.50           6814           3.00         2.00
  199.22        3346.75           6818           8.00        16.56
  199.24        3347.00           6821           7.00        12.21
  199.27        3347.25           6825           0.00         2.00
  199.30        3347.50           6829           3.00         2.00
  199.32        3347.75           6833           6.00         7.85
  199.35        3348.00           6836           8.00        16.56
  199.38        3348.25           6840           8.00        16.56
  199.41        3348.50           6844           0.00         2.00
  199.43        3348.75           6848           2.00         2.00
  199.46        3349.00           6851           3.00         2.00
  199.49        3349.25           6855           8.00        16.56
  199.51        3349.50           6859           8.00        16.56
  199.54        3349.75           6863           2.00         2.00
  199.57        3350.00           6867           8.00        16.56
  199.60        3350.25           6870           3.00         2.00
  199.62        3350.50           6874           2.00         2.00
  199.65        3350.75           6878           8.00        16.56
  199.68        3351.00           6882           0.00         2.00
HL scan finished at 03:20:18
end
