************************************************************
  HL Scan of (1) Internal mercury lamp
************************************************************
Integration time is 0.2294 seconds per sample
dh200417Tamanrasset 22.79-5.529 2.863663pr865
************************************************************
Dead Time -------------------------  2.8E-08 
Number of Cycles Used -------------  4 
Starting Wavelength (Angstroms) ---  3331 
Final Wavelength (Angstoms) -------  3351 
Wavelength Increment (Angstroms) --  .25 
Filter Wheel #1 Position ---------- (1) Ground quartz diffuser (ND=2.32)
Filter Wheel #2 Position ---------- (0) Clear Aperture



************************************************************
HL scan start time = 03:14:46
Dark Count =  3.7 


Time (GMT)  Wavelength (Ang)  Step Number  Raw Counts  Counts/Second

  195.28        3331.00           6581           3.00         2.00
  195.49        3331.25           6585           8.00        18.74
  195.52        3331.50           6589           2.00         2.00
  195.55        3331.75           6593           0.00         2.00
  195.58        3332.00           6596           8.00        18.74
  195.60        3332.25           6600           5.00         5.67
  195.63        3332.50           6604           0.00         2.00
  195.66        3332.75           6608           6.00        10.03
  195.69        3333.00           6611           8.00        18.74
  195.71        3333.25           6615           0.00         2.00
  195.74        3333.50           6619           8.00        18.74
  195.77        3333.75           6623           8.00        18.74
  195.79        3334.00           6626           5.00         5.67
  195.82        3334.25           6630           7.00        14.39
  195.85        3334.50           6634           8.00        18.74
  195.88        3334.75           6638           4.00         2.00
  195.90        3335.00           6641           8.00        18.74
  195.93        3335.25           6645           4.00         2.00
  195.96        3335.50           6649           7.00        14.39
  195.98        3335.75           6653           0.00         2.00
  196.01        3336.00           6656           8.00        18.74
  196.04        3336.25           6660           6.00        10.03
  196.07        3336.50           6664           4.00         2.00
  196.09        3336.75           6668           6.00        10.03
  196.12        3337.00           6671           0.00         2.00
  196.15        3337.25           6675           8.00        18.74
  196.18        3337.50           6679           8.00        18.74
  196.20        3337.75           6683           8.00        18.74
  196.23        3338.00           6686           7.00        14.39
  196.26        3338.25           6690           8.00        18.74
  196.28        3338.50           6694           8.00        18.74
  196.31        3338.75           6698           6.00        10.03
  196.34        3339.00           6701           8.00        18.74
  196.37        3339.25           6705           2.00         2.00
  196.39        3339.50           6709           5.00         5.67
  196.42        3339.75           6713           7.00        14.39
  196.45        3340.00           6716           8.00        18.74
  196.47        3340.25           6720           3.00         2.00
  196.50        3340.50           6724           0.00         2.00
  196.53        3340.75           6728           8.00        18.74
  196.56        3341.00           6731           5.00         5.67
  196.58        3341.25           6735           0.00         2.00
  196.61        3341.50           6739           8.00        18.74
  196.64        3341.75           6743           1.00         2.00
  196.67        3342.00           6746           3.00         2.00
  196.69        3342.25           6750           0.00         2.00
  196.72        3342.50           6754           8.00        18.74
  196.75        3342.75           6758           8.00        18.74
  196.77        3343.00           6761           1.00         2.00
  196.80        3343.25           6765           7.00        14.39
  196.83        3343.50           6769           8.00        18.74
  196.86        3343.75           6773           1.00         2.00
  196.88        3344.00           6776           0.00         2.00
  196.91        3344.25           6780           7.00        14.39
  196.94        3344.50           6784           4.00         2.00
  196.97        3344.75           6788           7.00        14.39
  196.99        3345.00           6791           8.00        18.74
  197.02        3345.25           6795           8.00        18.74
  197.05        3345.50           6799           6.00        10.03
  197.07        3345.75           6803           2.00         2.00
  197.10        3346.00           6806           8.00        18.74
  197.13        3346.25           6810           0.00         2.00
  197.16        3346.50           6814           8.00        18.74
  197.18        3346.75           6818           0.00         2.00
  197.21        3347.00           6821           4.00         2.00
  197.24        3347.25           6825           8.00        18.74
  197.26        3347.50           6829           4.00         2.00
  197.29        3347.75           6833           5.00         5.67
  197.32        3348.00           6836           8.00        18.74
  197.35        3348.25           6840           3.00         2.00
  197.37        3348.50           6844           7.00        14.39
  197.40        3348.75           6848           4.00         2.00
  197.43        3349.00           6851           4.00         2.00
  197.46        3349.25           6855           8.00        18.74
  197.48        3349.50           6859           4.00         2.00
  197.51        3349.75           6863           3.00         2.00
  197.54        3350.00           6867           0.00         2.00
  197.57        3350.25           6870           7.00        14.39
  197.59        3350.50           6874           4.00         2.00
  197.62        3350.75           6878           4.00         2.00
  197.65        3351.00           6882           8.00        18.74
HL scan finished at 03:18:16
end
