************************************************************
  HL Scan of (1) Internal mercury lamp
************************************************************
Integration time is 0.2294 seconds per sample
dh210417Tamanrasset 22.79-5.529 2.838171pr865
************************************************************
Dead Time -------------------------  2.8E-08 
Number of Cycles Used -------------  4 
Starting Wavelength (Angstroms) ---  3331 
Final Wavelength (Angstoms) -------  3351 
Wavelength Increment (Angstroms) --  .25 
Filter Wheel #1 Position ---------- (1) Ground quartz diffuser (ND=2.32)
Filter Wheel #2 Position ---------- (0) Clear Aperture



************************************************************
HL scan start time = 03:13:58
Dark Count =  5.1 


Time (GMT)  Wavelength (Ang)  Step Number  Raw Counts  Counts/Second

  194.47        3331.00           6581           6.00         3.92
  194.69        3331.25           6585           5.00         2.00
  194.71        3331.50           6589           0.00         2.00
  194.74        3331.75           6593           2.00         2.00
  194.77        3332.00           6596           8.00        12.64
  194.80        3332.25           6600           3.00         2.00
  194.82        3332.50           6604           0.00         2.00
  194.85        3332.75           6608           5.00         2.00
  194.88        3333.00           6611           3.00         2.00
  194.90        3333.25           6615           8.00        12.64
  194.93        3333.50           6619           8.00        12.64
  194.96        3333.75           6623           8.00        12.64
  194.99        3334.00           6626           2.00         2.00
  195.01        3334.25           6630           3.00         2.00
  195.04        3334.50           6634           4.00         2.00
  195.07        3334.75           6638           6.00         3.92
  195.09        3335.00           6641           5.00         2.00
  195.12        3335.25           6645           6.00         3.92
  195.15        3335.50           6649           7.00         8.28
  195.17        3335.75           6653           4.00         2.00
  195.20        3336.00           6656           0.00         2.00
  195.23        3336.25           6660           7.00         8.28
  195.26        3336.50           6664           8.00        12.64
  195.28        3336.75           6668           5.00         2.00
  195.31        3337.00           6671           8.00        12.64
  195.34        3337.25           6675           8.00        12.64
  195.37        3337.50           6679           1.00         2.00
  195.39        3337.75           6683           5.00         2.00
  195.42        3338.00           6686           0.00         2.00
  195.45        3338.25           6690           6.00         3.92
  195.47        3338.50           6694           8.00        12.64
  195.50        3338.75           6698           8.00        12.64
  195.53        3339.00           6701           4.00         2.00
  195.56        3339.25           6705           8.00        12.64
  195.58        3339.50           6709           0.00         2.00
  195.61        3339.75           6713           8.00        12.64
  195.64        3340.00           6716           2.00         2.00
  195.66        3340.25           6720           2.00         2.00
  195.69        3340.50           6724           0.00         2.00
  195.72        3340.75           6728           0.00         2.00
  195.74        3341.00           6731           7.00         8.28
  195.77        3341.25           6735           4.00         2.00
  195.80        3341.50           6739           0.00         2.00
  195.83        3341.75           6743           7.00         8.28
  195.85        3342.00           6746           6.00         3.92
  195.88        3342.25           6750           8.00        12.64
  195.91        3342.50           6754           1.00         2.00
  195.94        3342.75           6758           7.00         8.28
  195.96        3343.00           6761           0.00         2.00
  195.99        3343.25           6765           8.00        12.64
  196.02        3343.50           6769           8.00        12.64
  196.04        3343.75           6773           0.00         2.00
  196.07        3344.00           6776           2.00         2.00
  196.10        3344.25           6780           7.00         8.28
  196.12        3344.50           6784           6.00         3.92
  196.15        3344.75           6788           3.00         2.00
  196.18        3345.00           6791           7.00         8.28
  196.21        3345.25           6795           5.00         2.00
  196.23        3345.50           6799           8.00        12.64
  196.26        3345.75           6803           5.00         2.00
  196.29        3346.00           6806           8.00        12.64
  196.32        3346.25           6810           0.00         2.00
  196.34        3346.50           6814           2.00         2.00
  196.37        3346.75           6818           5.00         2.00
  196.40        3347.00           6821           8.00        12.64
  196.42        3347.25           6825           4.00         2.00
  196.45        3347.50           6829           1.00         2.00
  196.48        3347.75           6833           7.00         8.28
  196.50        3348.00           6836           8.00        12.64
  196.53        3348.25           6840           8.00        12.64
  196.56        3348.50           6844           8.00        12.64
  196.59        3348.75           6848           8.00        12.64
  196.61        3349.00           6851           2.00         2.00
  196.64        3349.25           6855           5.00         2.00
  196.67        3349.50           6859           3.00         2.00
  196.69        3349.75           6863           6.00         3.92
  196.72        3350.00           6867           0.00         2.00
  196.75        3350.25           6870           5.00         2.00
  196.78        3350.50           6874           8.00        12.64
  196.80        3350.75           6878           3.00         2.00
  196.83        3351.00           6882           8.00        12.64
HL scan finished at 03:17:27
end
