************************************************************
  HL Scan of (1) Internal mercury lamp
************************************************************
Integration time is 0.2294 seconds per sample
dh280417Tamanrasset 22.79-5.529 3.026809pr865
************************************************************
Dead Time -------------------------  2.8E-08 
Number of Cycles Used -------------  4 
Starting Wavelength (Angstroms) ---  3331 
Final Wavelength (Angstoms) -------  3351 
Wavelength Increment (Angstroms) --  .25 
Filter Wheel #1 Position ---------- (1) Ground quartz diffuser (ND=2.32)
Filter Wheel #2 Position ---------- (0) Clear Aperture



************************************************************
HL scan start time = 03:07:57
Dark Count =  6.4 


Time (GMT)  Wavelength (Ang)  Step Number  Raw Counts  Counts/Second

  188.46        3331.00           6581           0.00         2.00
  188.68        3331.25           6585           5.00         2.00
  188.71        3331.50           6589           6.00         2.00
  188.74        3331.75           6593           0.00         2.00
  188.76        3332.00           6596           1.00         2.00
  188.79        3332.25           6600           1.00         2.00
  188.82        3332.50           6604           4.00         2.00
  188.85        3332.75           6608           5.00         2.00
  188.87        3333.00           6611           0.00         2.00
  188.90        3333.25           6615           5.00         2.00
  188.93        3333.50           6619           8.00         6.97
  188.95        3333.75           6623           7.00         2.62
  188.98        3334.00           6626           4.00         2.00
  189.01        3334.25           6630           7.00         2.62
  189.04        3334.50           6634           5.00         2.00
  189.06        3334.75           6638           2.00         2.00
  189.09        3335.00           6641           8.00         6.97
  189.12        3335.25           6645           6.00         2.00
  189.14        3335.50           6649           8.00         6.97
  189.17        3335.75           6653           0.00         2.00
  189.20        3336.00           6656           4.00         2.00
  189.23        3336.25           6660           3.00         2.00
  189.25        3336.50           6664           4.00         2.00
  189.28        3336.75           6668           7.00         2.62
  189.31        3337.00           6671           0.00         2.00
  189.33        3337.25           6675           5.00         2.00
  189.36        3337.50           6679           7.00         2.62
  189.39        3337.75           6683           6.00         2.00
  189.42        3338.00           6686           2.00         2.00
  189.44        3338.25           6690           4.00         2.00
  189.47        3338.50           6694           6.00         2.00
  189.50        3338.75           6698           7.00         2.62
  189.52        3339.00           6701           8.00         6.97
  189.55        3339.25           6705           3.00         2.00
  189.58        3339.50           6709           7.00         2.62
  189.61        3339.75           6713           8.00         6.97
  189.63        3340.00           6716           8.00         6.97
  189.66        3340.25           6720           1.00         2.00
  189.69        3340.50           6724           7.00         2.62
  189.71        3340.75           6728           5.00         2.00
  189.74        3341.00           6731           6.00         2.00
  189.77        3341.25           6735           5.00         2.00
  189.80        3341.50           6739           3.00         2.00
  189.82        3341.75           6743           0.00         2.00
  189.85        3342.00           6746           8.00         6.97
  189.88        3342.25           6750           4.00         2.00
  189.90        3342.50           6754           4.00         2.00
  189.93        3342.75           6758           8.00         6.97
  189.96        3343.00           6761           1.00         2.00
  189.98        3343.25           6765           7.00         2.62
  190.01        3343.50           6769           2.00         2.00
  190.04        3343.75           6773           4.00         2.00
  190.07        3344.00           6776           2.00         2.00
  190.09        3344.25           6780           6.00         2.00
  190.12        3344.50           6784           6.00         2.00
  190.15        3344.75           6788           8.00         6.97
  190.17        3345.00           6791           0.00         2.00
  190.20        3345.25           6795           4.00         2.00
  190.23        3345.50           6799           8.00         6.97
  190.26        3345.75           6803           8.00         6.97
  190.28        3346.00           6806           4.00         2.00
  190.31        3346.25           6810           4.00         2.00
  190.34        3346.50           6814           4.00         2.00
  190.36        3346.75           6818           7.00         2.62
  190.39        3347.00           6821           3.00         2.00
  190.42        3347.25           6825           4.00         2.00
  190.45        3347.50           6829           3.00         2.00
  190.47        3347.75           6833           5.00         2.00
  190.50        3348.00           6836           4.00         2.00
  190.53        3348.25           6840           0.00         2.00
  190.55        3348.50           6844           7.00         2.62
  190.58        3348.75           6848           3.00         2.00
  190.61        3349.00           6851           6.00         2.00
  190.63        3349.25           6855           7.00         2.62
  190.66        3349.50           6859           6.00         2.00
  190.69        3349.75           6863           2.00         2.00
  190.72        3350.00           6867           3.00         2.00
  190.74        3350.25           6870           6.00         2.00
  190.77        3350.50           6874           1.00         2.00
  190.80        3350.75           6878           0.00         2.00
  190.82        3351.00           6882           0.00         2.00
HL scan finished at 03:11:27
end
