************************************************************
  HL Scan of (1) Internal mercury lamp
************************************************************
Integration time is 0.2294 seconds per sample
dh220417Tamanrasset 22.79-5.529 2.853466pr865
************************************************************
Dead Time -------------------------  2.8E-08 
Number of Cycles Used -------------  4 
Starting Wavelength (Angstroms) ---  3331 
Final Wavelength (Angstoms) -------  3351 
Wavelength Increment (Angstroms) --  .25 
Filter Wheel #1 Position ---------- (1) Ground quartz diffuser (ND=2.32)
Filter Wheel #2 Position ---------- (0) Clear Aperture



************************************************************
HL scan start time = 03:12:47
Dark Count =  4.4 


Time (GMT)  Wavelength (Ang)  Step Number  Raw Counts  Counts/Second

  193.30        3331.00           6581           5.00         2.62
  193.52        3331.25           6585           4.00         2.00
  193.54        3331.50           6589           7.00        11.33
  193.57        3331.75           6593           0.00         2.00
  193.60        3332.00           6596           3.00         2.00
  193.62        3332.25           6600           5.00         2.62
  193.65        3332.50           6604           5.00         2.62
  193.68        3332.75           6608           3.00         2.00
  193.71        3333.00           6611           2.00         2.00
  193.73        3333.25           6615           6.00         6.97
  193.76        3333.50           6619           7.00        11.33
  193.79        3333.75           6623           6.00         6.97
  193.81        3334.00           6626           7.00        11.33
  193.84        3334.25           6630           8.00        15.69
  193.87        3334.50           6634           0.00         2.00
  193.90        3334.75           6638           7.00        11.33
  193.92        3335.00           6641           5.00         2.62
  193.95        3335.25           6645           0.00         2.00
  193.98        3335.50           6649           8.00        15.69
  194.00        3335.75           6653           1.00         2.00
  194.03        3336.00           6656           8.00        15.69
  194.06        3336.25           6660           2.00         2.00
  194.09        3336.50           6664           5.00         2.62
  194.11        3336.75           6668           8.00        15.69
  194.14        3337.00           6671           8.00        15.69
  194.17        3337.25           6675           0.00         2.00
  194.19        3337.50           6679           4.00         2.00
  194.22        3337.75           6683           6.00         6.97
  194.25        3338.00           6686           4.00         2.00
  194.27        3338.25           6690           0.00         2.00
  194.30        3338.50           6694           8.00        15.69
  194.33        3338.75           6698           8.00        15.69
  194.36        3339.00           6701           8.00        15.69
  194.38        3339.25           6705           0.00         2.00
  194.41        3339.50           6709           6.00         6.97
  194.44        3339.75           6713           5.00         2.62
  194.47        3340.00           6716           5.00         2.62
  194.49        3340.25           6720           5.00         2.62
  194.52        3340.50           6724           4.00         2.00
  194.55        3340.75           6728           6.00         6.97
  194.57        3341.00           6731           1.00         2.00
  194.60        3341.25           6735           0.00         2.00
  194.63        3341.50           6739           0.00         2.00
  194.66        3341.75           6743           8.00        15.69
  194.68        3342.00           6746           4.00         2.00
  194.71        3342.25           6750           3.00         2.00
  194.74        3342.50           6754           3.00         2.00
  194.76        3342.75           6758           4.00         2.00
  194.79        3343.00           6761           8.00        15.69
  194.82        3343.25           6765           6.00         6.97
  194.85        3343.50           6769           8.00        15.69
  194.87        3343.75           6773           0.00         2.00
  194.90        3344.00           6776           0.00         2.00
  194.93        3344.25           6780           8.00        15.69
  194.95        3344.50           6784           0.00         2.00
  194.98        3344.75           6788           7.00        11.33
  195.01        3345.00           6791           5.00         2.62
  195.04        3345.25           6795           3.00         2.00
  195.06        3345.50           6799           0.00         2.00
  195.09        3345.75           6803           4.00         2.00
  195.12        3346.00           6806           2.00         2.00
  195.14        3346.25           6810           5.00         2.62
  195.17        3346.50           6814           8.00        15.69
  195.20        3346.75           6818           0.00         2.00
  195.22        3347.00           6821           5.00         2.62
  195.25        3347.25           6825           7.00        11.33
  195.28        3347.50           6829           6.00         6.97
  195.31        3347.75           6833           8.00        15.69
  195.33        3348.00           6836           0.00         2.00
  195.36        3348.25           6840           0.00         2.00
  195.39        3348.50           6844           8.00        15.69
  195.41        3348.75           6848           3.00         2.00
  195.44        3349.00           6851           3.00         2.00
  195.47        3349.25           6855           8.00        15.69
  195.50        3349.50           6859           2.00         2.00
  195.52        3349.75           6863           0.00         2.00
  195.55        3350.00           6867           7.00        11.33
  195.58        3350.25           6870           7.00        11.33
  195.60        3350.50           6874           7.00        11.33
  195.63        3350.75           6878           0.00         2.00
  195.66        3351.00           6882           8.00        15.69
HL scan finished at 03:16:17
end
