************************************************************
  HL Scan of (1) Internal mercury lamp
************************************************************
Integration time is 0.2294 seconds per sample
dh230417Tamanrasset 22.79-5.529 3.031907pr865
************************************************************
Dead Time -------------------------  2.8E-08 
Number of Cycles Used -------------  4 
Starting Wavelength (Angstroms) ---  3331 
Final Wavelength (Angstoms) -------  3351 
Wavelength Increment (Angstroms) --  .25 
Filter Wheel #1 Position ---------- (1) Ground quartz diffuser (ND=2.32)
Filter Wheel #2 Position ---------- (0) Clear Aperture



************************************************************
HL scan start time = 03:11:47
Dark Count =  5.3 


Time (GMT)  Wavelength (Ang)  Step Number  Raw Counts  Counts/Second

  192.30        3331.00           6581           0.00         2.00
  192.52        3331.25           6585           4.00         2.00
  192.55        3331.50           6589           4.00         2.00
  192.57        3331.75           6593           5.00         2.00
  192.60        3332.00           6596           3.00         2.00
  192.63        3332.25           6600           3.00         2.00
  192.66        3332.50           6604           6.00         3.05
  192.68        3332.75           6608           1.00         2.00
  192.71        3333.00           6611           7.00         7.41
  192.74        3333.25           6615           3.00         2.00
  192.76        3333.50           6619           0.00         2.00
  192.79        3333.75           6623           4.00         2.00
  192.82        3334.00           6626           5.00         2.00
  192.85        3334.25           6630           3.00         2.00
  192.87        3334.50           6634           0.00         2.00
  192.90        3334.75           6638           7.00         7.41
  192.93        3335.00           6641           6.00         3.05
  192.95        3335.25           6645           5.00         2.00
  192.98        3335.50           6649           6.00         3.05
  193.01        3335.75           6653           4.00         2.00
  193.04        3336.00           6656           7.00         7.41
  193.06        3336.25           6660           3.00         2.00
  193.09        3336.50           6664           3.00         2.00
  193.12        3336.75           6668           5.00         2.00
  193.14        3337.00           6671           3.00         2.00
  193.17        3337.25           6675           2.00         2.00
  193.20        3337.50           6679           6.00         3.05
  193.23        3337.75           6683           3.00         2.00
  193.25        3338.00           6686           6.00         3.05
  193.28        3338.25           6690           3.00         2.00
  193.31        3338.50           6694           7.00         7.41
  193.33        3338.75           6698           5.00         2.00
  193.36        3339.00           6701           5.00         2.00
  193.39        3339.25           6705           8.00        11.77
  193.42        3339.50           6709           6.00         3.05
  193.44        3339.75           6713           8.00        11.77
  193.47        3340.00           6716           4.00         2.00
  193.50        3340.25           6720           4.00         2.00
  193.52        3340.50           6724           4.00         2.00
  193.55        3340.75           6728           4.00         2.00
  193.58        3341.00           6731           3.00         2.00
  193.61        3341.25           6735           0.00         2.00
  193.63        3341.50           6739           5.00         2.00
  193.66        3341.75           6743           2.00         2.00
  193.69        3342.00           6746           2.00         2.00
  193.71        3342.25           6750           5.00         2.00
  193.74        3342.50           6754           3.00         2.00
  193.77        3342.75           6758           6.00         3.05
  193.80        3343.00           6761           0.00         2.00
  193.82        3343.25           6765           7.00         7.41
  193.85        3343.50           6769           4.00         2.00
  193.88        3343.75           6773           3.00         2.00
  193.90        3344.00           6776           5.00         2.00
  193.93        3344.25           6780           2.00         2.00
  193.96        3344.50           6784           8.00        11.77
  193.99        3344.75           6788           2.00         2.00
  194.01        3345.00           6791           5.00         2.00
  194.04        3345.25           6795           7.00         7.41
  194.07        3345.50           6799           3.00         2.00
  194.09        3345.75           6803           5.00         2.00
  194.12        3346.00           6806           8.00        11.77
  194.15        3346.25           6810           0.00         2.00
  194.18        3346.50           6814           3.00         2.00
  194.20        3346.75           6818           8.00        11.77
  194.23        3347.00           6821           4.00         2.00
  194.26        3347.25           6825           8.00        11.77
  194.28        3347.50           6829           8.00        11.77
  194.31        3347.75           6833           3.00         2.00
  194.34        3348.00           6836           6.00         3.05
  194.37        3348.25           6840           7.00         7.41
  194.39        3348.50           6844           6.00         3.05
  194.42        3348.75           6848           8.00        11.77
  194.45        3349.00           6851           6.00         3.05
  194.47        3349.25           6855           7.00         7.41
  194.50        3349.50           6859           6.00         3.05
  194.53        3349.75           6863           4.00         2.00
  194.55        3350.00           6867           6.00         3.05
  194.58        3350.25           6870           7.00         7.41
  194.61        3350.50           6874           5.00         2.00
  194.64        3350.75           6878           7.00         7.41
  194.66        3351.00           6882           5.00         2.00
HL scan finished at 03:15:17
end
