************************************************************
  HL Scan of (1) Internal mercury lamp
************************************************************
Integration time is 0.2294 seconds per sample
dh260417Tamanrasset 22.79-5.529 2.986022pr865
************************************************************
Dead Time -------------------------  2.8E-08 
Number of Cycles Used -------------  4 
Starting Wavelength (Angstroms) ---  3331 
Final Wavelength (Angstoms) -------  3351 
Wavelength Increment (Angstroms) --  .25 
Filter Wheel #1 Position ---------- (1) Ground quartz diffuser (ND=2.32)
Filter Wheel #2 Position ---------- (0) Clear Aperture



************************************************************
HL scan start time = 03:09:44
Dark Count =  4.4 


Time (GMT)  Wavelength (Ang)  Step Number  Raw Counts  Counts/Second

  190.25        3331.00           6581           8.00        15.69
  190.47        3331.25           6585           0.00         2.00
  190.50        3331.50           6589           8.00        15.69
  190.52        3331.75           6593           5.00         2.62
  190.55        3332.00           6596           5.00         2.62
  190.58        3332.25           6600           0.00         2.00
  190.61        3332.50           6604           1.00         2.00
  190.63        3332.75           6608           7.00        11.33
  190.66        3333.00           6611           5.00         2.62
  190.69        3333.25           6615           0.00         2.00
  190.71        3333.50           6619           8.00        15.69
  190.74        3333.75           6623           8.00        15.69
  190.77        3334.00           6626           1.00         2.00
  190.80        3334.25           6630           8.00        15.69
  190.82        3334.50           6634           6.00         6.97
  190.85        3334.75           6638           1.00         2.00
  190.88        3335.00           6641           3.00         2.00
  190.90        3335.25           6645           5.00         2.62
  190.93        3335.50           6649           3.00         2.00
  190.96        3335.75           6653           4.00         2.00
  190.99        3336.00           6656           4.00         2.00
  191.01        3336.25           6660           8.00        15.69
  191.04        3336.50           6664           4.00         2.00
  191.07        3336.75           6668           4.00         2.00
  191.09        3337.00           6671           0.00         2.00
  191.12        3337.25           6675           7.00        11.33
  191.15        3337.50           6679           2.00         2.00
  191.18        3337.75           6683           7.00        11.33
  191.20        3338.00           6686           3.00         2.00
  191.23        3338.25           6690           0.00         2.00
  191.26        3338.50           6694           1.00         2.00
  191.28        3338.75           6698           4.00         2.00
  191.31        3339.00           6701           8.00        15.69
  191.34        3339.25           6705           5.00         2.62
  191.37        3339.50           6709           8.00        15.69
  191.39        3339.75           6713           4.00         2.00
  191.42        3340.00           6716           3.00         2.00
  191.45        3340.25           6720           3.00         2.00
  191.47        3340.50           6724           5.00         2.62
  191.50        3340.75           6728           3.00         2.00
  191.53        3341.00           6731           8.00        15.69
  191.55        3341.25           6735           3.00         2.00
  191.58        3341.50           6739           0.00         2.00
  191.61        3341.75           6743           5.00         2.62
  191.64        3342.00           6746           6.00         6.97
  191.66        3342.25           6750           4.00         2.00
  191.69        3342.50           6754           6.00         6.97
  191.72        3342.75           6758           1.00         2.00
  191.74        3343.00           6761           4.00         2.00
  191.77        3343.25           6765           8.00        15.69
  191.80        3343.50           6769           0.00         2.00
  191.83        3343.75           6773           4.00         2.00
  191.85        3344.00           6776           2.00         2.00
  191.88        3344.25           6780           8.00        15.69
  191.91        3344.50           6784           3.00         2.00
  191.93        3344.75           6788           7.00        11.33
  191.96        3345.00           6791           6.00         6.97
  191.99        3345.25           6795           4.00         2.00
  192.02        3345.50           6799           3.00         2.00
  192.04        3345.75           6803           0.00         2.00
  192.07        3346.00           6806           1.00         2.00
  192.10        3346.25           6810           5.00         2.62
  192.12        3346.50           6814           7.00        11.33
  192.15        3346.75           6818           0.00         2.00
  192.18        3347.00           6821           1.00         2.00
  192.21        3347.25           6825           8.00        15.69
  192.23        3347.50           6829           2.00         2.00
  192.26        3347.75           6833           6.00         6.97
  192.29        3348.00           6836           1.00         2.00
  192.31        3348.25           6840           6.00         6.97
  192.34        3348.50           6844           5.00         2.62
  192.37        3348.75           6848           1.00         2.00
  192.39        3349.00           6851           6.00         6.97
  192.42        3349.25           6855           7.00        11.33
  192.45        3349.50           6859           6.00         6.97
  192.48        3349.75           6863           7.00        11.33
  192.50        3350.00           6867           1.00         2.00
  192.53        3350.25           6870           4.00         2.00
  192.56        3350.50           6874           4.00         2.00
  192.59        3350.75           6878           4.00         2.00
  192.61        3351.00           6882           3.00         2.00
HL scan finished at 03:13:14
end
