************************************************************
  HL Scan of (1) Internal mercury lamp
************************************************************
Integration time is 0.2294 seconds per sample
dh240417Tamanrasset 22.79-5.529 3.220544pr865
************************************************************
Dead Time -------------------------  2.8E-08 
Number of Cycles Used -------------  4 
Starting Wavelength (Angstroms) ---  3331 
Final Wavelength (Angstoms) -------  3351 
Wavelength Increment (Angstroms) --  .25 
Filter Wheel #1 Position ---------- (1) Ground quartz diffuser (ND=2.32)
Filter Wheel #2 Position ---------- (0) Clear Aperture



************************************************************
HL scan start time = 03:10:57
Dark Count =  5 


Time (GMT)  Wavelength (Ang)  Step Number  Raw Counts  Counts/Second

  191.46        3331.00           6581           3.00         2.00
  191.68        3331.25           6585           5.00         2.00
  191.70        3331.50           6589           2.00         2.00
  191.73        3331.75           6593           5.00         2.00
  191.76        3332.00           6596           4.00         2.00
  191.79        3332.25           6600           3.00         2.00
  191.81        3332.50           6604           3.00         2.00
  191.84        3332.75           6608           6.00         4.36
  191.87        3333.00           6611           5.00         2.00
  191.89        3333.25           6615           3.00         2.00
  191.92        3333.50           6619           6.00         4.36
  191.95        3333.75           6623           7.00         8.72
  191.98        3334.00           6626           3.00         2.00
  192.00        3334.25           6630           9.00        17.44
  192.03        3334.50           6634           4.00         2.00
  192.06        3334.75           6638           6.00         4.36
  192.08        3335.00           6641           7.00         8.72
  192.11        3335.25           6645           5.00         2.00
  192.14        3335.50           6649           7.00         8.72
  192.17        3335.75           6653           2.00         2.00
  192.19        3336.00           6656           7.00         8.72
  192.22        3336.25           6660           7.00         8.72
  192.25        3336.50           6664           6.00         4.36
  192.27        3336.75           6668           7.00         8.72
  192.30        3337.00           6671           5.00         2.00
  192.33        3337.25           6675           4.00         2.00
  192.36        3337.50           6679           8.00        13.08
  192.38        3337.75           6683           6.00         4.36
  192.41        3338.00           6686           6.00         4.36
  192.44        3338.25           6690           4.00         2.00
  192.46        3338.50           6694           5.00         2.00
  192.49        3338.75           6698           6.00         4.36
  192.52        3339.00           6701           2.00         2.00
  192.54        3339.25           6705           5.00         2.00
  192.57        3339.50           6709           5.00         2.00
  192.60        3339.75           6713           4.00         2.00
  192.63        3340.00           6716           4.00         2.00
  192.65        3340.25           6720           4.00         2.00
  192.68        3340.50           6724           7.00         8.72
  192.71        3340.75           6728           4.00         2.00
  192.73        3341.00           6731           7.00         8.72
  192.76        3341.25           6735           6.00         4.36
  192.79        3341.50           6739           8.00        13.08
  192.82        3341.75           6743           8.00        13.08
  192.84        3342.00           6746           6.00         4.36
  192.87        3342.25           6750           5.00         2.00
  192.90        3342.50           6754           5.00         2.00
  192.92        3342.75           6758           8.00        13.08
  192.95        3343.00           6761           5.00         2.00
  192.98        3343.25           6765           8.00        13.08
  193.01        3343.50           6769           6.00         4.36
  193.03        3343.75           6773           6.00         4.36
  193.06        3344.00           6776           4.00         2.00
  193.09        3344.25           6780           5.00         2.00
  193.11        3344.50           6784           6.00         4.36
  193.14        3344.75           6788           0.00         2.00
  193.17        3345.00           6791           4.00         2.00
  193.20        3345.25           6795           9.00        17.44
  193.22        3345.50           6799           5.00         2.00
  193.25        3345.75           6803           1.00         2.00
  193.28        3346.00           6806           5.00         2.00
  193.30        3346.25           6810           3.00         2.00
  193.33        3346.50           6814           8.00        13.08
  193.36        3346.75           6818           3.00         2.00
  193.39        3347.00           6821           3.00         2.00
  193.41        3347.25           6825           5.00         2.00
  193.44        3347.50           6829           9.00        17.44
  193.47        3347.75           6833           2.00         2.00
  193.49        3348.00           6836           4.00         2.00
  193.52        3348.25           6840           8.00        13.08
  193.55        3348.50           6844           5.00         2.00
  193.57        3348.75           6848           7.00         8.72
  193.60        3349.00           6851           2.00         2.00
  193.63        3349.25           6855           3.00         2.00
  193.66        3349.50           6859           8.00        13.08
  193.68        3349.75           6863           6.00         4.36
  193.71        3350.00           6867           6.00         4.36
  193.74        3350.25           6870           5.00         2.00
  193.76        3350.50           6874           6.00         4.36
  193.79        3350.75           6878           6.00         4.36
  193.82        3351.00           6882           8.00        13.08
HL scan finished at 03:14:27
end
