************************************************************
  HL Scan of (1) Internal mercury lamp
************************************************************
Integration time is 0.2294 seconds per sample
dh250417Tamanrasset 22.79-5.529 3.011514pr865
************************************************************
Dead Time -------------------------  2.8E-08 
Number of Cycles Used -------------  4 
Starting Wavelength (Angstroms) ---  3331 
Final Wavelength (Angstoms) -------  3351 
Wavelength Increment (Angstroms) --  .25 
Filter Wheel #1 Position ---------- (1) Ground quartz diffuser (ND=2.32)
Filter Wheel #2 Position ---------- (0) Clear Aperture



************************************************************
HL scan start time = 03:10:45
Dark Count =  6.6 


Time (GMT)  Wavelength (Ang)  Step Number  Raw Counts  Counts/Second

  191.26        3331.00           6581           5.00         2.00
  191.48        3331.25           6585           8.00         6.10
  191.50        3331.50           6589           4.00         2.00
  191.53        3331.75           6593           1.00         2.00
  191.56        3332.00           6596           6.00         2.00
  191.59        3332.25           6600           4.00         2.00
  191.61        3332.50           6604           4.00         2.00
  191.64        3332.75           6608           8.00         6.10
  191.67        3333.00           6611           5.00         2.00
  191.69        3333.25           6615           8.00         6.10
  191.72        3333.50           6619           8.00         6.10
  191.75        3333.75           6623           8.00         6.10
  191.77        3334.00           6626           4.00         2.00
  191.80        3334.25           6630           0.00         2.00
  191.83        3334.50           6634           4.00         2.00
  191.86        3334.75           6638           6.00         2.00
  191.88        3335.00           6641           1.00         2.00
  191.91        3335.25           6645           4.00         2.00
  191.94        3335.50           6649           4.00         2.00
  191.96        3335.75           6653           7.00         2.00
  191.99        3336.00           6656           8.00         6.10
  192.02        3336.25           6660           0.00         2.00
  192.05        3336.50           6664           7.00         2.00
  192.07        3336.75           6668           3.00         2.00
  192.10        3337.00           6671           2.00         2.00
  192.13        3337.25           6675           2.00         2.00
  192.15        3337.50           6679           5.00         2.00
  192.18        3337.75           6683           2.00         2.00
  192.21        3338.00           6686           3.00         2.00
  192.24        3338.25           6690           4.00         2.00
  192.26        3338.50           6694           7.00         2.00
  192.29        3338.75           6698           8.00         6.10
  192.32        3339.00           6701           3.00         2.00
  192.34        3339.25           6705           3.00         2.00
  192.37        3339.50           6709           5.00         2.00
  192.40        3339.75           6713           6.00         2.00
  192.43        3340.00           6716           0.00         2.00
  192.45        3340.25           6720           4.00         2.00
  192.48        3340.50           6724           0.00         2.00
  192.51        3340.75           6728           1.00         2.00
  192.53        3341.00           6731           7.00         2.00
  192.56        3341.25           6735           7.00         2.00
  192.59        3341.50           6739           6.00         2.00
  192.62        3341.75           6743           8.00         6.10
  192.64        3342.00           6746           5.00         2.00
  192.67        3342.25           6750           4.00         2.00
  192.70        3342.50           6754           4.00         2.00
  192.72        3342.75           6758           7.00         2.00
  192.75        3343.00           6761           6.00         2.00
  192.78        3343.25           6765           3.00         2.00
  192.81        3343.50           6769           0.00         2.00
  192.83        3343.75           6773           5.00         2.00
  192.86        3344.00           6776           7.00         2.00
  192.89        3344.25           6780           7.00         2.00
  192.91        3344.50           6784           4.00         2.00
  192.94        3344.75           6788           6.00         2.00
  192.97        3345.00           6791           0.00         2.00
  193.00        3345.25           6795           7.00         2.00
  193.02        3345.50           6799           2.00         2.00
  193.05        3345.75           6803           6.00         2.00
  193.08        3346.00           6806           0.00         2.00
  193.10        3346.25           6810           0.00         2.00
  193.13        3346.50           6814           5.00         2.00
  193.16        3346.75           6818           0.00         2.00
  193.19        3347.00           6821           8.00         6.10
  193.21        3347.25           6825           1.00         2.00
  193.24        3347.50           6829           3.00         2.00
  193.27        3347.75           6833           8.00         6.10
  193.29        3348.00           6836           5.00         2.00
  193.32        3348.25           6840           3.00         2.00
  193.35        3348.50           6844           8.00         6.10
  193.38        3348.75           6848           5.00         2.00
  193.40        3349.00           6851           1.00         2.00
  193.43        3349.25           6855           1.00         2.00
  193.46        3349.50           6859           3.00         2.00
  193.48        3349.75           6863           1.00         2.00
  193.51        3350.00           6867           6.00         2.00
  193.54        3350.25           6870           5.00         2.00
  193.57        3350.50           6874           8.00         6.10
  193.59        3350.75           6878           7.00         2.00
  193.62        3351.00           6882           5.00         2.00
HL scan finished at 03:14:14
end
