************************************************************
  HL Scan of (1) Internal mercury lamp
************************************************************
Integration time is 0.2294 seconds per sample
dh290417Tamanrasset 22.79-5.529 3.164463pr865
************************************************************
Dead Time -------------------------  2.8E-08 
Number of Cycles Used -------------  4 
Starting Wavelength (Angstroms) ---  3331 
Final Wavelength (Angstoms) -------  3351 
Wavelength Increment (Angstroms) --  .25 
Filter Wheel #1 Position ---------- (1) Ground quartz diffuser (ND=2.32)
Filter Wheel #2 Position ---------- (0) Clear Aperture



************************************************************
HL scan start time = 03:07:46
Dark Count =  3.8 


Time (GMT)  Wavelength (Ang)  Step Number  Raw Counts  Counts/Second

  188.27        3331.00           6581           5.00         5.23
  188.49        3331.25           6585           5.00         5.23
  188.52        3331.50           6589           7.00        13.95
  188.55        3331.75           6593           5.00         5.23
  188.57        3332.00           6596           1.00         2.00
  188.60        3332.25           6600           5.00         5.23
  188.63        3332.50           6604           6.00         9.59
  188.65        3332.75           6608           6.00         9.59
  188.68        3333.00           6611           4.00         2.00
  188.71        3333.25           6615           1.00         2.00
  188.74        3333.50           6619           1.00         2.00
  188.76        3333.75           6623           6.00         9.59
  188.79        3334.00           6626           7.00        13.95
  188.82        3334.25           6630           5.00         5.23
  188.84        3334.50           6634           5.00         5.23
  188.87        3334.75           6638           4.00         2.00
  188.90        3335.00           6641           4.00         2.00
  188.93        3335.25           6645           6.00         9.59
  188.95        3335.50           6649           5.00         5.23
  188.98        3335.75           6653           3.00         2.00
  189.01        3336.00           6656           6.00         9.59
  189.03        3336.25           6660           2.00         2.00
  189.06        3336.50           6664           8.00        18.31
  189.09        3336.75           6668           7.00        13.95
  189.12        3337.00           6671           2.00         2.00
  189.14        3337.25           6675           8.00        18.31
  189.17        3337.50           6679           5.00         5.23
  189.20        3337.75           6683           9.00        22.67
  189.22        3338.00           6686           6.00         9.59
  189.25        3338.25           6690           4.00         2.00
  189.28        3338.50           6694           6.00         9.59
  189.31        3338.75           6698           8.00        18.31
  189.33        3339.00           6701           4.00         2.00
  189.36        3339.25           6705           7.00        13.95
  189.39        3339.50           6709           9.00        22.67
  189.41        3339.75           6713           7.00        13.95
  189.44        3340.00           6716           5.00         5.23
  189.47        3340.25           6720           4.00         2.00
  189.50        3340.50           6724           7.00        13.95
  189.52        3340.75           6728           7.00        13.95
  189.55        3341.00           6731           5.00         5.23
  189.58        3341.25           6735           6.00         9.59
  189.60        3341.50           6739           6.00         9.59
  189.63        3341.75           6743           4.00         2.00
  189.66        3342.00           6746           7.00        13.95
  189.69        3342.25           6750           3.00         2.00
  189.71        3342.50           6754           4.00         2.00
  189.74        3342.75           6758           5.00         5.23
  189.77        3343.00           6761           2.00         2.00
  189.79        3343.25           6765           5.00         5.23
  189.82        3343.50           6769           5.00         5.23
  189.85        3343.75           6773           3.00         2.00
  189.88        3344.00           6776           3.00         2.00
  189.90        3344.25           6780           7.00        13.95
  189.93        3344.50           6784           6.00         9.59
  189.96        3344.75           6788           4.00         2.00
  189.98        3345.00           6791           7.00        13.95
  190.01        3345.25           6795           4.00         2.00
  190.04        3345.50           6799           6.00         9.59
  190.07        3345.75           6803           2.00         2.00
  190.09        3346.00           6806           4.00         2.00
  190.12        3346.25           6810           4.00         2.00
  190.15        3346.50           6814           5.00         5.23
  190.17        3346.75           6818           4.00         2.00
  190.20        3347.00           6821           6.00         9.59
  190.23        3347.25           6825           3.00         2.00
  190.26        3347.50           6829           7.00        13.95
  190.28        3347.75           6833           2.00         2.00
  190.31        3348.00           6836           2.00         2.00
  190.34        3348.25           6840           7.00        13.95
  190.36        3348.50           6844           3.00         2.00
  190.39        3348.75           6848           3.00         2.00
  190.42        3349.00           6851           6.00         9.59
  190.45        3349.25           6855           2.00         2.00
  190.47        3349.50           6859           7.00        13.95
  190.50        3349.75           6863           4.00         2.00
  190.53        3350.00           6867           6.00         9.59
  190.55        3350.25           6870           1.00         2.00
  190.58        3350.50           6874           8.00        18.31
  190.61        3350.75           6878           4.00         2.00
  190.64        3351.00           6882           5.00         5.23
HL scan finished at 03:11:16
end
