************************************************************
  HL Scan of (1) Internal mercury lamp
************************************************************
Integration time is 0.2294 seconds per sample
dh080517Tamanrasset 22.79-5.529 3.210348pr865
************************************************************
Dead Time -------------------------  2.8E-08 
Number of Cycles Used -------------  4 
Starting Wavelength (Angstroms) ---  3331 
Final Wavelength (Angstoms) -------  3351 
Wavelength Increment (Angstroms) --  .25 
Filter Wheel #1 Position ---------- (1) Ground quartz diffuser (ND=2.32)
Filter Wheel #2 Position ---------- (0) Clear Aperture



************************************************************
HL scan start time = 03:01:46
Dark Count =  5.3 


Time (GMT)  Wavelength (Ang)  Step Number  Raw Counts  Counts/Second

  182.28        3331.00           6581           6.00         3.05
  182.50        3331.25           6585           8.00        11.77
  182.53        3331.50           6589           5.00         2.00
  182.55        3331.75           6593           5.00         2.00
  182.58        3332.00           6596           8.00        11.77
  182.61        3332.25           6600           6.00         3.05
  182.64        3332.50           6604           4.00         2.00
  182.66        3332.75           6608           8.00        11.77
  182.69        3333.00           6611           1.00         2.00
  182.72        3333.25           6615           4.00         2.00
  182.74        3333.50           6619           6.00         3.05
  182.77        3333.75           6623           6.00         3.05
  182.80        3334.00           6626           4.00         2.00
  182.82        3334.25           6630           1.00         2.00
  182.85        3334.50           6634           6.00         3.05
  182.88        3334.75           6638           7.00         7.41
  182.91        3335.00           6641           5.00         2.00
  182.93        3335.25           6645           7.00         7.41
  182.96        3335.50           6649           4.00         2.00
  182.99        3335.75           6653           8.00        11.77
  183.01        3336.00           6656           7.00         7.41
  183.04        3336.25           6660           6.00         3.05
  183.07        3336.50           6664           7.00         7.41
  183.10        3336.75           6668           4.00         2.00
  183.12        3337.00           6671           7.00         7.41
  183.15        3337.25           6675           4.00         2.00
  183.18        3337.50           6679           8.00        11.77
  183.20        3337.75           6683           8.00        11.77
  183.23        3338.00           6686           8.00        11.77
  183.26        3338.25           6690           8.00        11.77
  183.29        3338.50           6694           8.00        11.77
  183.31        3338.75           6698           4.00         2.00
  183.34        3339.00           6701           5.00         2.00
  183.37        3339.25           6705           8.00        11.77
  183.39        3339.50           6709           6.00         3.05
  183.42        3339.75           6713           6.00         3.05
  183.45        3340.00           6716           8.00        11.77
  183.48        3340.25           6720           7.00         7.41
  183.50        3340.50           6724           2.00         2.00
  183.53        3340.75           6728           8.00        11.77
  183.56        3341.00           6731           5.00         2.00
  183.58        3341.25           6735           8.00        11.77
  183.61        3341.50           6739           8.00        11.77
  183.64        3341.75           6743           4.00         2.00
  183.67        3342.00           6746           6.00         3.05
  183.69        3342.25           6750           4.00         2.00
  183.72        3342.50           6754           3.00         2.00
  183.75        3342.75           6758           6.00         3.05
  183.77        3343.00           6761           9.00        16.13
  183.80        3343.25           6765           5.00         2.00
  183.83        3343.50           6769           2.00         2.00
  183.86        3343.75           6773           7.00         7.41
  183.88        3344.00           6776           7.00         7.41
  183.91        3344.25           6780           5.00         2.00
  183.94        3344.50           6784           4.00         2.00
  183.96        3344.75           6788           8.00        11.77
  183.99        3345.00           6791           7.00         7.41
  184.02        3345.25           6795           6.00         3.05
  184.05        3345.50           6799           3.00         2.00
  184.07        3345.75           6803           5.00         2.00
  184.10        3346.00           6806           8.00        11.77
  184.13        3346.25           6810           6.00         3.05
  184.15        3346.50           6814           7.00         7.41
  184.18        3346.75           6818           8.00        11.77
  184.21        3347.00           6821           6.00         3.05
  184.24        3347.25           6825           6.00         3.05
  184.26        3347.50           6829           5.00         2.00
  184.29        3347.75           6833           7.00         7.41
  184.32        3348.00           6836           9.00        16.13
  184.34        3348.25           6840           3.00         2.00
  184.37        3348.50           6844           0.00         2.00
  184.40        3348.75           6848           6.00         3.05
  184.42        3349.00           6851           4.00         2.00
  184.45        3349.25           6855           4.00         2.00
  184.48        3349.50           6859           5.00         2.00
  184.51        3349.75           6863           4.00         2.00
  184.53        3350.00           6867           3.00         2.00
  184.56        3350.25           6870           6.00         3.05
  184.59        3350.50           6874           3.00         2.00
  184.61        3350.75           6878           8.00        11.77
  184.64        3351.00           6882           5.00         2.00
HL scan finished at 03:05:16
end
