************************************************************
  HL Scan of (1) Internal mercury lamp
************************************************************
Integration time is 0.2294 seconds per sample
dh300417Tamanrasset 22.79-5.529 3.149168pr865
************************************************************
Dead Time -------------------------  2.8E-08 
Number of Cycles Used -------------  4 
Starting Wavelength (Angstroms) ---  3331 
Final Wavelength (Angstoms) -------  3351 
Wavelength Increment (Angstroms) --  .25 
Filter Wheel #1 Position ---------- (1) Ground quartz diffuser (ND=2.32)
Filter Wheel #2 Position ---------- (0) Clear Aperture



************************************************************
HL scan start time = 03:06:47
Dark Count =  5.5 


Time (GMT)  Wavelength (Ang)  Step Number  Raw Counts  Counts/Second

  187.30        3331.00           6581           3.00         2.00
  187.52        3331.25           6585           6.00         2.18
  187.55        3331.50           6589           4.00         2.00
  187.57        3331.75           6593           3.00         2.00
  187.60        3332.00           6596           7.00         6.54
  187.63        3332.25           6600           7.00         6.54
  187.66        3332.50           6604           8.00        10.90
  187.68        3332.75           6608           3.00         2.00
  187.71        3333.00           6611           4.00         2.00
  187.74        3333.25           6615           6.00         2.18
  187.76        3333.50           6619           5.00         2.00
  187.79        3333.75           6623           1.00         2.00
  187.82        3334.00           6626           5.00         2.00
  187.85        3334.25           6630           5.00         2.00
  187.87        3334.50           6634           4.00         2.00
  187.90        3334.75           6638           5.00         2.00
  187.93        3335.00           6641           5.00         2.00
  187.95        3335.25           6645           8.00        10.90
  187.98        3335.50           6649           5.00         2.00
  188.01        3335.75           6653           8.00        10.90
  188.04        3336.00           6656           6.00         2.18
  188.06        3336.25           6660           8.00        10.90
  188.09        3336.50           6664           4.00         2.00
  188.12        3336.75           6668           0.00         2.00
  188.14        3337.00           6671           7.00         6.54
  188.17        3337.25           6675           6.00         2.18
  188.20        3337.50           6679           7.00         6.54
  188.22        3337.75           6683           1.00         2.00
  188.25        3338.00           6686           3.00         2.00
  188.28        3338.25           6690           2.00         2.00
  188.31        3338.50           6694           6.00         2.18
  188.33        3338.75           6698           8.00        10.90
  188.36        3339.00           6701           9.00        15.26
  188.39        3339.25           6705           3.00         2.00
  188.42        3339.50           6709           7.00         6.54
  188.44        3339.75           6713           7.00         6.54
  188.47        3340.00           6716           7.00         6.54
  188.50        3340.25           6720           6.00         2.18
  188.52        3340.50           6724           7.00         6.54
  188.55        3340.75           6728           5.00         2.00
  188.58        3341.00           6731           6.00         2.18
  188.60        3341.25           6735           3.00         2.00
  188.63        3341.50           6739           7.00         6.54
  188.66        3341.75           6743           8.00        10.90
  188.69        3342.00           6746           4.00         2.00
  188.71        3342.25           6750           7.00         6.54
  188.74        3342.50           6754           4.00         2.00
  188.77        3342.75           6758           4.00         2.00
  188.79        3343.00           6761           6.00         2.18
  188.82        3343.25           6765           5.00         2.00
  188.85        3343.50           6769           8.00        10.90
  188.88        3343.75           6773           4.00         2.00
  188.90        3344.00           6776           4.00         2.00
  188.93        3344.25           6780           6.00         2.18
  188.96        3344.50           6784           1.00         2.00
  188.98        3344.75           6788           7.00         6.54
  189.01        3345.00           6791           1.00         2.00
  189.04        3345.25           6795           6.00         2.18
  189.07        3345.50           6799           8.00        10.90
  189.09        3345.75           6803           7.00         6.54
  189.12        3346.00           6806           4.00         2.00
  189.15        3346.25           6810           6.00         2.18
  189.17        3346.50           6814           7.00         6.54
  189.20        3346.75           6818           8.00        10.90
  189.23        3347.00           6821           8.00        10.90
  189.26        3347.25           6825           8.00        10.90
  189.28        3347.50           6829           1.00         2.00
  189.31        3347.75           6833           8.00        10.90
  189.34        3348.00           6836           3.00         2.00
  189.36        3348.25           6840           7.00         6.54
  189.39        3348.50           6844           4.00         2.00
  189.42        3348.75           6848           7.00         6.54
  189.45        3349.00           6851           3.00         2.00
  189.47        3349.25           6855           4.00         2.00
  189.50        3349.50           6859           4.00         2.00
  189.53        3349.75           6863           1.00         2.00
  189.55        3350.00           6867           4.00         2.00
  189.58        3350.25           6870           7.00         6.54
  189.61        3350.50           6874           7.00         6.54
  189.64        3350.75           6878           7.00         6.54
  189.66        3351.00           6882           4.00         2.00
HL scan finished at 03:10:17
end
