************************************************************
  HL Scan of (1) Internal mercury lamp
************************************************************
Integration time is 0.2294 seconds per sample
dh010517Tamanrasset 22.79-5.529 3.398986pr865
************************************************************
Dead Time -------------------------  2.8E-08 
Number of Cycles Used -------------  4 
Starting Wavelength (Angstroms) ---  3331 
Final Wavelength (Angstoms) -------  3351 
Wavelength Increment (Angstroms) --  .25 
Filter Wheel #1 Position ---------- (1) Ground quartz diffuser (ND=2.32)
Filter Wheel #2 Position ---------- (0) Clear Aperture



************************************************************
HL scan start time = 03:05:47
Dark Count =  5.4 


Time (GMT)  Wavelength (Ang)  Step Number  Raw Counts  Counts/Second

  186.29        3331.00           6581           3.00         2.00
  186.51        3331.25           6585           5.00         2.00
  186.53        3331.50           6589           8.00        11.33
  186.56        3331.75           6593           4.00         2.00
  186.59        3332.00           6596           6.00         2.62
  186.62        3332.25           6600           8.00        11.33
  186.64        3332.50           6604           7.00         6.97
  186.67        3332.75           6608           5.00         2.00
  186.70        3333.00           6611           4.00         2.00
  186.72        3333.25           6615           7.00         6.97
  186.75        3333.50           6619           6.00         2.62
  186.78        3333.75           6623           7.00         6.97
  186.80        3334.00           6626           7.00         6.97
  186.83        3334.25           6630           7.00         6.97
  186.86        3334.50           6634           5.00         2.00
  186.89        3334.75           6638           2.00         2.00
  186.91        3335.00           6641           6.00         2.62
  186.94        3335.25           6645           5.00         2.00
  186.97        3335.50           6649           7.00         6.97
  186.99        3335.75           6653           7.00         6.97
  187.02        3336.00           6656           6.00         2.62
  187.05        3336.25           6660           6.00         2.62
  187.08        3336.50           6664           7.00         6.97
  187.10        3336.75           6668           7.00         6.97
  187.13        3337.00           6671           9.00        15.69
  187.16        3337.25           6675           6.00         2.62
  187.18        3337.50           6679           7.00         6.97
  187.21        3337.75           6683           6.00         2.62
  187.24        3338.00           6686           6.00         2.62
  187.27        3338.25           6690           7.00         6.97
  187.29        3338.50           6694           8.00        11.33
  187.32        3338.75           6698           6.00         2.62
  187.35        3339.00           6701           5.00         2.00
  187.37        3339.25           6705           3.00         2.00
  187.40        3339.50           6709           7.00         6.97
  187.43        3339.75           6713           7.00         6.97
  187.46        3340.00           6716           5.00         2.00
  187.48        3340.25           6720           7.00         6.97
  187.51        3340.50           6724           5.00         2.00
  187.54        3340.75           6728           6.00         2.62
  187.56        3341.00           6731           7.00         6.97
  187.59        3341.25           6735           7.00         6.97
  187.62        3341.50           6739           6.00         2.62
  187.65        3341.75           6743           4.00         2.00
  187.67        3342.00           6746           8.00        11.33
  187.70        3342.25           6750           6.00         2.62
  187.73        3342.50           6754           7.00         6.97
  187.75        3342.75           6758           8.00        11.33
  187.78        3343.00           6761           5.00         2.00
  187.81        3343.25           6765           9.00        15.69
  187.84        3343.50           6769           7.00         6.97
  187.86        3343.75           6773           5.00         2.00
  187.89        3344.00           6776           5.00         2.00
  187.92        3344.25           6780           6.00         2.62
  187.94        3344.50           6784           4.00         2.00
  187.97        3344.75           6788           7.00         6.97
  188.00        3345.00           6791           6.00         2.62
  188.03        3345.25           6795           5.00         2.00
  188.05        3345.50           6799           8.00        11.33
  188.08        3345.75           6803           7.00         6.97
  188.11        3346.00           6806           7.00         6.97
  188.13        3346.25           6810           3.00         2.00
  188.16        3346.50           6814           4.00         2.00
  188.19        3346.75           6818           5.00         2.00
  188.21        3347.00           6821           8.00        11.33
  188.24        3347.25           6825           6.00         2.62
  188.27        3347.50           6829           9.00        15.69
  188.30        3347.75           6833           4.00         2.00
  188.32        3348.00           6836           6.00         2.62
  188.35        3348.25           6840           4.00         2.00
  188.38        3348.50           6844           4.00         2.00
  188.40        3348.75           6848           8.00        11.33
  188.43        3349.00           6851           5.00         2.00
  188.46        3349.25           6855           5.00         2.00
  188.49        3349.50           6859           6.00         2.62
  188.51        3349.75           6863           6.00         2.62
  188.54        3350.00           6867           4.00         2.00
  188.57        3350.25           6870           6.00         2.62
  188.59        3350.50           6874           5.00         2.00
  188.62        3350.75           6878           5.00         2.00
  188.65        3351.00           6882           8.00        11.33
HL scan finished at 03:09:16
end
