************************************************************
  HL Scan of (1) Internal mercury lamp
************************************************************
Integration time is 0.2294 seconds per sample
dh030517Tamanrasset 22.79-5.529 3.128775pr865
************************************************************
Dead Time -------------------------  2.8E-08 
Number of Cycles Used -------------  4 
Starting Wavelength (Angstroms) ---  3331 
Final Wavelength (Angstoms) -------  3351 
Wavelength Increment (Angstroms) --  .25 
Filter Wheel #1 Position ---------- (1) Ground quartz diffuser (ND=2.32)
Filter Wheel #2 Position ---------- (0) Clear Aperture



************************************************************
HL scan start time = 03:04:59
Dark Count =  6.2 


Time (GMT)  Wavelength (Ang)  Step Number  Raw Counts  Counts/Second

  185.49        3331.00           6581           8.00         7.85
  185.71        3331.25           6585           3.00         2.00
  185.74        3331.50           6589           5.00         2.00
  185.76        3331.75           6593           4.00         2.00
  185.79        3332.00           6596           8.00         7.85
  185.82        3332.25           6600           0.00         2.00
  185.84        3332.50           6604           3.00         2.00
  185.87        3332.75           6608           7.00         3.49
  185.90        3333.00           6611           4.00         2.00
  185.93        3333.25           6615           2.00         2.00
  185.95        3333.50           6619           4.00         2.00
  185.98        3333.75           6623           7.00         3.49
  186.01        3334.00           6626           1.00         2.00
  186.03        3334.25           6630           5.00         2.00
  186.06        3334.50           6634           6.00         2.00
  186.09        3334.75           6638           6.00         2.00
  186.12        3335.00           6641           2.00         2.00
  186.14        3335.25           6645           3.00         2.00
  186.17        3335.50           6649           3.00         2.00
  186.20        3335.75           6653           4.00         2.00
  186.22        3336.00           6656           3.00         2.00
  186.25        3336.25           6660           0.00         2.00
  186.28        3336.50           6664           3.00         2.00
  186.31        3336.75           6668           5.00         2.00
  186.33        3337.00           6671           2.00         2.00
  186.36        3337.25           6675           7.00         3.49
  186.39        3337.50           6679           2.00         2.00
  186.41        3337.75           6683           8.00         7.85
  186.44        3338.00           6686           5.00         2.00
  186.47        3338.25           6690           5.00         2.00
  186.50        3338.50           6694           5.00         2.00
  186.52        3338.75           6698           4.00         2.00
  186.55        3339.00           6701           0.00         2.00
  186.58        3339.25           6705           8.00         7.85
  186.60        3339.50           6709           4.00         2.00
  186.63        3339.75           6713           4.00         2.00
  186.66        3340.00           6716           7.00         3.49
  186.69        3340.25           6720           6.00         2.00
  186.71        3340.50           6724           4.00         2.00
  186.74        3340.75           6728           5.00         2.00
  186.77        3341.00           6731           5.00         2.00
  186.79        3341.25           6735           6.00         2.00
  186.82        3341.50           6739           7.00         3.49
  186.85        3341.75           6743           8.00         7.85
  186.88        3342.00           6746           4.00         2.00
  186.90        3342.25           6750           4.00         2.00
  186.93        3342.50           6754           5.00         2.00
  186.96        3342.75           6758           5.00         2.00
  186.98        3343.00           6761           6.00         2.00
  187.01        3343.25           6765           4.00         2.00
  187.04        3343.50           6769           6.00         2.00
  187.07        3343.75           6773           0.00         2.00
  187.09        3344.00           6776           3.00         2.00
  187.12        3344.25           6780           5.00         2.00
  187.15        3344.50           6784           3.00         2.00
  187.17        3344.75           6788           6.00         2.00
  187.20        3345.00           6791           2.00         2.00
  187.23        3345.25           6795           3.00         2.00
  187.26        3345.50           6799           2.00         2.00
  187.28        3345.75           6803           7.00         3.49
  187.31        3346.00           6806           7.00         3.49
  187.34        3346.25           6810           5.00         2.00
  187.36        3346.50           6814           4.00         2.00
  187.39        3346.75           6818           7.00         3.49
  187.42        3347.00           6821           5.00         2.00
  187.45        3347.25           6825           6.00         2.00
  187.47        3347.50           6829           4.00         2.00
  187.50        3347.75           6833           7.00         3.49
  187.53        3348.00           6836           6.00         2.00
  187.55        3348.25           6840           7.00         3.49
  187.58        3348.50           6844           8.00         7.85
  187.61        3348.75           6848           8.00         7.85
  187.64        3349.00           6851           9.00        12.21
  187.66        3349.25           6855           7.00         3.49
  187.69        3349.50           6859           6.00         2.00
  187.72        3349.75           6863           6.00         2.00
  187.74        3350.00           6867           7.00         3.49
  187.77        3350.25           6870           7.00         3.49
  187.80        3350.50           6874           4.00         2.00
  187.82        3350.75           6878           4.00         2.00
  187.85        3351.00           6882           4.00         2.00
HL scan finished at 03:08:29
end
