************************************************************
  HL Scan of (1) Internal mercury lamp
************************************************************
Integration time is 0.2294 seconds per sample
dh070517Tamanrasset 22.79-5.529 3.215446pr865
************************************************************
Dead Time -------------------------  2.8E-08 
Number of Cycles Used -------------  4 
Starting Wavelength (Angstroms) ---  3331 
Final Wavelength (Angstoms) -------  3351 
Wavelength Increment (Angstroms) --  .25 
Filter Wheel #1 Position ---------- (1) Ground quartz diffuser (ND=2.32)
Filter Wheel #2 Position ---------- (0) Clear Aperture



************************************************************
HL scan start time = 03:03:02
Dark Count =  5.7 


Time (GMT)  Wavelength (Ang)  Step Number  Raw Counts  Counts/Second

  183.55        3331.00           6581           4.00         2.00
  183.76        3331.25           6585           7.00         5.67
  183.79        3331.50           6589           9.00        14.39
  183.82        3331.75           6593           7.00         5.67
  183.85        3332.00           6596           7.00         5.67
  183.87        3332.25           6600           5.00         2.00
  183.90        3332.50           6604           2.00         2.00
  183.93        3332.75           6608           7.00         5.67
  183.95        3333.00           6611           7.00         5.67
  183.98        3333.25           6615           3.00         2.00
  184.01        3333.50           6619           4.00         2.00
  184.04        3333.75           6623           6.00         2.00
  184.06        3334.00           6626           6.00         2.00
  184.09        3334.25           6630           6.00         2.00
  184.12        3334.50           6634           8.00        10.03
  184.14        3334.75           6638           4.00         2.00
  184.17        3335.00           6641           4.00         2.00
  184.20        3335.25           6645           7.00         5.67
  184.23        3335.50           6649           9.00        14.39
  184.25        3335.75           6653           6.00         2.00
  184.28        3336.00           6656           7.00         5.67
  184.31        3336.25           6660           5.00         2.00
  184.33        3336.50           6664           8.00        10.03
  184.36        3336.75           6668           6.00         2.00
  184.39        3337.00           6671           8.00        10.03
  184.42        3337.25           6675           2.00         2.00
  184.44        3337.50           6679           7.00         5.67
  184.47        3337.75           6683           7.00         5.67
  184.50        3338.00           6686           2.00         2.00
  184.52        3338.25           6690           0.00         2.00
  184.55        3338.50           6694           5.00         2.00
  184.58        3338.75           6698           6.00         2.00
  184.61        3339.00           6701           3.00         2.00
  184.63        3339.25           6705           5.00         2.00
  184.66        3339.50           6709           3.00         2.00
  184.69        3339.75           6713           4.00         2.00
  184.71        3340.00           6716           8.00        10.03
  184.74        3340.25           6720           6.00         2.00
  184.77        3340.50           6724           4.00         2.00
  184.79        3340.75           6728           6.00         2.00
  184.82        3341.00           6731           7.00         5.67
  184.85        3341.25           6735           4.00         2.00
  184.88        3341.50           6739           7.00         5.67
  184.90        3341.75           6743           4.00         2.00
  184.93        3342.00           6746           8.00        10.03
  184.96        3342.25           6750           6.00         2.00
  184.98        3342.50           6754           3.00         2.00
  185.01        3342.75           6758           4.00         2.00
  185.04        3343.00           6761           7.00         5.67
  185.07        3343.25           6765           5.00         2.00
  185.09        3343.50           6769           5.00         2.00
  185.12        3343.75           6773           9.00        14.39
  185.15        3344.00           6776           6.00         2.00
  185.17        3344.25           6780           8.00        10.03
  185.20        3344.50           6784           5.00         2.00
  185.23        3344.75           6788           8.00        10.03
  185.26        3345.00           6791           4.00         2.00
  185.28        3345.25           6795           3.00         2.00
  185.31        3345.50           6799           5.00         2.00
  185.34        3345.75           6803           5.00         2.00
  185.36        3346.00           6806           8.00        10.03
  185.39        3346.25           6810           6.00         2.00
  185.42        3346.50           6814           4.00         2.00
  185.45        3346.75           6818           5.00         2.00
  185.47        3347.00           6821           5.00         2.00
  185.50        3347.25           6825           5.00         2.00
  185.53        3347.50           6829           4.00         2.00
  185.55        3347.75           6833           8.00        10.03
  185.58        3348.00           6836           2.00         2.00
  185.61        3348.25           6840           4.00         2.00
  185.64        3348.50           6844           3.00         2.00
  185.66        3348.75           6848           5.00         2.00
  185.69        3349.00           6851           7.00         5.67
  185.72        3349.25           6855           6.00         2.00
  185.74        3349.50           6859           2.00         2.00
  185.77        3349.75           6863           7.00         5.67
  185.80        3350.00           6867           7.00         5.67
  185.83        3350.25           6870           8.00        10.03
  185.85        3350.50           6874           7.00         5.67
  185.88        3350.75           6878           5.00         2.00
  185.91        3351.00           6882           1.00         2.00
HL scan finished at 03:06:32
end
