************************************************************
  HL Scan of (1) Internal mercury lamp
************************************************************
Integration time is 0.2294 seconds per sample
dh050517Tamanrasset 22.79-5.529 3.057399pr865
************************************************************
Dead Time -------------------------  2.8E-08 
Number of Cycles Used -------------  4 
Starting Wavelength (Angstroms) ---  3331 
Final Wavelength (Angstoms) -------  3351 
Wavelength Increment (Angstroms) --  .25 
Filter Wheel #1 Position ---------- (1) Ground quartz diffuser (ND=2.32)
Filter Wheel #2 Position ---------- (0) Clear Aperture



************************************************************
HL scan start time = 03:02:48
Dark Count =  4.2 


Time (GMT)  Wavelength (Ang)  Step Number  Raw Counts  Counts/Second

  183.31        3331.00           6581           3.00         2.00
  183.52        3331.25           6585           3.00         2.00
  183.55        3331.50           6589           6.00         7.85
  183.58        3331.75           6593           5.00         3.49
  183.60        3332.00           6596           5.00         3.49
  183.63        3332.25           6600           8.00        16.56
  183.66        3332.50           6604           5.00         3.49
  183.69        3332.75           6608           4.00         2.00
  183.71        3333.00           6611           5.00         3.49
  183.74        3333.25           6615           6.00         7.85
  183.77        3333.50           6619           4.00         2.00
  183.79        3333.75           6623           8.00        16.56
  183.82        3334.00           6626           2.00         2.00
  183.85        3334.25           6630           3.00         2.00
  183.88        3334.50           6634           3.00         2.00
  183.90        3334.75           6638           2.00         2.00
  183.93        3335.00           6641           8.00        16.56
  183.96        3335.25           6645           6.00         7.85
  183.98        3335.50           6649           4.00         2.00
  184.01        3335.75           6653           4.00         2.00
  184.04        3336.00           6656           3.00         2.00
  184.07        3336.25           6660           6.00         7.85
  184.09        3336.50           6664           8.00        16.56
  184.12        3336.75           6668           1.00         2.00
  184.15        3337.00           6671           8.00        16.56
  184.17        3337.25           6675           7.00        12.21
  184.20        3337.50           6679           4.00         2.00
  184.23        3337.75           6683           5.00         3.49
  184.26        3338.00           6686           3.00         2.00
  184.28        3338.25           6690           1.00         2.00
  184.31        3338.50           6694           2.00         2.00
  184.34        3338.75           6698           5.00         3.49
  184.36        3339.00           6701           5.00         3.49
  184.39        3339.25           6705           5.00         3.49
  184.42        3339.50           6709           7.00        12.21
  184.45        3339.75           6713           5.00         3.49
  184.47        3340.00           6716           0.00         2.00
  184.50        3340.25           6720           8.00        16.56
  184.53        3340.50           6724           2.00         2.00
  184.55        3340.75           6728           6.00         7.85
  184.58        3341.00           6731           1.00         2.00
  184.61        3341.25           6735           0.00         2.00
  184.64        3341.50           6739           4.00         2.00
  184.66        3341.75           6743           4.00         2.00
  184.69        3342.00           6746           3.00         2.00
  184.72        3342.25           6750           0.00         2.00
  184.74        3342.50           6754           1.00         2.00
  184.77        3342.75           6758           7.00        12.21
  184.80        3343.00           6761           6.00         7.85
  184.83        3343.25           6765           1.00         2.00
  184.85        3343.50           6769           5.00         3.49
  184.88        3343.75           6773           2.00         2.00
  184.91        3344.00           6776           5.00         3.49
  184.93        3344.25           6780           5.00         3.49
  184.96        3344.50           6784           4.00         2.00
  184.99        3344.75           6788           7.00        12.21
  185.02        3345.00           6791           2.00         2.00
  185.04        3345.25           6795           4.00         2.00
  185.07        3345.50           6799           4.00         2.00
  185.10        3345.75           6803           5.00         3.49
  185.12        3346.00           6806           5.00         3.49
  185.15        3346.25           6810           6.00         7.85
  185.18        3346.50           6814           7.00        12.21
  185.21        3346.75           6818           8.00        16.56
  185.23        3347.00           6821           5.00         3.49
  185.26        3347.25           6825           7.00        12.21
  185.29        3347.50           6829           8.00        16.56
  185.31        3347.75           6833           0.00         2.00
  185.34        3348.00           6836           8.00        16.56
  185.37        3348.25           6840           4.00         2.00
  185.39        3348.50           6844           6.00         7.85
  185.42        3348.75           6848           9.00        20.92
  185.45        3349.00           6851           8.00        16.56
  185.48        3349.25           6855           1.00         2.00
  185.50        3349.50           6859           4.00         2.00
  185.53        3349.75           6863           7.00        12.21
  185.56        3350.00           6867           2.00         2.00
  185.58        3350.25           6870           5.00         3.49
  185.61        3350.50           6874           7.00        12.21
  185.64        3350.75           6878           2.00         2.00
  185.67        3351.00           6882           5.00         3.49
HL scan finished at 03:06:17
end
