************************************************************
  HL Scan of (1) Internal mercury lamp
************************************************************
Integration time is 0.2294 seconds per sample
dh020517Tamanrasset 22.79-5.529 3.200151pr865
************************************************************
Dead Time -------------------------  2.8E-08 
Number of Cycles Used -------------  4 
Starting Wavelength (Angstroms) ---  3331 
Final Wavelength (Angstoms) -------  3351 
Wavelength Increment (Angstroms) --  .25 
Filter Wheel #1 Position ---------- (1) Ground quartz diffuser (ND=2.32)
Filter Wheel #2 Position ---------- (0) Clear Aperture



************************************************************
HL scan start time = 03:04:58
Dark Count =  5.1 


Time (GMT)  Wavelength (Ang)  Step Number  Raw Counts  Counts/Second

  185.47        3331.00           6581           3.00         2.00
  185.69        3331.25           6585           6.00         3.92
  185.72        3331.50           6589           5.00         2.00
  185.74        3331.75           6593           4.00         2.00
  185.77        3332.00           6596           6.00         3.92
  185.80        3332.25           6600           6.00         3.92
  185.82        3332.50           6604           4.00         2.00
  185.85        3332.75           6608           3.00         2.00
  185.88        3333.00           6611           4.00         2.00
  185.90        3333.25           6615           5.00         2.00
  185.93        3333.50           6619           6.00         3.92
  185.96        3333.75           6623           3.00         2.00
  185.99        3334.00           6626           0.00         2.00
  186.01        3334.25           6630           5.00         2.00
  186.04        3334.50           6634           2.00         2.00
  186.07        3334.75           6638           7.00         8.28
  186.09        3335.00           6641           0.00         2.00
  186.12        3335.25           6645           6.00         3.92
  186.15        3335.50           6649           5.00         2.00
  186.18        3335.75           6653           4.00         2.00
  186.20        3336.00           6656           8.00        12.64
  186.23        3336.25           6660           6.00         3.92
  186.26        3336.50           6664           5.00         2.00
  186.28        3336.75           6668           7.00         8.28
  186.31        3337.00           6671           1.00         2.00
  186.34        3337.25           6675           3.00         2.00
  186.37        3337.50           6679           2.00         2.00
  186.39        3337.75           6683           7.00         8.28
  186.42        3338.00           6686           3.00         2.00
  186.45        3338.25           6690           8.00        12.64
  186.47        3338.50           6694           3.00         2.00
  186.50        3338.75           6698           3.00         2.00
  186.53        3339.00           6701           8.00        12.64
  186.56        3339.25           6705           6.00         3.92
  186.58        3339.50           6709           7.00         8.28
  186.61        3339.75           6713           3.00         2.00
  186.64        3340.00           6716           6.00         3.92
  186.66        3340.25           6720           8.00        12.64
  186.69        3340.50           6724           5.00         2.00
  186.72        3340.75           6728           6.00         3.92
  186.75        3341.00           6731           5.00         2.00
  186.77        3341.25           6735           5.00         2.00
  186.80        3341.50           6739           3.00         2.00
  186.83        3341.75           6743           6.00         3.92
  186.85        3342.00           6746           6.00         3.92
  186.88        3342.25           6750           6.00         3.92
  186.91        3342.50           6754           0.00         2.00
  186.93        3342.75           6758           5.00         2.00
  186.96        3343.00           6761           6.00         3.92
  186.99        3343.25           6765           4.00         2.00
  187.02        3343.50           6769           6.00         3.92
  187.04        3343.75           6773           5.00         2.00
  187.07        3344.00           6776           5.00         2.00
  187.10        3344.25           6780           4.00         2.00
  187.12        3344.50           6784           7.00         8.28
  187.15        3344.75           6788           3.00         2.00
  187.18        3345.00           6791           6.00         3.92
  187.21        3345.25           6795           7.00         8.28
  187.23        3345.50           6799           3.00         2.00
  187.26        3345.75           6803           3.00         2.00
  187.29        3346.00           6806           7.00         8.28
  187.32        3346.25           6810           3.00         2.00
  187.34        3346.50           6814           1.00         2.00
  187.37        3346.75           6818           5.00         2.00
  187.40        3347.00           6821           4.00         2.00
  187.42        3347.25           6825           3.00         2.00
  187.45        3347.50           6829           4.00         2.00
  187.48        3347.75           6833           3.00         2.00
  187.51        3348.00           6836           8.00        12.64
  187.53        3348.25           6840           3.00         2.00
  187.56        3348.50           6844           4.00         2.00
  187.59        3348.75           6848           5.00         2.00
  187.61        3349.00           6851           3.00         2.00
  187.64        3349.25           6855          10.00        21.36
  187.67        3349.50           6859           4.00         2.00
  187.70        3349.75           6863           2.00         2.00
  187.72        3350.00           6867           6.00         3.92
  187.75        3350.25           6870           5.00         2.00
  187.78        3350.50           6874           4.00         2.00
  187.80        3350.75           6878           5.00         2.00
  187.83        3351.00           6882           6.00         3.92
HL scan finished at 03:08:27
end
