************************************************************
  HL Scan of (1) Internal mercury lamp
************************************************************
Integration time is 0.2294 seconds per sample
dh060517Tamanrasset 22.79-5.529 3.047202pr865
************************************************************
Dead Time -------------------------  2.8E-08 
Number of Cycles Used -------------  4 
Starting Wavelength (Angstroms) ---  3331 
Final Wavelength (Angstoms) -------  3351 
Wavelength Increment (Angstroms) --  .25 
Filter Wheel #1 Position ---------- (1) Ground quartz diffuser (ND=2.32)
Filter Wheel #2 Position ---------- (0) Clear Aperture



************************************************************
HL scan start time = 03:02:46
Dark Count =  4.6 


Time (GMT)  Wavelength (Ang)  Step Number  Raw Counts  Counts/Second

  183.28        3331.00           6581           5.00         2.00
  183.50        3331.25           6585           5.00         2.00
  183.53        3331.50           6589           1.00         2.00
  183.55        3331.75           6593           8.00        14.82
  183.58        3332.00           6596           4.00         2.00
  183.61        3332.25           6600           7.00        10.46
  183.63        3332.50           6604           6.00         6.10
  183.66        3332.75           6608           3.00         2.00
  183.69        3333.00           6611           8.00        14.82
  183.72        3333.25           6615           0.00         2.00
  183.74        3333.50           6619           5.00         2.00
  183.77        3333.75           6623           4.00         2.00
  183.80        3334.00           6626           3.00         2.00
  183.82        3334.25           6630           4.00         2.00
  183.85        3334.50           6634           7.00        10.46
  183.88        3334.75           6638           6.00         6.10
  183.90        3335.00           6641           3.00         2.00
  183.93        3335.25           6645           6.00         6.10
  183.96        3335.50           6649           0.00         2.00
  183.99        3335.75           6653           8.00        14.82
  184.01        3336.00           6656           0.00         2.00
  184.04        3336.25           6660           7.00        10.46
  184.07        3336.50           6664           8.00        14.82
  184.09        3336.75           6668           1.00         2.00
  184.12        3337.00           6671           6.00         6.10
  184.15        3337.25           6675           7.00        10.46
  184.18        3337.50           6679           0.00         2.00
  184.20        3337.75           6683           7.00        10.46
  184.23        3338.00           6686           4.00         2.00
  184.26        3338.25           6690           3.00         2.00
  184.28        3338.50           6694           5.00         2.00
  184.31        3338.75           6698           5.00         2.00
  184.34        3339.00           6701           4.00         2.00
  184.37        3339.25           6705           3.00         2.00
  184.39        3339.50           6709           5.00         2.00
  184.42        3339.75           6713           6.00         6.10
  184.45        3340.00           6716           5.00         2.00
  184.47        3340.25           6720           6.00         6.10
  184.50        3340.50           6724           7.00        10.46
  184.53        3340.75           6728           2.00         2.00
  184.56        3341.00           6731           4.00         2.00
  184.58        3341.25           6735           7.00        10.46
  184.61        3341.50           6739           8.00        14.82
  184.64        3341.75           6743           3.00         2.00
  184.66        3342.00           6746           4.00         2.00
  184.69        3342.25           6750           7.00        10.46
  184.72        3342.50           6754           7.00        10.46
  184.75        3342.75           6758           1.00         2.00
  184.77        3343.00           6761           8.00        14.82
  184.80        3343.25           6765           4.00         2.00
  184.83        3343.50           6769           3.00         2.00
  184.85        3343.75           6773           0.00         2.00
  184.88        3344.00           6776           5.00         2.00
  184.91        3344.25           6780           3.00         2.00
  184.94        3344.50           6784           8.00        14.82
  184.96        3344.75           6788           7.00        10.46
  184.99        3345.00           6791           7.00        10.46
  185.02        3345.25           6795           5.00         2.00
  185.04        3345.50           6799           4.00         2.00
  185.07        3345.75           6803           7.00        10.46
  185.10        3346.00           6806           9.00        19.18
  185.12        3346.25           6810           8.00        14.82
  185.15        3346.50           6814           3.00         2.00
  185.18        3346.75           6818           0.00         2.00
  185.21        3347.00           6821           6.00         6.10
  185.23        3347.25           6825           2.00         2.00
  185.26        3347.50           6829           5.00         2.00
  185.29        3347.75           6833           4.00         2.00
  185.31        3348.00           6836           1.00         2.00
  185.34        3348.25           6840           8.00        14.82
  185.37        3348.50           6844           1.00         2.00
  185.40        3348.75           6848           7.00        10.46
  185.42        3349.00           6851           5.00         2.00
  185.45        3349.25           6855           0.00         2.00
  185.48        3349.50           6859           6.00         6.10
  185.50        3349.75           6863           4.00         2.00
  185.53        3350.00           6867           4.00         2.00
  185.56        3350.25           6870           0.00         2.00
  185.59        3350.50           6874           7.00        10.46
  185.61        3350.75           6878           4.00         2.00
  185.64        3351.00           6882           7.00        10.46
HL scan finished at 03:06:16
end
