************************************************************
  HL Scan of (1) Internal mercury lamp
************************************************************
Integration time is 0.2294 seconds per sample
dh090517Tamanrasset 22.79-5.529 3.225643pr865
************************************************************
Dead Time -------------------------  2.8E-08 
Number of Cycles Used -------------  4 
Starting Wavelength (Angstroms) ---  3331 
Final Wavelength (Angstoms) -------  3351 
Wavelength Increment (Angstroms) --  .25 
Filter Wheel #1 Position ---------- (1) Ground quartz diffuser (ND=2.32)
Filter Wheel #2 Position ---------- (0) Clear Aperture



************************************************************
HL scan start time = 03:00:57
Dark Count =  6.1 


Time (GMT)  Wavelength (Ang)  Step Number  Raw Counts  Counts/Second

  181.47        3331.00           6581           7.00         3.92
  181.69        3331.25           6585           7.00         3.92
  181.71        3331.50           6589           2.00         2.00
  181.74        3331.75           6593           8.00         8.28
  181.77        3332.00           6596           5.00         2.00
  181.80        3332.25           6600           5.00         2.00
  181.82        3332.50           6604           8.00         8.28
  181.85        3332.75           6608           5.00         2.00
  181.88        3333.00           6611           3.00         2.00
  181.90        3333.25           6615           6.00         2.00
  181.93        3333.50           6619           7.00         3.92
  181.96        3333.75           6623           4.00         2.00
  181.99        3334.00           6626           8.00         8.28
  182.01        3334.25           6630           5.00         2.00
  182.04        3334.50           6634           5.00         2.00
  182.07        3334.75           6638           6.00         2.00
  182.09        3335.00           6641           7.00         3.92
  182.12        3335.25           6645           2.00         2.00
  182.15        3335.50           6649           2.00         2.00
  182.18        3335.75           6653           7.00         3.92
  182.20        3336.00           6656           7.00         3.92
  182.23        3336.25           6660           6.00         2.00
  182.26        3336.50           6664           3.00         2.00
  182.28        3336.75           6668           2.00         2.00
  182.31        3337.00           6671           8.00         8.28
  182.34        3337.25           6675           5.00         2.00
  182.36        3337.50           6679           3.00         2.00
  182.39        3337.75           6683           6.00         2.00
  182.42        3338.00           6686           4.00         2.00
  182.45        3338.25           6690           2.00         2.00
  182.47        3338.50           6694           7.00         3.92
  182.50        3338.75           6698           6.00         2.00
  182.53        3339.00           6701           8.00         8.28
  182.55        3339.25           6705           6.00         2.00
  182.58        3339.50           6709           6.00         2.00
  182.61        3339.75           6713           5.00         2.00
  182.64        3340.00           6716           5.00         2.00
  182.66        3340.25           6720           8.00         8.28
  182.69        3340.50           6724           6.00         2.00
  182.72        3340.75           6728           0.00         2.00
  182.74        3341.00           6731           4.00         2.00
  182.77        3341.25           6735           6.00         2.00
  182.80        3341.50           6739           6.00         2.00
  182.83        3341.75           6743           4.00         2.00
  182.85        3342.00           6746           9.00        12.64
  182.88        3342.25           6750           3.00         2.00
  182.91        3342.50           6754           4.00         2.00
  182.93        3342.75           6758           5.00         2.00
  182.96        3343.00           6761           6.00         2.00
  182.99        3343.25           6765           6.00         2.00
  183.02        3343.50           6769           3.00         2.00
  183.04        3343.75           6773           2.00         2.00
  183.07        3344.00           6776           4.00         2.00
  183.10        3344.25           6780           6.00         2.00
  183.12        3344.50           6784           4.00         2.00
  183.15        3344.75           6788           8.00         8.28
  183.18        3345.00           6791           5.00         2.00
  183.21        3345.25           6795           2.00         2.00
  183.23        3345.50           6799           5.00         2.00
  183.26        3345.75           6803           6.00         2.00
  183.29        3346.00           6806           6.00         2.00
  183.31        3346.25           6810           7.00         3.92
  183.34        3346.50           6814           7.00         3.92
  183.37        3346.75           6818           8.00         8.28
  183.40        3347.00           6821           9.00        12.64
  183.42        3347.25           6825           5.00         2.00
  183.45        3347.50           6829           8.00         8.28
  183.48        3347.75           6833           8.00         8.28
  183.50        3348.00           6836           8.00         8.28
  183.53        3348.25           6840           6.00         2.00
  183.56        3348.50           6844           7.00         3.92
  183.59        3348.75           6848           6.00         2.00
  183.61        3349.00           6851           5.00         2.00
  183.64        3349.25           6855           5.00         2.00
  183.67        3349.50           6859           6.00         2.00
  183.69        3349.75           6863           7.00         3.92
  183.72        3350.00           6867           3.00         2.00
  183.75        3350.25           6870           7.00         3.92
  183.78        3350.50           6874           4.00         2.00
  183.80        3350.75           6878           7.00         3.92
  183.83        3351.00           6882           1.00         2.00
HL scan finished at 03:04:27
end
