************************************************************
  HL Scan of (1) Internal mercury lamp
************************************************************
Integration time is 0.2294 seconds per sample
dh180517Tamanrasset 22.79-5.529 3.11348pr865
************************************************************
Dead Time -------------------------  2.8E-08 
Number of Cycles Used -------------  4 
Starting Wavelength (Angstroms) ---  3331 
Final Wavelength (Angstoms) -------  3351 
Wavelength Increment (Angstroms) --  .25 
Filter Wheel #1 Position ---------- (1) Ground quartz diffuser (ND=2.32)
Filter Wheel #2 Position ---------- (0) Clear Aperture



************************************************************
HL scan start time = 02:55:47
Dark Count =  5 


Time (GMT)  Wavelength (Ang)  Step Number  Raw Counts  Counts/Second

  176.30        3331.00           6581           3.00         2.00
  176.52        3331.25           6585           6.00         4.36
  176.54        3331.50           6589           3.00         2.00
  176.57        3331.75           6593           6.00         4.36
  176.60        3332.00           6596           6.00         4.36
  176.62        3332.25           6600           6.00         4.36
  176.65        3332.50           6604           5.00         2.00
  176.68        3332.75           6608           4.00         2.00
  176.71        3333.00           6611           6.00         4.36
  176.73        3333.25           6615           4.00         2.00
  176.76        3333.50           6619           7.00         8.72
  176.79        3333.75           6623           6.00         4.36
  176.81        3334.00           6626           5.00         2.00
  176.84        3334.25           6630           2.00         2.00
  176.87        3334.50           6634           3.00         2.00
  176.90        3334.75           6638           7.00         8.72
  176.92        3335.00           6641           4.00         2.00
  176.95        3335.25           6645           0.00         2.00
  176.98        3335.50           6649           1.00         2.00
  177.00        3335.75           6653           8.00        13.08
  177.03        3336.00           6656           6.00         4.36
  177.06        3336.25           6660           5.00         2.00
  177.09        3336.50           6664           4.00         2.00
  177.11        3336.75           6668           3.00         2.00
  177.14        3337.00           6671           6.00         4.36
  177.17        3337.25           6675           7.00         8.72
  177.19        3337.50           6679           6.00         4.36
  177.22        3337.75           6683           5.00         2.00
  177.25        3338.00           6686           3.00         2.00
  177.28        3338.25           6690           2.00         2.00
  177.30        3338.50           6694           7.00         8.72
  177.33        3338.75           6698           3.00         2.00
  177.36        3339.00           6701           7.00         8.72
  177.38        3339.25           6705           6.00         4.36
  177.41        3339.50           6709           7.00         8.72
  177.44        3339.75           6713           4.00         2.00
  177.47        3340.00           6716           7.00         8.72
  177.49        3340.25           6720           6.00         4.36
  177.52        3340.50           6724           7.00         8.72
  177.55        3340.75           6728           8.00        13.08
  177.57        3341.00           6731           3.00         2.00
  177.60        3341.25           6735           8.00        13.08
  177.63        3341.50           6739           7.00         8.72
  177.66        3341.75           6743           2.00         2.00
  177.68        3342.00           6746           8.00        13.08
  177.71        3342.25           6750           7.00         8.72
  177.74        3342.50           6754           0.00         2.00
  177.76        3342.75           6758           0.00         2.00
  177.79        3343.00           6761           5.00         2.00
  177.82        3343.25           6765           8.00        13.08
  177.84        3343.50           6769           3.00         2.00
  177.87        3343.75           6773           9.00        17.44
  177.90        3344.00           6776           6.00         4.36
  177.93        3344.25           6780           4.00         2.00
  177.95        3344.50           6784           8.00        13.08
  177.98        3344.75           6788           2.00         2.00
  178.01        3345.00           6791           3.00         2.00
  178.03        3345.25           6795           3.00         2.00
  178.06        3345.50           6799           6.00         4.36
  178.09        3345.75           6803           4.00         2.00
  178.12        3346.00           6806           6.00         4.36
  178.14        3346.25           6810           5.00         2.00
  178.17        3346.50           6814           6.00         4.36
  178.20        3346.75           6818           4.00         2.00
  178.22        3347.00           6821           6.00         4.36
  178.25        3347.25           6825           4.00         2.00
  178.28        3347.50           6829           2.00         2.00
  178.31        3347.75           6833           5.00         2.00
  178.33        3348.00           6836           4.00         2.00
  178.36        3348.25           6840           5.00         2.00
  178.39        3348.50           6844           4.00         2.00
  178.41        3348.75           6848           2.00         2.00
  178.44        3349.00           6851           3.00         2.00
  178.47        3349.25           6855           3.00         2.00
  178.50        3349.50           6859           2.00         2.00
  178.52        3349.75           6863           1.00         2.00
  178.55        3350.00           6867           4.00         2.00
  178.58        3350.25           6870           4.00         2.00
  178.60        3350.50           6874           6.00         4.36
  178.63        3350.75           6878           3.00         2.00
  178.66        3351.00           6882           8.00        13.08
HL scan finished at 02:59:17
end
