************************************************************
  HL Scan of (1) Internal mercury lamp
************************************************************
Integration time is 0.2294 seconds per sample
dh140517Tamanrasset 22.79-5.529 3.317413pr865
************************************************************
Dead Time -------------------------  2.8E-08 
Number of Cycles Used -------------  4 
Starting Wavelength (Angstroms) ---  3331 
Final Wavelength (Angstoms) -------  3351 
Wavelength Increment (Angstroms) --  .25 
Filter Wheel #1 Position ---------- (1) Ground quartz diffuser (ND=2.32)
Filter Wheel #2 Position ---------- (0) Clear Aperture



************************************************************
HL scan start time = 02:57:49
Dark Count =  5.4 


Time (GMT)  Wavelength (Ang)  Step Number  Raw Counts  Counts/Second

  178.33        3331.00           6581           6.00         2.62
  178.55        3331.25           6585           8.00        11.33
  178.57        3331.50           6589           5.00         2.00
  178.60        3331.75           6593           4.00         2.00
  178.63        3332.00           6596           6.00         2.62
  178.65        3332.25           6600           7.00         6.97
  178.68        3332.50           6604           4.00         2.00
  178.71        3332.75           6608           6.00         2.62
  178.74        3333.00           6611           4.00         2.00
  178.76        3333.25           6615           3.00         2.00
  178.79        3333.50           6619           6.00         2.62
  178.82        3333.75           6623           9.00        15.69
  178.85        3334.00           6626           7.00         6.97
  178.87        3334.25           6630           3.00         2.00
  178.90        3334.50           6634           6.00         2.62
  178.93        3334.75           6638           8.00        11.33
  178.95        3335.00           6641           7.00         6.97
  178.98        3335.25           6645           4.00         2.00
  179.01        3335.50           6649           8.00        11.33
  179.04        3335.75           6653           2.00         2.00
  179.06        3336.00           6656           6.00         2.62
  179.09        3336.25           6660           4.00         2.00
  179.12        3336.50           6664           8.00        11.33
  179.14        3336.75           6668           7.00         6.97
  179.17        3337.00           6671           5.00         2.00
  179.20        3337.25           6675           3.00         2.00
  179.23        3337.50           6679           5.00         2.00
  179.25        3337.75           6683           6.00         2.62
  179.28        3338.00           6686           8.00        11.33
  179.31        3338.25           6690           6.00         2.62
  179.33        3338.50           6694           5.00         2.00
  179.36        3338.75           6698           7.00         6.97
  179.39        3339.00           6701           6.00         2.62
  179.42        3339.25           6705           4.00         2.00
  179.44        3339.50           6709           5.00         2.00
  179.47        3339.75           6713           6.00         2.62
  179.50        3340.00           6716           6.00         2.62
  179.52        3340.25           6720           4.00         2.00
  179.55        3340.50           6724           3.00         2.00
  179.58        3340.75           6728           4.00         2.00
  179.60        3341.00           6731           9.00        15.69
  179.63        3341.25           6735           5.00         2.00
  179.66        3341.50           6739           5.00         2.00
  179.69        3341.75           6743           7.00         6.97
  179.71        3342.00           6746           4.00         2.00
  179.74        3342.25           6750           3.00         2.00
  179.77        3342.50           6754           9.00        15.69
  179.79        3342.75           6758           4.00         2.00
  179.82        3343.00           6761           4.00         2.00
  179.85        3343.25           6765           5.00         2.00
  179.88        3343.50           6769           9.00        15.69
  179.90        3343.75           6773           4.00         2.00
  179.93        3344.00           6776           3.00         2.00
  179.96        3344.25           6780           5.00         2.00
  179.98        3344.50           6784           4.00         2.00
  180.01        3344.75           6788           9.00        15.69
  180.04        3345.00           6791           7.00         6.97
  180.07        3345.25           6795           8.00        11.33
  180.09        3345.50           6799           5.00         2.00
  180.12        3345.75           6803           6.00         2.62
  180.15        3346.00           6806           6.00         2.62
  180.17        3346.25           6810           5.00         2.00
  180.20        3346.50           6814           7.00         6.97
  180.23        3346.75           6818           6.00         2.62
  180.26        3347.00           6821           2.00         2.00
  180.28        3347.25           6825           4.00         2.00
  180.31        3347.50           6829           8.00        11.33
  180.34        3347.75           6833           3.00         2.00
  180.36        3348.00           6836           7.00         6.97
  180.39        3348.25           6840           7.00         6.97
  180.42        3348.50           6844           4.00         2.00
  180.45        3348.75           6848           6.00         2.62
  180.47        3349.00           6851           6.00         2.62
  180.50        3349.25           6855           8.00        11.33
  180.53        3349.50           6859           5.00         2.00
  180.55        3349.75           6863           3.00         2.00
  180.58        3350.00           6867           5.00         2.00
  180.61        3350.25           6870           3.00         2.00
  180.64        3350.50           6874           7.00         6.97
  180.66        3350.75           6878           4.00         2.00
  180.69        3351.00           6882           7.00         6.97
HL scan finished at 03:01:19
end
