************************************************************
  HL Scan of (1) Internal mercury lamp
************************************************************
Integration time is 0.2294 seconds per sample
dh190517Tamanrasset 22.79-5.529 3.291921pr865
************************************************************
Dead Time -------------------------  2.8E-08 
Number of Cycles Used -------------  4 
Starting Wavelength (Angstroms) ---  3331 
Final Wavelength (Angstoms) -------  3351 
Wavelength Increment (Angstroms) --  .25 
Filter Wheel #1 Position ---------- (1) Ground quartz diffuser (ND=2.32)
Filter Wheel #2 Position ---------- (0) Clear Aperture



************************************************************
HL scan start time = 02:55:47
Dark Count =  7.1 


Time (GMT)  Wavelength (Ang)  Step Number  Raw Counts  Counts/Second

  176.29        3331.00           6581           7.00         2.00
  176.51        3331.25           6585           7.00         2.00
  176.54        3331.50           6589           5.00         2.00
  176.57        3331.75           6593           4.00         2.00
  176.59        3332.00           6596           8.00         3.92
  176.62        3332.25           6600           5.00         2.00
  176.65        3332.50           6604           5.00         2.00
  176.67        3332.75           6608           6.00         2.00
  176.70        3333.00           6611           4.00         2.00
  176.73        3333.25           6615           8.00         3.92
  176.76        3333.50           6619           6.00         2.00
  176.78        3333.75           6623           4.00         2.00
  176.81        3334.00           6626           4.00         2.00
  176.84        3334.25           6630           8.00         3.92
  176.86        3334.50           6634           6.00         2.00
  176.89        3334.75           6638           7.00         2.00
  176.92        3335.00           6641           7.00         2.00
  176.94        3335.25           6645           3.00         2.00
  176.97        3335.50           6649          10.00        12.64
  177.00        3335.75           6653           6.00         2.00
  177.03        3336.00           6656           6.00         2.00
  177.05        3336.25           6660           6.00         2.00
  177.08        3336.50           6664           4.00         2.00
  177.11        3336.75           6668           6.00         2.00
  177.13        3337.00           6671           8.00         3.92
  177.16        3337.25           6675           7.00         2.00
  177.19        3337.50           6679           2.00         2.00
  177.22        3337.75           6683           7.00         2.00
  177.24        3338.00           6686           9.00         8.28
  177.27        3338.25           6690           8.00         3.92
  177.30        3338.50           6694           4.00         2.00
  177.32        3338.75           6698           7.00         2.00
  177.35        3339.00           6701           5.00         2.00
  177.38        3339.25           6705           6.00         2.00
  177.41        3339.50           6709           4.00         2.00
  177.43        3339.75           6713           5.00         2.00
  177.46        3340.00           6716           4.00         2.00
  177.49        3340.25           6720           9.00         8.28
  177.51        3340.50           6724           8.00         3.92
  177.54        3340.75           6728           2.00         2.00
  177.57        3341.00           6731           5.00         2.00
  177.60        3341.25           6735           4.00         2.00
  177.62        3341.50           6739           6.00         2.00
  177.65        3341.75           6743           7.00         2.00
  177.68        3342.00           6746           6.00         2.00
  177.71        3342.25           6750           5.00         2.00
  177.73        3342.50           6754           8.00         3.92
  177.76        3342.75           6758           6.00         2.00
  177.79        3343.00           6761           5.00         2.00
  177.81        3343.25           6765           5.00         2.00
  177.84        3343.50           6769           6.00         2.00
  177.87        3343.75           6773           1.00         2.00
  177.89        3344.00           6776           7.00         2.00
  177.92        3344.25           6780           4.00         2.00
  177.95        3344.50           6784           4.00         2.00
  177.98        3344.75           6788           5.00         2.00
  178.00        3345.00           6791           8.00         3.92
  178.03        3345.25           6795           8.00         3.92
  178.06        3345.50           6799           5.00         2.00
  178.08        3345.75           6803           5.00         2.00
  178.11        3346.00           6806           4.00         2.00
  178.14        3346.25           6810           2.00         2.00
  178.17        3346.50           6814           6.00         2.00
  178.19        3346.75           6818           2.00         2.00
  178.22        3347.00           6821           4.00         2.00
  178.25        3347.25           6825           5.00         2.00
  178.27        3347.50           6829           9.00         8.28
  178.30        3347.75           6833           5.00         2.00
  178.33        3348.00           6836           8.00         3.92
  178.36        3348.25           6840           0.00         2.00
  178.38        3348.50           6844           3.00         2.00
  178.41        3348.75           6848           4.00         2.00
  178.44        3349.00           6851           7.00         2.00
  178.46        3349.25           6855           8.00         3.92
  178.49        3349.50           6859           4.00         2.00
  178.52        3349.75           6863           7.00         2.00
  178.55        3350.00           6867           7.00         2.00
  178.57        3350.25           6870           7.00         2.00
  178.60        3350.50           6874           6.00         2.00
  178.63        3350.75           6878           6.00         2.00
  178.65        3351.00           6882           5.00         2.00
HL scan finished at 02:59:17
end
