************************************************************
  HL Scan of (1) Internal mercury lamp
************************************************************
Integration time is 0.2294 seconds per sample
dh170517Tamanrasset 22.79-5.529 3.312315pr865
************************************************************
Dead Time -------------------------  2.8E-08 
Number of Cycles Used -------------  4 
Starting Wavelength (Angstroms) ---  3331 
Final Wavelength (Angstoms) -------  3351 
Wavelength Increment (Angstroms) --  .25 
Filter Wheel #1 Position ---------- (1) Ground quartz diffuser (ND=2.32)
Filter Wheel #2 Position ---------- (0) Clear Aperture



************************************************************
HL scan start time = 02:56:43
Dark Count =  5.3 


Time (GMT)  Wavelength (Ang)  Step Number  Raw Counts  Counts/Second

  177.23        3331.00           6581           5.00         2.00
  177.45        3331.25           6585           7.00         7.41
  177.47        3331.50           6589           7.00         7.41
  177.50        3331.75           6593           3.00         2.00
  177.53        3332.00           6596           6.00         3.05
  177.56        3332.25           6600           6.00         3.05
  177.58        3332.50           6604           1.00         2.00
  177.61        3332.75           6608           7.00         7.41
  177.64        3333.00           6611           2.00         2.00
  177.67        3333.25           6615           3.00         2.00
  177.69        3333.50           6619           5.00         2.00
  177.72        3333.75           6623           6.00         3.05
  177.75        3334.00           6626           3.00         2.00
  177.77        3334.25           6630           7.00         7.41
  177.80        3334.50           6634           8.00        11.77
  177.83        3334.75           6638           4.00         2.00
  177.85        3335.00           6641           2.00         2.00
  177.88        3335.25           6645           6.00         3.05
  177.91        3335.50           6649           8.00        11.77
  177.94        3335.75           6653           7.00         7.41
  177.96        3336.00           6656           7.00         7.41
  177.99        3336.25           6660           7.00         7.41
  178.02        3336.50           6664           4.00         2.00
  178.04        3336.75           6668           5.00         2.00
  178.07        3337.00           6671           5.00         2.00
  178.10        3337.25           6675           4.00         2.00
  178.13        3337.50           6679           4.00         2.00
  178.15        3337.75           6683           5.00         2.00
  178.18        3338.00           6686           9.00        16.13
  178.21        3338.25           6690           3.00         2.00
  178.23        3338.50           6694           5.00         2.00
  178.26        3338.75           6698           7.00         7.41
  178.29        3339.00           6701           4.00         2.00
  178.32        3339.25           6705           4.00         2.00
  178.34        3339.50           6709           4.00         2.00
  178.37        3339.75           6713           8.00        11.77
  178.40        3340.00           6716           8.00        11.77
  178.42        3340.25           6720           6.00         3.05
  178.45        3340.50           6724           8.00        11.77
  178.48        3340.75           6728           7.00         7.41
  178.51        3341.00           6731           6.00         3.05
  178.53        3341.25           6735           4.00         2.00
  178.56        3341.50           6739           7.00         7.41
  178.59        3341.75           6743           5.00         2.00
  178.61        3342.00           6746           8.00        11.77
  178.64        3342.25           6750           2.00         2.00
  178.67        3342.50           6754           6.00         3.05
  178.70        3342.75           6758           7.00         7.41
  178.72        3343.00           6761           6.00         3.05
  178.75        3343.25           6765           7.00         7.41
  178.78        3343.50           6769           5.00         2.00
  178.80        3343.75           6773           3.00         2.00
  178.83        3344.00           6776           7.00         7.41
  178.86        3344.25           6780           5.00         2.00
  178.89        3344.50           6784           6.00         3.05
  178.91        3344.75           6788           8.00        11.77
  178.94        3345.00           6791           6.00         3.05
  178.97        3345.25           6795           3.00         2.00
  178.99        3345.50           6799           3.00         2.00
  179.02        3345.75           6803           4.00         2.00
  179.05        3346.00           6806           7.00         7.41
  179.08        3346.25           6810           6.00         3.05
  179.10        3346.50           6814           7.00         7.41
  179.13        3346.75           6818           5.00         2.00
  179.16        3347.00           6821           5.00         2.00
  179.18        3347.25           6825           3.00         2.00
  179.21        3347.50           6829           9.00        16.13
  179.24        3347.75           6833           1.00         2.00
  179.26        3348.00           6836           7.00         7.41
  179.29        3348.25           6840           6.00         3.05
  179.32        3348.50           6844           6.00         3.05
  179.35        3348.75           6848           4.00         2.00
  179.37        3349.00           6851           8.00        11.77
  179.40        3349.25           6855           4.00         2.00
  179.43        3349.50           6859           6.00         3.05
  179.45        3349.75           6863           5.00         2.00
  179.48        3350.00           6867           9.00        16.13
  179.51        3350.25           6870           5.00         2.00
  179.54        3350.50           6874           5.00         2.00
  179.56        3350.75           6878           6.00         3.05
  179.59        3351.00           6882           5.00         2.00
HL scan finished at 03:00:13
end
