************************************************************
  HL Scan of (1) Internal mercury lamp
************************************************************
Integration time is 0.2294 seconds per sample
dh100517Tamanrasset 22.79-5.529 3.118579pr865
************************************************************
Dead Time -------------------------  2.8E-08 
Number of Cycles Used -------------  4 
Starting Wavelength (Angstroms) ---  3331 
Final Wavelength (Angstoms) -------  3351 
Wavelength Increment (Angstroms) --  .25 
Filter Wheel #1 Position ---------- (1) Ground quartz diffuser (ND=2.32)
Filter Wheel #2 Position ---------- (0) Clear Aperture



************************************************************
HL scan start time = 02:59:46
Dark Count =  5.7 


Time (GMT)  Wavelength (Ang)  Step Number  Raw Counts  Counts/Second

  180.28        3331.00           6581           6.00         2.00
  180.50        3331.25           6585           7.00         5.67
  180.52        3331.50           6589           0.00         2.00
  180.55        3331.75           6593           5.00         2.00
  180.58        3332.00           6596           6.00         2.00
  180.60        3332.25           6600           4.00         2.00
  180.63        3332.50           6604           8.00        10.03
  180.66        3332.75           6608           6.00         2.00
  180.69        3333.00           6611           6.00         2.00
  180.71        3333.25           6615           2.00         2.00
  180.74        3333.50           6619           3.00         2.00
  180.77        3333.75           6623           3.00         2.00
  180.79        3334.00           6626           8.00        10.03
  180.82        3334.25           6630           6.00         2.00
  180.85        3334.50           6634           4.00         2.00
  180.88        3334.75           6638           6.00         2.00
  180.90        3335.00           6641           5.00         2.00
  180.93        3335.25           6645           2.00         2.00
  180.96        3335.50           6649           7.00         5.67
  180.98        3335.75           6653           3.00         2.00
  181.01        3336.00           6656           5.00         2.00
  181.04        3336.25           6660           5.00         2.00
  181.07        3336.50           6664           8.00        10.03
  181.09        3336.75           6668           5.00         2.00
  181.12        3337.00           6671           5.00         2.00
  181.15        3337.25           6675           4.00         2.00
  181.17        3337.50           6679           0.00         2.00
  181.20        3337.75           6683           5.00         2.00
  181.23        3338.00           6686           5.00         2.00
  181.26        3338.25           6690           5.00         2.00
  181.28        3338.50           6694           8.00        10.03
  181.31        3338.75           6698           3.00         2.00
  181.34        3339.00           6701           5.00         2.00
  181.36        3339.25           6705           8.00        10.03
  181.39        3339.50           6709           2.00         2.00
  181.42        3339.75           6713           8.00        10.03
  181.44        3340.00           6716           4.00         2.00
  181.47        3340.25           6720           3.00         2.00
  181.50        3340.50           6724           8.00        10.03
  181.53        3340.75           6728           4.00         2.00
  181.55        3341.00           6731           3.00         2.00
  181.58        3341.25           6735           7.00         5.67
  181.61        3341.50           6739           6.00         2.00
  181.63        3341.75           6743           1.00         2.00
  181.66        3342.00           6746           6.00         2.00
  181.69        3342.25           6750           4.00         2.00
  181.72        3342.50           6754           5.00         2.00
  181.74        3342.75           6758           1.00         2.00
  181.77        3343.00           6761           8.00        10.03
  181.80        3343.25           6765           4.00         2.00
  181.82        3343.50           6769           4.00         2.00
  181.85        3343.75           6773           5.00         2.00
  181.88        3344.00           6776           6.00         2.00
  181.91        3344.25           6780           8.00        10.03
  181.93        3344.50           6784           4.00         2.00
  181.96        3344.75           6788           4.00         2.00
  181.99        3345.00           6791           2.00         2.00
  182.01        3345.25           6795           3.00         2.00
  182.04        3345.50           6799           8.00        10.03
  182.07        3345.75           6803           4.00         2.00
  182.10        3346.00           6806           4.00         2.00
  182.12        3346.25           6810           4.00         2.00
  182.15        3346.50           6814           4.00         2.00
  182.18        3346.75           6818           3.00         2.00
  182.20        3347.00           6821           4.00         2.00
  182.23        3347.25           6825           4.00         2.00
  182.26        3347.50           6829           8.00        10.03
  182.29        3347.75           6833           3.00         2.00
  182.31        3348.00           6836           3.00         2.00
  182.34        3348.25           6840           6.00         2.00
  182.37        3348.50           6844           4.00         2.00
  182.39        3348.75           6848           3.00         2.00
  182.42        3349.00           6851           1.00         2.00
  182.45        3349.25           6855           2.00         2.00
  182.47        3349.50           6859           1.00         2.00
  182.50        3349.75           6863           4.00         2.00
  182.53        3350.00           6867           8.00        10.03
  182.56        3350.25           6870           3.00         2.00
  182.58        3350.50           6874           8.00        10.03
  182.61        3350.75           6878           8.00        10.03
  182.64        3351.00           6882           7.00         5.67
HL scan finished at 03:03:16
end
