************************************************************
  HL Scan of (1) Internal mercury lamp
************************************************************
Integration time is 0.2294 seconds per sample
dh130517Tamanrasset 22.79-5.529 3.44487pr865
************************************************************
Dead Time -------------------------  2.8E-08 
Number of Cycles Used -------------  4 
Starting Wavelength (Angstroms) ---  3331 
Final Wavelength (Angstoms) -------  3351 
Wavelength Increment (Angstroms) --  .25 
Filter Wheel #1 Position ---------- (1) Ground quartz diffuser (ND=2.32)
Filter Wheel #2 Position ---------- (0) Clear Aperture



************************************************************
HL scan start time = 02:58:45
Dark Count =  6.1 


Time (GMT)  Wavelength (Ang)  Step Number  Raw Counts  Counts/Second

  179.25        3331.00           6581          10.00        17.00
  179.47        3331.25           6585          10.00        17.00
  179.50        3331.50           6589           3.00         2.00
  179.53        3331.75           6593           7.00         3.92
  179.55        3332.00           6596           6.00         2.00
  179.58        3332.25           6600           8.00         8.28
  179.61        3332.50           6604           6.00         2.00
  179.63        3332.75           6608           5.00         2.00
  179.66        3333.00           6611           4.00         2.00
  179.69        3333.25           6615           4.00         2.00
  179.71        3333.50           6619           5.00         2.00
  179.74        3333.75           6623           6.00         2.00
  179.77        3334.00           6626           8.00         8.28
  179.80        3334.25           6630           7.00         3.92
  179.82        3334.50           6634           4.00         2.00
  179.85        3334.75           6638           7.00         3.92
  179.88        3335.00           6641           6.00         2.00
  179.90        3335.25           6645           5.00         2.00
  179.93        3335.50           6649           4.00         2.00
  179.96        3335.75           6653           4.00         2.00
  179.99        3336.00           6656           6.00         2.00
  180.01        3336.25           6660           8.00         8.28
  180.04        3336.50           6664           6.00         2.00
  180.07        3336.75           6668           5.00         2.00
  180.09        3337.00           6671           9.00        12.64
  180.12        3337.25           6675           8.00         8.28
  180.15        3337.50           6679           5.00         2.00
  180.18        3337.75           6683           7.00         3.92
  180.20        3338.00           6686           6.00         2.00
  180.23        3338.25           6690           6.00         2.00
  180.26        3338.50           6694           7.00         3.92
  180.28        3338.75           6698           4.00         2.00
  180.31        3339.00           6701           6.00         2.00
  180.34        3339.25           6705           6.00         2.00
  180.37        3339.50           6709           7.00         3.92
  180.39        3339.75           6713           5.00         2.00
  180.42        3340.00           6716           7.00         3.92
  180.45        3340.25           6720           8.00         8.28
  180.47        3340.50           6724           7.00         3.92
  180.50        3340.75           6728           9.00        12.64
  180.53        3341.00           6731           8.00         8.28
  180.55        3341.25           6735           9.00        12.64
  180.58        3341.50           6739           7.00         3.92
  180.61        3341.75           6743           5.00         2.00
  180.64        3342.00           6746           6.00         2.00
  180.66        3342.25           6750           8.00         8.28
  180.69        3342.50           6754           8.00         8.28
  180.72        3342.75           6758           7.00         3.92
  180.74        3343.00           6761           7.00         3.92
  180.77        3343.25           6765           5.00         2.00
  180.80        3343.50           6769           6.00         2.00
  180.83        3343.75           6773           8.00         8.28
  180.85        3344.00           6776          10.00        17.00
  180.88        3344.25           6780           6.00         2.00
  180.91        3344.50           6784           4.00         2.00
  180.93        3344.75           6788           5.00         2.00
  180.96        3345.00           6791           6.00         2.00
  180.99        3345.25           6795           6.00         2.00
  181.02        3345.50           6799           5.00         2.00
  181.04        3345.75           6803           2.00         2.00
  181.07        3346.00           6806           6.00         2.00
  181.10        3346.25           6810           9.00        12.64
  181.13        3346.50           6814           9.00        12.64
  181.15        3346.75           6818           4.00         2.00
  181.18        3347.00           6821           7.00         3.92
  181.21        3347.25           6825           5.00         2.00
  181.23        3347.50           6829           7.00         3.92
  181.26        3347.75           6833           5.00         2.00
  181.29        3348.00           6836           7.00         3.92
  181.32        3348.25           6840           6.00         2.00
  181.34        3348.50           6844           4.00         2.00
  181.37        3348.75           6848           7.00         3.92
  181.40        3349.00           6851           5.00         2.00
  181.42        3349.25           6855           6.00         2.00
  181.45        3349.50           6859           7.00         3.92
  181.48        3349.75           6863           5.00         2.00
  181.50        3350.00           6867           9.00        12.64
  181.53        3350.25           6870           9.00        12.64
  181.56        3350.50           6874           5.00         2.00
  181.59        3350.75           6878           5.00         2.00
  181.61        3351.00           6882           8.00         8.28
HL scan finished at 03:02:14
end
