************************************************************
  HL Scan of (1) Internal mercury lamp
************************************************************
Integration time is 0.2294 seconds per sample
dh160517Tamanrasset 22.79-5.529 3.11348pr865
************************************************************
Dead Time -------------------------  2.8E-08 
Number of Cycles Used -------------  4 
Starting Wavelength (Angstroms) ---  3331 
Final Wavelength (Angstoms) -------  3351 
Wavelength Increment (Angstroms) --  .25 
Filter Wheel #1 Position ---------- (1) Ground quartz diffuser (ND=2.32)
Filter Wheel #2 Position ---------- (0) Clear Aperture



************************************************************
HL scan start time = 02:56:45
Dark Count =  5.4 


Time (GMT)  Wavelength (Ang)  Step Number  Raw Counts  Counts/Second

  177.26        3331.00           6581           6.00         2.62
  177.48        3331.25           6585           5.00         2.00
  177.50        3331.50           6589           1.00         2.00
  177.53        3331.75           6593           6.00         2.62
  177.56        3332.00           6596           3.00         2.00
  177.58        3332.25           6600           2.00         2.00
  177.61        3332.50           6604           4.00         2.00
  177.64        3332.75           6608           8.00        11.33
  177.67        3333.00           6611           7.00         6.97
  177.69        3333.25           6615           3.00         2.00
  177.72        3333.50           6619           0.00         2.00
  177.75        3333.75           6623           9.00        15.69
  177.77        3334.00           6626           6.00         2.62
  177.80        3334.25           6630           6.00         2.62
  177.83        3334.50           6634           2.00         2.00
  177.86        3334.75           6638           8.00        11.33
  177.88        3335.00           6641           4.00         2.00
  177.91        3335.25           6645           7.00         6.97
  177.94        3335.50           6649           8.00        11.33
  177.97        3335.75           6653           2.00         2.00
  177.99        3336.00           6656           5.00         2.00
  178.02        3336.25           6660           9.00        15.69
  178.05        3336.50           6664           8.00        11.33
  178.07        3336.75           6668           4.00         2.00
  178.10        3337.00           6671           2.00         2.00
  178.13        3337.25           6675           6.00         2.62
  178.16        3337.50           6679           7.00         6.97
  178.18        3337.75           6683           0.00         2.00
  178.21        3338.00           6686           8.00        11.33
  178.24        3338.25           6690           3.00         2.00
  178.26        3338.50           6694           2.00         2.00
  178.29        3338.75           6698           5.00         2.00
  178.32        3339.00           6701           5.00         2.00
  178.34        3339.25           6705           4.00         2.00
  178.37        3339.50           6709           8.00        11.33
  178.40        3339.75           6713           4.00         2.00
  178.43        3340.00           6716           3.00         2.00
  178.45        3340.25           6720           7.00         6.97
  178.48        3340.50           6724           1.00         2.00
  178.51        3340.75           6728           6.00         2.62
  178.53        3341.00           6731           2.00         2.00
  178.56        3341.25           6735           6.00         2.62
  178.59        3341.50           6739           8.00        11.33
  178.62        3341.75           6743           5.00         2.00
  178.64        3342.00           6746           7.00         6.97
  178.67        3342.25           6750           2.00         2.00
  178.70        3342.50           6754           5.00         2.00
  178.72        3342.75           6758           3.00         2.00
  178.75        3343.00           6761           5.00         2.00
  178.78        3343.25           6765           7.00         6.97
  178.81        3343.50           6769           7.00         6.97
  178.83        3343.75           6773           6.00         2.62
  178.86        3344.00           6776           4.00         2.00
  178.89        3344.25           6780           2.00         2.00
  178.91        3344.50           6784           5.00         2.00
  178.94        3344.75           6788           6.00         2.62
  178.97        3345.00           6791           5.00         2.00
  179.00        3345.25           6795           3.00         2.00
  179.02        3345.50           6799           3.00         2.00
  179.05        3345.75           6803           7.00         6.97
  179.08        3346.00           6806           4.00         2.00
  179.10        3346.25           6810           5.00         2.00
  179.13        3346.50           6814           5.00         2.00
  179.16        3346.75           6818           3.00         2.00
  179.19        3347.00           6821           4.00         2.00
  179.21        3347.25           6825           6.00         2.62
  179.24        3347.50           6829           2.00         2.00
  179.27        3347.75           6833           8.00        11.33
  179.30        3348.00           6836           5.00         2.00
  179.32        3348.25           6840           7.00         6.97
  179.35        3348.50           6844           5.00         2.00
  179.38        3348.75           6848           6.00         2.62
  179.40        3349.00           6851           5.00         2.00
  179.43        3349.25           6855           5.00         2.00
  179.46        3349.50           6859           8.00        11.33
  179.49        3349.75           6863           3.00         2.00
  179.51        3350.00           6867           7.00         6.97
  179.54        3350.25           6870           6.00         2.62
  179.57        3350.50           6874           6.00         2.62
  179.59        3350.75           6878           4.00         2.00
  179.62        3351.00           6882           4.00         2.00
HL scan finished at 03:00:15
end
