************************************************************
  HL Scan of (1) Internal mercury lamp
************************************************************
Integration time is 0.2294 seconds per sample
dh150517Tamanrasset 22.79-5.529 3.256233pr865
************************************************************
Dead Time -------------------------  2.8E-08 
Number of Cycles Used -------------  4 
Starting Wavelength (Angstroms) ---  3331 
Final Wavelength (Angstoms) -------  3351 
Wavelength Increment (Angstroms) --  .25 
Filter Wheel #1 Position ---------- (1) Ground quartz diffuser (ND=2.32)
Filter Wheel #2 Position ---------- (0) Clear Aperture



************************************************************
HL scan start time = 02:57:49
Dark Count =  5 


Time (GMT)  Wavelength (Ang)  Step Number  Raw Counts  Counts/Second

  178.33        3331.00           6581           2.00         2.00
  178.55        3331.25           6585           4.00         2.00
  178.58        3331.50           6589           5.00         2.00
  178.60        3331.75           6593           7.00         8.72
  178.63        3332.00           6596           5.00         2.00
  178.66        3332.25           6600           5.00         2.00
  178.68        3332.50           6604           3.00         2.00
  178.71        3332.75           6608           4.00         2.00
  178.74        3333.00           6611           7.00         8.72
  178.77        3333.25           6615           8.00        13.08
  178.79        3333.50           6619           7.00         8.72
  178.82        3333.75           6623           3.00         2.00
  178.85        3334.00           6626           8.00        13.08
  178.87        3334.25           6630           5.00         2.00
  178.90        3334.50           6634           2.00         2.00
  178.93        3334.75           6638           6.00         4.36
  178.96        3335.00           6641           6.00         4.36
  178.98        3335.25           6645           3.00         2.00
  179.01        3335.50           6649           4.00         2.00
  179.04        3335.75           6653           5.00         2.00
  179.06        3336.00           6656           7.00         8.72
  179.09        3336.25           6660           8.00        13.08
  179.12        3336.50           6664           4.00         2.00
  179.14        3336.75           6668           7.00         8.72
  179.17        3337.00           6671           6.00         4.36
  179.20        3337.25           6675           5.00         2.00
  179.23        3337.50           6679           6.00         4.36
  179.25        3337.75           6683           2.00         2.00
  179.28        3338.00           6686           3.00         2.00
  179.31        3338.25           6690           4.00         2.00
  179.34        3338.50           6694           5.00         2.00
  179.36        3338.75           6698           6.00         4.36
  179.39        3339.00           6701           8.00        13.08
  179.42        3339.25           6705           6.00         4.36
  179.44        3339.50           6709           4.00         2.00
  179.47        3339.75           6713           5.00         2.00
  179.50        3340.00           6716           7.00         8.72
  179.53        3340.25           6720           3.00         2.00
  179.55        3340.50           6724           6.00         4.36
  179.58        3340.75           6728           5.00         2.00
  179.61        3341.00           6731           4.00         2.00
  179.63        3341.25           6735           3.00         2.00
  179.66        3341.50           6739           8.00        13.08
  179.69        3341.75           6743           6.00         4.36
  179.72        3342.00           6746           6.00         4.36
  179.74        3342.25           6750           5.00         2.00
  179.77        3342.50           6754           3.00         2.00
  179.80        3342.75           6758           1.00         2.00
  179.82        3343.00           6761           2.00         2.00
  179.85        3343.25           6765           9.00        17.44
  179.88        3343.50           6769           0.00         2.00
  179.91        3343.75           6773           4.00         2.00
  179.93        3344.00           6776           5.00         2.00
  179.96        3344.25           6780           6.00         4.36
  179.99        3344.50           6784           5.00         2.00
  180.01        3344.75           6788           6.00         4.36
  180.04        3345.00           6791           6.00         4.36
  180.07        3345.25           6795           5.00         2.00
  180.10        3345.50           6799           5.00         2.00
  180.12        3345.75           6803           7.00         8.72
  180.15        3346.00           6806           7.00         8.72
  180.18        3346.25           6810           7.00         8.72
  180.20        3346.50           6814           8.00        13.08
  180.23        3346.75           6818           3.00         2.00
  180.26        3347.00           6821           7.00         8.72
  180.29        3347.25           6825           4.00         2.00
  180.31        3347.50           6829           5.00         2.00
  180.34        3347.75           6833           5.00         2.00
  180.37        3348.00           6836           6.00         4.36
  180.39        3348.25           6840           0.00         2.00
  180.42        3348.50           6844           7.00         8.72
  180.45        3348.75           6848           4.00         2.00
  180.48        3349.00           6851           5.00         2.00
  180.50        3349.25           6855           4.00         2.00
  180.53        3349.50           6859           4.00         2.00
  180.56        3349.75           6863           7.00         8.72
  180.58        3350.00           6867           8.00        13.08
  180.61        3350.25           6870           6.00         4.36
  180.64        3350.50           6874           0.00         2.00
  180.67        3350.75           6878           2.00         2.00
  180.69        3351.00           6882           6.00         4.36
HL scan finished at 03:01:19
end
