************************************************************
  HL Scan of (1) Internal mercury lamp
************************************************************
Integration time is 0.2294 seconds per sample
dh120517Tamanrasset 22.79-5.529 3.398986pr865
************************************************************
Dead Time -------------------------  2.8E-08 
Number of Cycles Used -------------  4 
Starting Wavelength (Angstroms) ---  3331 
Final Wavelength (Angstoms) -------  3351 
Wavelength Increment (Angstroms) --  .25 
Filter Wheel #1 Position ---------- (1) Ground quartz diffuser (ND=2.32)
Filter Wheel #2 Position ---------- (0) Clear Aperture



************************************************************
HL scan start time = 02:58:55
Dark Count =  6.3 


Time (GMT)  Wavelength (Ang)  Step Number  Raw Counts  Counts/Second

  179.43        3331.00           6581           6.00         2.00
  179.65        3331.25           6585           8.00         7.41
  179.68        3331.50           6589           4.00         2.00
  179.70        3331.75           6593           9.00        11.77
  179.73        3332.00           6596           5.00         2.00
  179.76        3332.25           6600           7.00         3.05
  179.79        3332.50           6604           6.00         2.00
  179.81        3332.75           6608           7.00         3.05
  179.84        3333.00           6611           7.00         3.05
  179.87        3333.25           6615           4.00         2.00
  179.89        3333.50           6619           5.00         2.00
  179.92        3333.75           6623           8.00         7.41
  179.95        3334.00           6626           6.00         2.00
  179.98        3334.25           6630           4.00         2.00
  180.00        3334.50           6634           7.00         3.05
  180.03        3334.75           6638           5.00         2.00
  180.06        3335.00           6641           6.00         2.00
  180.08        3335.25           6645           8.00         7.41
  180.11        3335.50           6649           5.00         2.00
  180.14        3335.75           6653           5.00         2.00
  180.16        3336.00           6656           8.00         7.41
  180.19        3336.25           6660           5.00         2.00
  180.22        3336.50           6664           4.00         2.00
  180.25        3336.75           6668           7.00         3.05
  180.27        3337.00           6671           5.00         2.00
  180.30        3337.25           6675           5.00         2.00
  180.33        3337.50           6679           5.00         2.00
  180.36        3337.75           6683           8.00         7.41
  180.38        3338.00           6686           7.00         3.05
  180.41        3338.25           6690           6.00         2.00
  180.44        3338.50           6694           3.00         2.00
  180.46        3338.75           6698           4.00         2.00
  180.49        3339.00           6701           9.00        11.77
  180.52        3339.25           6705           4.00         2.00
  180.55        3339.50           6709           6.00         2.00
  180.57        3339.75           6713           8.00         7.41
  180.60        3340.00           6716           7.00         3.05
  180.63        3340.25           6720           7.00         3.05
  180.65        3340.50           6724           6.00         2.00
  180.68        3340.75           6728           5.00         2.00
  180.71        3341.00           6731           4.00         2.00
  180.73        3341.25           6735           9.00        11.77
  180.76        3341.50           6739           9.00        11.77
  180.79        3341.75           6743           5.00         2.00
  180.82        3342.00           6746           2.00         2.00
  180.84        3342.25           6750           8.00         7.41
  180.87        3342.50           6754           9.00        11.77
  180.90        3342.75           6758           6.00         2.00
  180.92        3343.00           6761           6.00         2.00
  180.95        3343.25           6765           9.00        11.77
  180.98        3343.50           6769           3.00         2.00
  181.01        3343.75           6773           8.00         7.41
  181.03        3344.00           6776           7.00         3.05
  181.06        3344.25           6780           3.00         2.00
  181.09        3344.50           6784           3.00         2.00
  181.11        3344.75           6788           6.00         2.00
  181.14        3345.00           6791           6.00         2.00
  181.17        3345.25           6795           6.00         2.00
  181.20        3345.50           6799           6.00         2.00
  181.22        3345.75           6803           8.00         7.41
  181.25        3346.00           6806           8.00         7.41
  181.28        3346.25           6810           8.00         7.41
  181.30        3346.50           6814           6.00         2.00
  181.33        3346.75           6818           6.00         2.00
  181.36        3347.00           6821           6.00         2.00
  181.39        3347.25           6825           7.00         3.05
  181.41        3347.50           6829           5.00         2.00
  181.44        3347.75           6833           7.00         3.05
  181.47        3348.00           6836           5.00         2.00
  181.49        3348.25           6840           6.00         2.00
  181.52        3348.50           6844           7.00         3.05
  181.55        3348.75           6848           5.00         2.00
  181.58        3349.00           6851           7.00         3.05
  181.60        3349.25           6855           6.00         2.00
  181.63        3349.50           6859           6.00         2.00
  181.66        3349.75           6863           6.00         2.00
  181.68        3350.00           6867           6.00         2.00
  181.71        3350.25           6870           5.00         2.00
  181.74        3350.50           6874           8.00         7.41
  181.77        3350.75           6878           7.00         3.05
  181.79        3351.00           6882           6.00         2.00
HL scan finished at 03:02:25
end
