************************************************************
  HL Scan of (1) Internal mercury lamp
************************************************************
Integration time is 0.2294 seconds per sample
dh250517Tamanrasset 22.79-5.529 3.133873pr865
************************************************************
Dead Time -------------------------  2.8E-08 
Number of Cycles Used -------------  4 
Starting Wavelength (Angstroms) ---  3331 
Final Wavelength (Angstoms) -------  3351 
Wavelength Increment (Angstroms) --  .25 
Filter Wheel #1 Position ---------- (1) Ground quartz diffuser (ND=2.32)
Filter Wheel #2 Position ---------- (0) Clear Aperture



************************************************************
HL scan start time = 02:53:55
Dark Count =  5 


Time (GMT)  Wavelength (Ang)  Step Number  Raw Counts  Counts/Second

  174.43        3331.00           6581           1.00         2.00
  174.65        3331.25           6585           3.00         2.00
  174.68        3331.50           6589           6.00         4.36
  174.70        3331.75           6593           2.00         2.00
  174.73        3332.00           6596           1.00         2.00
  174.76        3332.25           6600           2.00         2.00
  174.79        3332.50           6604           0.00         2.00
  174.81        3332.75           6608           1.00         2.00
  174.84        3333.00           6611           8.00        13.08
  174.87        3333.25           6615           4.00         2.00
  174.89        3333.50           6619           8.00        13.08
  174.92        3333.75           6623           6.00         4.36
  174.95        3334.00           6626           5.00         2.00
  174.98        3334.25           6630           8.00        13.08
  175.00        3334.50           6634           7.00         8.72
  175.03        3334.75           6638           6.00         4.36
  175.06        3335.00           6641           7.00         8.72
  175.08        3335.25           6645           2.00         2.00
  175.11        3335.50           6649           4.00         2.00
  175.14        3335.75           6653           6.00         4.36
  175.17        3336.00           6656           8.00        13.08
  175.19        3336.25           6660           4.00         2.00
  175.22        3336.50           6664           5.00         2.00
  175.25        3336.75           6668           6.00         4.36
  175.27        3337.00           6671           4.00         2.00
  175.30        3337.25           6675           5.00         2.00
  175.33        3337.50           6679           7.00         8.72
  175.35        3337.75           6683           8.00        13.08
  175.38        3338.00           6686           1.00         2.00
  175.41        3338.25           6690           6.00         4.36
  175.44        3338.50           6694           4.00         2.00
  175.46        3338.75           6698           4.00         2.00
  175.49        3339.00           6701           6.00         4.36
  175.52        3339.25           6705           6.00         4.36
  175.54        3339.50           6709           0.00         2.00
  175.57        3339.75           6713           8.00        13.08
  175.60        3340.00           6716           2.00         2.00
  175.63        3340.25           6720           3.00         2.00
  175.65        3340.50           6724           4.00         2.00
  175.68        3340.75           6728           4.00         2.00
  175.71        3341.00           6731           3.00         2.00
  175.73        3341.25           6735           6.00         4.36
  175.76        3341.50           6739           4.00         2.00
  175.79        3341.75           6743           5.00         2.00
  175.82        3342.00           6746           4.00         2.00
  175.84        3342.25           6750           5.00         2.00
  175.87        3342.50           6754           2.00         2.00
  175.90        3342.75           6758           4.00         2.00
  175.92        3343.00           6761           8.00        13.08
  175.95        3343.25           6765           8.00        13.08
  175.98        3343.50           6769           0.00         2.00
  176.01        3343.75           6773           8.00        13.08
  176.03        3344.00           6776           2.00         2.00
  176.06        3344.25           6780           8.00        13.08
  176.09        3344.50           6784           6.00         4.36
  176.11        3344.75           6788           3.00         2.00
  176.14        3345.00           6791           6.00         4.36
  176.17        3345.25           6795           6.00         4.36
  176.19        3345.50           6799           8.00        13.08
  176.22        3345.75           6803           6.00         4.36
  176.25        3346.00           6806           6.00         4.36
  176.28        3346.25           6810           2.00         2.00
  176.30        3346.50           6814           7.00         8.72
  176.33        3346.75           6818           2.00         2.00
  176.36        3347.00           6821           3.00         2.00
  176.38        3347.25           6825           8.00        13.08
  176.41        3347.50           6829           5.00         2.00
  176.44        3347.75           6833           3.00         2.00
  176.47        3348.00           6836           4.00         2.00
  176.49        3348.25           6840           1.00         2.00
  176.52        3348.50           6844           6.00         4.36
  176.55        3348.75           6848           0.00         2.00
  176.57        3349.00           6851           5.00         2.00
  176.60        3349.25           6855           7.00         8.72
  176.63        3349.50           6859           4.00         2.00
  176.66        3349.75           6863           6.00         4.36
  176.68        3350.00           6867           0.00         2.00
  176.71        3350.25           6870           3.00         2.00
  176.74        3350.50           6874           7.00         8.72
  176.76        3350.75           6878           7.00         8.72
  176.79        3351.00           6882           4.00         2.00
HL scan finished at 02:57:25
end
