************************************************************
  HL Scan of (1) Internal mercury lamp
************************************************************
Integration time is 0.2294 seconds per sample
dh230517Tamanrasset 22.79-5.529 3.291921pr865
************************************************************
Dead Time -------------------------  2.8E-08 
Number of Cycles Used -------------  4 
Starting Wavelength (Angstroms) ---  3331 
Final Wavelength (Angstoms) -------  3351 
Wavelength Increment (Angstroms) --  .25 
Filter Wheel #1 Position ---------- (1) Ground quartz diffuser (ND=2.32)
Filter Wheel #2 Position ---------- (0) Clear Aperture



************************************************************
HL scan start time = 02:54:57
Dark Count =  5.9 


Time (GMT)  Wavelength (Ang)  Step Number  Raw Counts  Counts/Second

  175.46        3331.00           6581           6.00         2.00
  175.68        3331.25           6585           8.00         9.15
  175.70        3331.50           6589           6.00         2.00
  175.73        3331.75           6593           9.00        13.51
  175.76        3332.00           6596           4.00         2.00
  175.78        3332.25           6600           7.00         4.80
  175.81        3332.50           6604           5.00         2.00
  175.84        3332.75           6608           4.00         2.00
  175.87        3333.00           6611           7.00         4.80
  175.89        3333.25           6615           5.00         2.00
  175.92        3333.50           6619           6.00         2.00
  175.95        3333.75           6623           8.00         9.15
  175.97        3334.00           6626           3.00         2.00
  176.00        3334.25           6630           7.00         4.80
  176.03        3334.50           6634           4.00         2.00
  176.06        3334.75           6638           3.00         2.00
  176.08        3335.00           6641           7.00         4.80
  176.11        3335.25           6645           5.00         2.00
  176.14        3335.50           6649           5.00         2.00
  176.16        3335.75           6653           6.00         2.00
  176.19        3336.00           6656           4.00         2.00
  176.22        3336.25           6660           6.00         2.00
  176.25        3336.50           6664           6.00         2.00
  176.27        3336.75           6668           6.00         2.00
  176.30        3337.00           6671           5.00         2.00
  176.33        3337.25           6675           4.00         2.00
  176.35        3337.50           6679           3.00         2.00
  176.38        3337.75           6683           4.00         2.00
  176.41        3338.00           6686           7.00         4.80
  176.44        3338.25           6690           5.00         2.00
  176.46        3338.50           6694           6.00         2.00
  176.49        3338.75           6698           2.00         2.00
  176.52        3339.00           6701           7.00         4.80
  176.54        3339.25           6705           1.00         2.00
  176.57        3339.50           6709           7.00         4.80
  176.60        3339.75           6713           5.00         2.00
  176.63        3340.00           6716           7.00         4.80
  176.65        3340.25           6720           2.00         2.00
  176.68        3340.50           6724           8.00         9.15
  176.71        3340.75           6728           4.00         2.00
  176.73        3341.00           6731           2.00         2.00
  176.76        3341.25           6735           4.00         2.00
  176.79        3341.50           6739           6.00         2.00
  176.81        3341.75           6743           6.00         2.00
  176.84        3342.00           6746           7.00         4.80
  176.87        3342.25           6750           6.00         2.00
  176.90        3342.50           6754           5.00         2.00
  176.92        3342.75           6758           6.00         2.00
  176.95        3343.00           6761           3.00         2.00
  176.98        3343.25           6765           7.00         4.80
  177.01        3343.50           6769           6.00         2.00
  177.03        3343.75           6773           2.00         2.00
  177.06        3344.00           6776           7.00         4.80
  177.09        3344.25           6780           6.00         2.00
  177.11        3344.50           6784           6.00         2.00
  177.14        3344.75           6788           6.00         2.00
  177.17        3345.00           6791           8.00         9.15
  177.19        3345.25           6795           5.00         2.00
  177.22        3345.50           6799           7.00         4.80
  177.25        3345.75           6803           5.00         2.00
  177.28        3346.00           6806           6.00         2.00
  177.30        3346.25           6810           7.00         4.80
  177.33        3346.50           6814           5.00         2.00
  177.36        3346.75           6818           9.00        13.51
  177.38        3347.00           6821           5.00         2.00
  177.41        3347.25           6825           8.00         9.15
  177.44        3347.50           6829           5.00         2.00
  177.47        3347.75           6833           7.00         4.80
  177.49        3348.00           6836           4.00         2.00
  177.52        3348.25           6840           8.00         9.15
  177.55        3348.50           6844           8.00         9.15
  177.58        3348.75           6848           7.00         4.80
  177.60        3349.00           6851           7.00         4.80
  177.63        3349.25           6855           5.00         2.00
  177.66        3349.50           6859           6.00         2.00
  177.68        3349.75           6863           7.00         4.80
  177.71        3350.00           6867           6.00         2.00
  177.74        3350.25           6870           5.00         2.00
  177.76        3350.50           6874           1.00         2.00
  177.79        3350.75           6878           1.00         2.00
  177.82        3351.00           6882           6.00         2.00
HL scan finished at 02:58:27
end
