************************************************************
  HL Scan of (1) Internal mercury lamp
************************************************************
Integration time is 0.2294 seconds per sample
dh240517Tamanrasset 22.79-5.529 3.276626pr865
************************************************************
Dead Time -------------------------  2.8E-08 
Number of Cycles Used -------------  4 
Starting Wavelength (Angstroms) ---  3331 
Final Wavelength (Angstoms) -------  3351 
Wavelength Increment (Angstroms) --  .25 
Filter Wheel #1 Position ---------- (1) Ground quartz diffuser (ND=2.32)
Filter Wheel #2 Position ---------- (0) Clear Aperture



************************************************************
HL scan start time = 02:53:45
Dark Count =  5.7 


Time (GMT)  Wavelength (Ang)  Step Number  Raw Counts  Counts/Second

  174.26        3331.00           6581           4.00         2.00
  174.48        3331.25           6585           6.00         2.00
  174.51        3331.50           6589           3.00         2.00
  174.54        3331.75           6593           6.00         2.00
  174.56        3332.00           6596           8.00        10.03
  174.59        3332.25           6600           7.00         5.67
  174.62        3332.50           6604           6.00         2.00
  174.65        3332.75           6608           3.00         2.00
  174.67        3333.00           6611           7.00         5.67
  174.70        3333.25           6615           6.00         2.00
  174.73        3333.50           6619           5.00         2.00
  174.75        3333.75           6623           2.00         2.00
  174.78        3334.00           6626           7.00         5.67
  174.81        3334.25           6630           4.00         2.00
  174.84        3334.50           6634           8.00        10.03
  174.86        3334.75           6638           6.00         2.00
  174.89        3335.00           6641           3.00         2.00
  174.92        3335.25           6645           5.00         2.00
  174.94        3335.50           6649           5.00         2.00
  174.97        3335.75           6653           5.00         2.00
  175.00        3336.00           6656           3.00         2.00
  175.02        3336.25           6660           5.00         2.00
  175.05        3336.50           6664           5.00         2.00
  175.08        3336.75           6668           4.00         2.00
  175.11        3337.00           6671           7.00         5.67
  175.13        3337.25           6675           3.00         2.00
  175.16        3337.50           6679           5.00         2.00
  175.19        3337.75           6683           6.00         2.00
  175.21        3338.00           6686           5.00         2.00
  175.24        3338.25           6690           4.00         2.00
  175.27        3338.50           6694           0.00         2.00
  175.30        3338.75           6698           5.00         2.00
  175.32        3339.00           6701           9.00        14.39
  175.35        3339.25           6705           5.00         2.00
  175.38        3339.50           6709           4.00         2.00
  175.40        3339.75           6713           5.00         2.00
  175.43        3340.00           6716           3.00         2.00
  175.46        3340.25           6720           4.00         2.00
  175.49        3340.50           6724           6.00         2.00
  175.51        3340.75           6728           7.00         5.67
  175.54        3341.00           6731           1.00         2.00
  175.57        3341.25           6735           5.00         2.00
  175.59        3341.50           6739           1.00         2.00
  175.62        3341.75           6743           3.00         2.00
  175.65        3342.00           6746           5.00         2.00
  175.68        3342.25           6750           6.00         2.00
  175.70        3342.50           6754           8.00        10.03
  175.73        3342.75           6758           7.00         5.67
  175.76        3343.00           6761           3.00         2.00
  175.78        3343.25           6765           6.00         2.00
  175.81        3343.50           6769           8.00        10.03
  175.84        3343.75           6773           6.00         2.00
  175.86        3344.00           6776           4.00         2.00
  175.89        3344.25           6780           5.00         2.00
  175.92        3344.50           6784           7.00         5.67
  175.95        3344.75           6788           8.00        10.03
  175.97        3345.00           6791           3.00         2.00
  176.00        3345.25           6795           6.00         2.00
  176.03        3345.50           6799           8.00        10.03
  176.05        3345.75           6803           7.00         5.67
  176.08        3346.00           6806           5.00         2.00
  176.11        3346.25           6810           7.00         5.67
  176.14        3346.50           6814           7.00         5.67
  176.16        3346.75           6818           4.00         2.00
  176.19        3347.00           6821           6.00         2.00
  176.22        3347.25           6825           5.00         2.00
  176.24        3347.50           6829           4.00         2.00
  176.27        3347.75           6833           7.00         5.67
  176.30        3348.00           6836           7.00         5.67
  176.33        3348.25           6840           7.00         5.67
  176.35        3348.50           6844           4.00         2.00
  176.38        3348.75           6848           9.00        14.39
  176.41        3349.00           6851           3.00         2.00
  176.43        3349.25           6855           6.00         2.00
  176.46        3349.50           6859           6.00         2.00
  176.49        3349.75           6863           6.00         2.00
  176.52        3350.00           6867           2.00         2.00
  176.54        3350.25           6870           5.00         2.00
  176.57        3350.50           6874           7.00         5.67
  176.60        3350.75           6878           4.00         2.00
  176.62        3351.00           6882           4.00         2.00
HL scan finished at 02:57:15
end
