************************************************************
  HL Scan of (1) Internal mercury lamp
************************************************************
Integration time is 0.2294 seconds per sample
dh220517Tamanrasset 22.79-5.529 3.297019pr865
************************************************************
Dead Time -------------------------  2.8E-08 
Number of Cycles Used -------------  4 
Starting Wavelength (Angstroms) ---  3331 
Final Wavelength (Angstoms) -------  3351 
Wavelength Increment (Angstroms) --  .25 
Filter Wheel #1 Position ---------- (1) Ground quartz diffuser (ND=2.32)
Filter Wheel #2 Position ---------- (0) Clear Aperture



************************************************************
HL scan start time = 02:54:58
Dark Count =  6.1 


Time (GMT)  Wavelength (Ang)  Step Number  Raw Counts  Counts/Second

  175.47        3331.00           6581           7.00         3.92
  175.69        3331.25           6585           4.00         2.00
  175.72        3331.50           6589           5.00         2.00
  175.74        3331.75           6593           7.00         3.92
  175.77        3332.00           6596           5.00         2.00
  175.80        3332.25           6600           4.00         2.00
  175.83        3332.50           6604           5.00         2.00
  175.85        3332.75           6608           5.00         2.00
  175.88        3333.00           6611           4.00         2.00
  175.91        3333.25           6615           6.00         2.00
  175.93        3333.50           6619           6.00         2.00
  175.96        3333.75           6623           3.00         2.00
  175.99        3334.00           6626           5.00         2.00
  176.02        3334.25           6630           8.00         8.28
  176.04        3334.50           6634           6.00         2.00
  176.07        3334.75           6638           8.00         8.28
  176.10        3335.00           6641           6.00         2.00
  176.12        3335.25           6645           6.00         2.00
  176.15        3335.50           6649           5.00         2.00
  176.18        3335.75           6653           4.00         2.00
  176.21        3336.00           6656           6.00         2.00
  176.23        3336.25           6660           5.00         2.00
  176.26        3336.50           6664           3.00         2.00
  176.29        3336.75           6668           6.00         2.00
  176.31        3337.00           6671           7.00         3.92
  176.34        3337.25           6675           9.00        12.64
  176.37        3337.50           6679           5.00         2.00
  176.40        3337.75           6683           6.00         2.00
  176.42        3338.00           6686           4.00         2.00
  176.45        3338.25           6690           3.00         2.00
  176.48        3338.50           6694           4.00         2.00
  176.50        3338.75           6698           4.00         2.00
  176.53        3339.00           6701           5.00         2.00
  176.56        3339.25           6705          10.00        17.00
  176.58        3339.50           6709           6.00         2.00
  176.61        3339.75           6713           8.00         8.28
  176.64        3340.00           6716          10.00        17.00
  176.67        3340.25           6720           8.00         8.28
  176.69        3340.50           6724           7.00         3.92
  176.72        3340.75           6728           5.00         2.00
  176.75        3341.00           6731           5.00         2.00
  176.77        3341.25           6735           8.00         8.28
  176.80        3341.50           6739           6.00         2.00
  176.83        3341.75           6743           8.00         8.28
  176.86        3342.00           6746           5.00         2.00
  176.88        3342.25           6750           8.00         8.28
  176.91        3342.50           6754           6.00         2.00
  176.94        3342.75           6758           3.00         2.00
  176.96        3343.00           6761           7.00         3.92
  176.99        3343.25           6765           5.00         2.00
  177.02        3343.50           6769           5.00         2.00
  177.05        3343.75           6773           4.00         2.00
  177.07        3344.00           6776           6.00         2.00
  177.10        3344.25           6780           4.00         2.00
  177.13        3344.50           6784           4.00         2.00
  177.15        3344.75           6788           8.00         8.28
  177.18        3345.00           6791           8.00         8.28
  177.21        3345.25           6795           4.00         2.00
  177.24        3345.50           6799           6.00         2.00
  177.26        3345.75           6803           6.00         2.00
  177.29        3346.00           6806           3.00         2.00
  177.32        3346.25           6810           5.00         2.00
  177.34        3346.50           6814           3.00         2.00
  177.37        3346.75           6818           7.00         3.92
  177.40        3347.00           6821           6.00         2.00
  177.43        3347.25           6825           2.00         2.00
  177.45        3347.50           6829           6.00         2.00
  177.48        3347.75           6833           3.00         2.00
  177.51        3348.00           6836           5.00         2.00
  177.54        3348.25           6840           4.00         2.00
  177.56        3348.50           6844           9.00        12.64
  177.59        3348.75           6848           4.00         2.00
  177.62        3349.00           6851           6.00         2.00
  177.64        3349.25           6855           5.00         2.00
  177.67        3349.50           6859           5.00         2.00
  177.70        3349.75           6863           9.00        12.64
  177.73        3350.00           6867           4.00         2.00
  177.75        3350.25           6870           6.00         2.00
  177.78        3350.50           6874           5.00         2.00
  177.81        3350.75           6878           4.00         2.00
  177.83        3351.00           6882           4.00         2.00
HL scan finished at 02:58:27
end
