************************************************************
  HL Scan of (1) Internal mercury lamp
************************************************************
Integration time is 0.2294 seconds per sample
dh200517Tamanrasset 22.79-5.529 3.358199pr865
************************************************************
Dead Time -------------------------  2.8E-08 
Number of Cycles Used -------------  4 
Starting Wavelength (Angstroms) ---  3331 
Final Wavelength (Angstoms) -------  3351 
Wavelength Increment (Angstroms) --  .25 
Filter Wheel #1 Position ---------- (1) Ground quartz diffuser (ND=2.32)
Filter Wheel #2 Position ---------- (0) Clear Aperture



************************************************************
HL scan start time = 02:55:58
Dark Count =  5.2 


Time (GMT)  Wavelength (Ang)  Step Number  Raw Counts  Counts/Second

  176.47        3331.00           6581           9.00        16.56
  176.69        3331.25           6585           5.00         2.00
  176.71        3331.50           6589           5.00         2.00
  176.74        3331.75           6593           6.00         3.49
  176.77        3332.00           6596           7.00         7.85
  176.80        3332.25           6600           6.00         3.49
  176.82        3332.50           6604           9.00        16.56
  176.85        3332.75           6608           7.00         7.85
  176.88        3333.00           6611           5.00         2.00
  176.90        3333.25           6615           7.00         7.85
  176.93        3333.50           6619           5.00         2.00
  176.96        3333.75           6623           6.00         3.49
  176.99        3334.00           6626           2.00         2.00
  177.01        3334.25           6630           9.00        16.56
  177.04        3334.50           6634           7.00         7.85
  177.07        3334.75           6638           6.00         3.49
  177.09        3335.00           6641           6.00         3.49
  177.12        3335.25           6645           5.00         2.00
  177.15        3335.50           6649           7.00         7.85
  177.18        3335.75           6653           7.00         7.85
  177.20        3336.00           6656           7.00         7.85
  177.23        3336.25           6660           6.00         3.49
  177.26        3336.50           6664           8.00        12.21
  177.29        3336.75           6668           5.00         2.00
  177.31        3337.00           6671           5.00         2.00
  177.34        3337.25           6675           3.00         2.00
  177.37        3337.50           6679           4.00         2.00
  177.39        3337.75           6683           8.00        12.21
  177.42        3338.00           6686           3.00         2.00
  177.45        3338.25           6690           6.00         3.49
  177.47        3338.50           6694           5.00         2.00
  177.50        3338.75           6698           6.00         3.49
  177.53        3339.00           6701           7.00         7.85
  177.56        3339.25           6705           7.00         7.85
  177.58        3339.50           6709           5.00         2.00
  177.61        3339.75           6713           8.00        12.21
  177.64        3340.00           6716           7.00         7.85
  177.66        3340.25           6720           9.00        16.56
  177.69        3340.50           6724           8.00        12.21
  177.72        3340.75           6728           6.00         3.49
  177.75        3341.00           6731           4.00         2.00
  177.77        3341.25           6735           8.00        12.21
  177.80        3341.50           6739           7.00         7.85
  177.83        3341.75           6743           9.00        16.56
  177.85        3342.00           6746           4.00         2.00
  177.88        3342.25           6750           5.00         2.00
  177.91        3342.50           6754           9.00        16.56
  177.94        3342.75           6758           5.00         2.00
  177.96        3343.00           6761           6.00         3.49
  177.99        3343.25           6765           7.00         7.85
  178.02        3343.50           6769           6.00         3.49
  178.04        3343.75           6773           8.00        12.21
  178.07        3344.00           6776           6.00         3.49
  178.10        3344.25           6780           7.00         7.85
  178.13        3344.50           6784           5.00         2.00
  178.15        3344.75           6788           9.00        16.56
  178.18        3345.00           6791           7.00         7.85
  178.21        3345.25           6795           7.00         7.85
  178.23        3345.50           6799           7.00         7.85
  178.26        3345.75           6803           4.00         2.00
  178.29        3346.00           6806           6.00         3.49
  178.32        3346.25           6810           5.00         2.00
  178.34        3346.50           6814           7.00         7.85
  178.37        3346.75           6818           8.00        12.21
  178.40        3347.00           6821           4.00         2.00
  178.42        3347.25           6825           6.00         3.49
  178.45        3347.50           6829           8.00        12.21
  178.48        3347.75           6833           3.00         2.00
  178.51        3348.00           6836           5.00         2.00
  178.53        3348.25           6840           5.00         2.00
  178.56        3348.50           6844           6.00         3.49
  178.59        3348.75           6848           5.00         2.00
  178.61        3349.00           6851           6.00         3.49
  178.64        3349.25           6855           5.00         2.00
  178.67        3349.50           6859           2.00         2.00
  178.70        3349.75           6863           9.00        16.56
  178.72        3350.00           6867           7.00         7.85
  178.75        3350.25           6870           8.00        12.21
  178.78        3350.50           6874           8.00        12.21
  178.80        3350.75           6878           6.00         3.49
  178.83        3351.00           6882           5.00         2.00
HL scan finished at 02:59:27
end
