************************************************************
  HL Scan of (1) Internal mercury lamp
************************************************************
Integration time is 0.2294 seconds per sample
dh290517Tamanrasset 22.79-5.529 3.307216pr865
************************************************************
Dead Time -------------------------  2.8E-08 
Number of Cycles Used -------------  4 
Starting Wavelength (Angstroms) ---  3331 
Final Wavelength (Angstoms) -------  3351 
Wavelength Increment (Angstroms) --  .25 
Filter Wheel #1 Position ---------- (1) Ground quartz diffuser (ND=2.32)
Filter Wheel #2 Position ---------- (0) Clear Aperture



************************************************************
HL scan start time = 02:52:45
Dark Count =  6.1 


Time (GMT)  Wavelength (Ang)  Step Number  Raw Counts  Counts/Second

  173.26        3331.00           6581           8.00         8.28
  173.48        3331.25           6585           6.00         2.00
  173.51        3331.50           6589           3.00         2.00
  173.54        3331.75           6593           3.00         2.00
  173.56        3332.00           6596           7.00         3.92
  173.59        3332.25           6600           6.00         2.00
  173.62        3332.50           6604           5.00         2.00
  173.64        3332.75           6608           7.00         3.92
  173.67        3333.00           6611           4.00         2.00
  173.70        3333.25           6615           5.00         2.00
  173.73        3333.50           6619           8.00         8.28
  173.75        3333.75           6623           5.00         2.00
  173.78        3334.00           6626           5.00         2.00
  173.81        3334.25           6630           5.00         2.00
  173.83        3334.50           6634           8.00         8.28
  173.86        3334.75           6638           7.00         3.92
  173.89        3335.00           6641           7.00         3.92
  173.92        3335.25           6645           8.00         8.28
  173.94        3335.50           6649           6.00         2.00
  173.97        3335.75           6653           5.00         2.00
  174.00        3336.00           6656           4.00         2.00
  174.02        3336.25           6660           5.00         2.00
  174.05        3336.50           6664           7.00         3.92
  174.08        3336.75           6668           7.00         3.92
  174.11        3337.00           6671           3.00         2.00
  174.13        3337.25           6675           4.00         2.00
  174.16        3337.50           6679           5.00         2.00
  174.19        3337.75           6683           7.00         3.92
  174.21        3338.00           6686           7.00         3.92
  174.24        3338.25           6690           3.00         2.00
  174.27        3338.50           6694           8.00         8.28
  174.30        3338.75           6698           9.00        12.64
  174.32        3339.00           6701           5.00         2.00
  174.35        3339.25           6705           7.00         3.92
  174.38        3339.50           6709           4.00         2.00
  174.40        3339.75           6713           4.00         2.00
  174.43        3340.00           6716           5.00         2.00
  174.46        3340.25           6720           5.00         2.00
  174.48        3340.50           6724           5.00         2.00
  174.51        3340.75           6728           5.00         2.00
  174.54        3341.00           6731           7.00         3.92
  174.57        3341.25           6735           8.00         8.28
  174.59        3341.50           6739           2.00         2.00
  174.62        3341.75           6743           6.00         2.00
  174.65        3342.00           6746           5.00         2.00
  174.67        3342.25           6750           5.00         2.00
  174.70        3342.50           6754           6.00         2.00
  174.73        3342.75           6758           7.00         3.92
  174.76        3343.00           6761           5.00         2.00
  174.78        3343.25           6765           6.00         2.00
  174.81        3343.50           6769           7.00         3.92
  174.84        3343.75           6773           7.00         3.92
  174.86        3344.00           6776           3.00         2.00
  174.89        3344.25           6780           5.00         2.00
  174.92        3344.50           6784           8.00         8.28
  174.95        3344.75           6788           8.00         8.28
  174.97        3345.00           6791           8.00         8.28
  175.00        3345.25           6795           5.00         2.00
  175.03        3345.50           6799           6.00         2.00
  175.05        3345.75           6803           2.00         2.00
  175.08        3346.00           6806           5.00         2.00
  175.11        3346.25           6810           4.00         2.00
  175.14        3346.50           6814           0.00         2.00
  175.16        3346.75           6818           4.00         2.00
  175.19        3347.00           6821          10.00        17.00
  175.22        3347.25           6825           5.00         2.00
  175.24        3347.50           6829           5.00         2.00
  175.27        3347.75           6833           6.00         2.00
  175.30        3348.00           6836           5.00         2.00
  175.33        3348.25           6840           6.00         2.00
  175.35        3348.50           6844           4.00         2.00
  175.38        3348.75           6848           8.00         8.28
  175.41        3349.00           6851           6.00         2.00
  175.43        3349.25           6855           6.00         2.00
  175.46        3349.50           6859           6.00         2.00
  175.49        3349.75           6863           4.00         2.00
  175.52        3350.00           6867           9.00        12.64
  175.54        3350.25           6870           4.00         2.00
  175.57        3350.50           6874           6.00         2.00
  175.60        3350.75           6878           7.00         3.92
  175.62        3351.00           6882           4.00         2.00
HL scan finished at 02:56:15
end
