************************************************************
  HL Scan of (1) Internal mercury lamp
************************************************************
Integration time is 0.2294 seconds per sample
dh210517Tamanrasset 22.79-5.529 3.317413pr865
************************************************************
Dead Time -------------------------  2.8E-08 
Number of Cycles Used -------------  4 
Starting Wavelength (Angstroms) ---  3331 
Final Wavelength (Angstoms) -------  3351 
Wavelength Increment (Angstroms) --  .25 
Filter Wheel #1 Position ---------- (1) Ground quartz diffuser (ND=2.32)
Filter Wheel #2 Position ---------- (0) Clear Aperture



************************************************************
HL scan start time = 02:54:58
Dark Count =  5.4 


Time (GMT)  Wavelength (Ang)  Step Number  Raw Counts  Counts/Second

  175.48        3331.00           6581           6.00         2.62
  175.70        3331.25           6585           5.00         2.00
  175.72        3331.50           6589           6.00         2.62
  175.75        3331.75           6593           9.00        15.69
  175.78        3332.00           6596           7.00         6.97
  175.80        3332.25           6600           6.00         2.62
  175.83        3332.50           6604           9.00        15.69
  175.86        3332.75           6608           4.00         2.00
  175.89        3333.00           6611           3.00         2.00
  175.91        3333.25           6615           6.00         2.62
  175.94        3333.50           6619           5.00         2.00
  175.97        3333.75           6623           6.00         2.62
  175.99        3334.00           6626           4.00         2.00
  176.02        3334.25           6630           6.00         2.62
  176.05        3334.50           6634           2.00         2.00
  176.08        3334.75           6638           5.00         2.00
  176.10        3335.00           6641           4.00         2.00
  176.13        3335.25           6645           8.00        11.33
  176.16        3335.50           6649           8.00        11.33
  176.18        3335.75           6653           6.00         2.62
  176.21        3336.00           6656           7.00         6.97
  176.24        3336.25           6660           5.00         2.00
  176.26        3336.50           6664           8.00        11.33
  176.29        3336.75           6668           6.00         2.62
  176.32        3337.00           6671           8.00        11.33
  176.35        3337.25           6675           4.00         2.00
  176.37        3337.50           6679           8.00        11.33
  176.40        3337.75           6683           2.00         2.00
  176.43        3338.00           6686           4.00         2.00
  176.45        3338.25           6690           2.00         2.00
  176.48        3338.50           6694           6.00         2.62
  176.51        3338.75           6698           5.00         2.00
  176.54        3339.00           6701           7.00         6.97
  176.56        3339.25           6705           5.00         2.00
  176.59        3339.50           6709           5.00         2.00
  176.62        3339.75           6713           6.00         2.62
  176.64        3340.00           6716           7.00         6.97
  176.67        3340.25           6720           5.00         2.00
  176.70        3340.50           6724           7.00         6.97
  176.73        3340.75           6728           8.00        11.33
  176.75        3341.00           6731           8.00        11.33
  176.78        3341.25           6735           7.00         6.97
  176.81        3341.50           6739           5.00         2.00
  176.83        3341.75           6743           7.00         6.97
  176.86        3342.00           6746           6.00         2.62
  176.89        3342.25           6750           3.00         2.00
  176.92        3342.50           6754           6.00         2.62
  176.94        3342.75           6758           5.00         2.00
  176.97        3343.00           6761           5.00         2.00
  177.00        3343.25           6765           6.00         2.62
  177.02        3343.50           6769           9.00        15.69
  177.05        3343.75           6773           6.00         2.62
  177.08        3344.00           6776           5.00         2.00
  177.11        3344.25           6780           4.00         2.00
  177.13        3344.50           6784           4.00         2.00
  177.16        3344.75           6788           8.00        11.33
  177.19        3345.00           6791           7.00         6.97
  177.21        3345.25           6795           7.00         6.97
  177.24        3345.50           6799           3.00         2.00
  177.27        3345.75           6803           3.00         2.00
  177.30        3346.00           6806           8.00        11.33
  177.32        3346.25           6810           4.00         2.00
  177.35        3346.50           6814           7.00         6.97
  177.38        3346.75           6818           5.00         2.00
  177.40        3347.00           6821           4.00         2.00
  177.43        3347.25           6825           3.00         2.00
  177.46        3347.50           6829           4.00         2.00
  177.49        3347.75           6833           6.00         2.62
  177.51        3348.00           6836           7.00         6.97
  177.54        3348.25           6840           6.00         2.62
  177.57        3348.50           6844           4.00         2.00
  177.59        3348.75           6848           3.00         2.00
  177.62        3349.00           6851           5.00         2.00
  177.65        3349.25           6855           7.00         6.97
  177.68        3349.50           6859           3.00         2.00
  177.70        3349.75           6863           7.00         6.97
  177.73        3350.00           6867           7.00         6.97
  177.76        3350.25           6870           3.00         2.00
  177.78        3350.50           6874           5.00         2.00
  177.81        3350.75           6878           3.00         2.00
  177.84        3351.00           6882           7.00         6.97
HL scan finished at 02:58:28
end
