************************************************************
  HL Scan of (1) Internal mercury lamp
************************************************************
Integration time is 0.2294 seconds per sample
dh040617Tamanrasset 22.79-5.529 3.373494pr865
************************************************************
Dead Time -------------------------  2.8E-08 
Number of Cycles Used -------------  4 
Starting Wavelength (Angstroms) ---  3331 
Final Wavelength (Angstoms) -------  3351 
Wavelength Increment (Angstroms) --  .25 
Filter Wheel #1 Position ---------- (1) Ground quartz diffuser (ND=2.32)
Filter Wheel #2 Position ---------- (0) Clear Aperture



************************************************************
HL scan start time = 02:51:57
Dark Count =  5.3 


Time (GMT)  Wavelength (Ang)  Step Number  Raw Counts  Counts/Second

  172.46        3331.00           6581           6.00         3.05
  172.68        3331.25           6585           7.00         7.41
  172.70        3331.50           6589           6.00         3.05
  172.73        3331.75           6593           4.00         2.00
  172.76        3332.00           6596           6.00         3.05
  172.78        3332.25           6600           6.00         3.05
  172.81        3332.50           6604           4.00         2.00
  172.84        3332.75           6608           6.00         3.05
  172.87        3333.00           6611           6.00         3.05
  172.89        3333.25           6615           5.00         2.00
  172.92        3333.50           6619           8.00        11.77
  172.95        3333.75           6623           8.00        11.77
  172.97        3334.00           6626           7.00         7.41
  173.00        3334.25           6630           4.00         2.00
  173.03        3334.50           6634           6.00         3.05
  173.06        3334.75           6638           6.00         3.05
  173.08        3335.00           6641           5.00         2.00
  173.11        3335.25           6645           4.00         2.00
  173.14        3335.50           6649           6.00         3.05
  173.16        3335.75           6653           3.00         2.00
  173.19        3336.00           6656           5.00         2.00
  173.22        3336.25           6660           8.00        11.77
  173.25        3336.50           6664           9.00        16.13
  173.27        3336.75           6668           5.00         2.00
  173.30        3337.00           6671           6.00         3.05
  173.33        3337.25           6675           6.00         3.05
  173.35        3337.50           6679           5.00         2.00
  173.38        3337.75           6683           6.00         3.05
  173.41        3338.00           6686           7.00         7.41
  173.43        3338.25           6690           7.00         7.41
  173.46        3338.50           6694           8.00        11.77
  173.49        3338.75           6698           7.00         7.41
  173.52        3339.00           6701           8.00        11.77
  173.54        3339.25           6705           6.00         3.05
  173.57        3339.50           6709           8.00        11.77
  173.60        3339.75           6713           5.00         2.00
  173.62        3340.00           6716           7.00         7.41
  173.65        3340.25           6720           7.00         7.41
  173.68        3340.50           6724           6.00         3.05
  173.71        3340.75           6728           8.00        11.77
  173.73        3341.00           6731           8.00        11.77
  173.76        3341.25           6735           5.00         2.00
  173.79        3341.50           6739           7.00         7.41
  173.81        3341.75           6743           7.00         7.41
  173.84        3342.00           6746           6.00         3.05
  173.87        3342.25           6750           3.00         2.00
  173.90        3342.50           6754           8.00        11.77
  173.92        3342.75           6758           7.00         7.41
  173.95        3343.00           6761           6.00         3.05
  173.98        3343.25           6765           5.00         2.00
  174.01        3343.50           6769           4.00         2.00
  174.03        3343.75           6773           9.00        16.13
  174.06        3344.00           6776           6.00         3.05
  174.09        3344.25           6780           8.00        11.77
  174.11        3344.50           6784           8.00        11.77
  174.14        3344.75           6788           6.00         3.05
  174.17        3345.00           6791           5.00         2.00
  174.20        3345.25           6795           6.00         3.05
  174.22        3345.50           6799           3.00         2.00
  174.25        3345.75           6803           8.00        11.77
  174.28        3346.00           6806           6.00         3.05
  174.30        3346.25           6810           5.00         2.00
  174.33        3346.50           6814           6.00         3.05
  174.36        3346.75           6818           7.00         7.41
  174.38        3347.00           6821           4.00         2.00
  174.41        3347.25           6825           8.00        11.77
  174.44        3347.50           6829           7.00         7.41
  174.47        3347.75           6833           8.00        11.77
  174.49        3348.00           6836           2.00         2.00
  174.52        3348.25           6840           8.00        11.77
  174.55        3348.50           6844           3.00         2.00
  174.57        3348.75           6848           6.00         3.05
  174.60        3349.00           6851           7.00         7.41
  174.63        3349.25           6855           6.00         3.05
  174.66        3349.50           6859           5.00         2.00
  174.68        3349.75           6863           5.00         2.00
  174.71        3350.00           6867           6.00         3.05
  174.74        3350.25           6870           6.00         3.05
  174.76        3350.50           6874           3.00         2.00
  174.79        3350.75           6878           7.00         7.41
  174.82        3351.00           6882           3.00         2.00
HL scan finished at 02:55:27
end
