************************************************************
  HL Scan of (1) Internal mercury lamp
************************************************************
Integration time is 0.2294 seconds per sample
dh310517Tamanrasset 22.79-5.529 3.169561pr865
************************************************************
Dead Time -------------------------  2.8E-08 
Number of Cycles Used -------------  4 
Starting Wavelength (Angstroms) ---  3331 
Final Wavelength (Angstoms) -------  3351 
Wavelength Increment (Angstroms) --  .25 
Filter Wheel #1 Position ---------- (1) Ground quartz diffuser (ND=2.32)
Filter Wheel #2 Position ---------- (0) Clear Aperture



************************************************************
HL scan start time = 02:52:46
Dark Count =  4.4 


Time (GMT)  Wavelength (Ang)  Step Number  Raw Counts  Counts/Second

  173.28        3331.00           6581           8.00        15.69
  173.50        3331.25           6585           6.00         6.97
  173.53        3331.50           6589           6.00         6.97
  173.55        3331.75           6593           3.00         2.00
  173.58        3332.00           6596           8.00        15.69
  173.61        3332.25           6600           7.00        11.33
  173.64        3332.50           6604           2.00         2.00
  173.66        3332.75           6608           8.00        15.69
  173.69        3333.00           6611           6.00         6.97
  173.72        3333.25           6615           4.00         2.00
  173.74        3333.50           6619           7.00        11.33
  173.77        3333.75           6623           3.00         2.00
  173.80        3334.00           6626           5.00         2.62
  173.83        3334.25           6630           1.00         2.00
  173.85        3334.50           6634           8.00        15.69
  173.88        3334.75           6638           5.00         2.62
  173.91        3335.00           6641           8.00        15.69
  173.93        3335.25           6645           3.00         2.00
  173.96        3335.50           6649           5.00         2.62
  173.99        3335.75           6653           8.00        15.69
  174.02        3336.00           6656           3.00         2.00
  174.04        3336.25           6660           7.00        11.33
  174.07        3336.50           6664           8.00        15.69
  174.10        3336.75           6668           4.00         2.00
  174.12        3337.00           6671           5.00         2.62
  174.15        3337.25           6675           4.00         2.00
  174.18        3337.50           6679           8.00        15.69
  174.20        3337.75           6683           0.00         2.00
  174.23        3338.00           6686           4.00         2.00
  174.26        3338.25           6690           7.00        11.33
  174.29        3338.50           6694           5.00         2.62
  174.31        3338.75           6698           7.00        11.33
  174.34        3339.00           6701           6.00         6.97
  174.37        3339.25           6705           4.00         2.00
  174.39        3339.50           6709           2.00         2.00
  174.42        3339.75           6713           4.00         2.00
  174.45        3340.00           6716           7.00        11.33
  174.48        3340.25           6720           2.00         2.00
  174.50        3340.50           6724           4.00         2.00
  174.53        3340.75           6728           5.00         2.62
  174.56        3341.00           6731           6.00         6.97
  174.58        3341.25           6735           8.00        15.69
  174.61        3341.50           6739           5.00         2.62
  174.64        3341.75           6743           3.00         2.00
  174.67        3342.00           6746           3.00         2.00
  174.69        3342.25           6750           6.00         6.97
  174.72        3342.50           6754           5.00         2.62
  174.75        3342.75           6758           0.00         2.00
  174.77        3343.00           6761           6.00         6.97
  174.80        3343.25           6765           8.00        15.69
  174.83        3343.50           6769           6.00         6.97
  174.86        3343.75           6773           0.00         2.00
  174.88        3344.00           6776           7.00        11.33
  174.91        3344.25           6780           4.00         2.00
  174.94        3344.50           6784           4.00         2.00
  174.96        3344.75           6788           2.00         2.00
  174.99        3345.00           6791           5.00         2.62
  175.02        3345.25           6795           7.00        11.33
  175.05        3345.50           6799           3.00         2.00
  175.07        3345.75           6803           8.00        15.69
  175.10        3346.00           6806           8.00        15.69
  175.13        3346.25           6810           3.00         2.00
  175.15        3346.50           6814           5.00         2.62
  175.18        3346.75           6818           3.00         2.00
  175.21        3347.00           6821           6.00         6.97
  175.24        3347.25           6825           6.00         6.97
  175.26        3347.50           6829           6.00         6.97
  175.29        3347.75           6833           8.00        15.69
  175.32        3348.00           6836           4.00         2.00
  175.35        3348.25           6840           6.00         6.97
  175.37        3348.50           6844           3.00         2.00
  175.40        3348.75           6848           0.00         2.00
  175.43        3349.00           6851           3.00         2.00
  175.45        3349.25           6855           1.00         2.00
  175.48        3349.50           6859           8.00        15.69
  175.51        3349.75           6863           6.00         6.97
  175.53        3350.00           6867           2.00         2.00
  175.56        3350.25           6870           8.00        15.69
  175.59        3350.50           6874           0.00         2.00
  175.62        3350.75           6878           3.00         2.00
  175.64        3351.00           6882           1.00         2.00
HL scan finished at 02:56:16
end
