************************************************************
  HL Scan of (1) Internal mercury lamp
************************************************************
Integration time is 0.2294 seconds per sample
dh010617Tamanrasset 22.79-5.529 3.276626pr865
************************************************************
Dead Time -------------------------  2.8E-08 
Number of Cycles Used -------------  4 
Starting Wavelength (Angstroms) ---  3331 
Final Wavelength (Angstoms) -------  3351 
Wavelength Increment (Angstroms) --  .25 
Filter Wheel #1 Position ---------- (1) Ground quartz diffuser (ND=2.32)
Filter Wheel #2 Position ---------- (0) Clear Aperture



************************************************************
HL scan start time = 02:52:13
Dark Count =  6 


Time (GMT)  Wavelength (Ang)  Step Number  Raw Counts  Counts/Second

  172.73        3331.00           6581           7.00         4.36
  172.95        3331.25           6585           8.00         8.72
  172.97        3331.50           6589           7.00         4.36
  173.00        3331.75           6593           8.00         8.72
  173.03        3332.00           6596           6.00         2.00
  173.06        3332.25           6600           4.00         2.00
  173.08        3332.50           6604           6.00         2.00
  173.11        3332.75           6608           3.00         2.00
  173.14        3333.00           6611           5.00         2.00
  173.16        3333.25           6615           4.00         2.00
  173.19        3333.50           6619           7.00         4.36
  173.22        3333.75           6623           5.00         2.00
  173.25        3334.00           6626           7.00         4.36
  173.27        3334.25           6630           6.00         2.00
  173.30        3334.50           6634          10.00        17.44
  173.33        3334.75           6638           8.00         8.72
  173.35        3335.00           6641           7.00         4.36
  173.38        3335.25           6645           7.00         4.36
  173.41        3335.50           6649           6.00         2.00
  173.44        3335.75           6653           6.00         2.00
  173.46        3336.00           6656           4.00         2.00
  173.49        3336.25           6660           7.00         4.36
  173.52        3336.50           6664           2.00         2.00
  173.54        3336.75           6668           5.00         2.00
  173.57        3337.00           6671           4.00         2.00
  173.60        3337.25           6675           5.00         2.00
  173.63        3337.50           6679           8.00         8.72
  173.65        3337.75           6683           5.00         2.00
  173.68        3338.00           6686           5.00         2.00
  173.71        3338.25           6690           7.00         4.36
  173.73        3338.50           6694           5.00         2.00
  173.76        3338.75           6698           7.00         4.36
  173.79        3339.00           6701           4.00         2.00
  173.82        3339.25           6705           6.00         2.00
  173.84        3339.50           6709           4.00         2.00
  173.87        3339.75           6713           8.00         8.72
  173.90        3340.00           6716           6.00         2.00
  173.92        3340.25           6720           4.00         2.00
  173.95        3340.50           6724           4.00         2.00
  173.98        3340.75           6728           3.00         2.00
  174.01        3341.00           6731           6.00         2.00
  174.03        3341.25           6735           4.00         2.00
  174.06        3341.50           6739           8.00         8.72
  174.09        3341.75           6743           5.00         2.00
  174.11        3342.00           6746           6.00         2.00
  174.14        3342.25           6750           4.00         2.00
  174.17        3342.50           6754           9.00        13.08
  174.20        3342.75           6758           5.00         2.00
  174.22        3343.00           6761           5.00         2.00
  174.25        3343.25           6765           6.00         2.00
  174.28        3343.50           6769           6.00         2.00
  174.30        3343.75           6773           4.00         2.00
  174.33        3344.00           6776           9.00        13.08
  174.36        3344.25           6780           8.00         8.72
  174.39        3344.50           6784           6.00         2.00
  174.41        3344.75           6788           2.00         2.00
  174.44        3345.00           6791           6.00         2.00
  174.47        3345.25           6795           5.00         2.00
  174.49        3345.50           6799           8.00         8.72
  174.52        3345.75           6803           6.00         2.00
  174.55        3346.00           6806           5.00         2.00
  174.58        3346.25           6810           3.00         2.00
  174.60        3346.50           6814           2.00         2.00
  174.63        3346.75           6818           7.00         4.36
  174.66        3347.00           6821           5.00         2.00
  174.68        3347.25           6825           6.00         2.00
  174.71        3347.50           6829           5.00         2.00
  174.74        3347.75           6833           9.00        13.08
  174.77        3348.00           6836           7.00         4.36
  174.79        3348.25           6840           2.00         2.00
  174.82        3348.50           6844           6.00         2.00
  174.85        3348.75           6848           4.00         2.00
  174.87        3349.00           6851           8.00         8.72
  174.90        3349.25           6855           5.00         2.00
  174.93        3349.50           6859           7.00         4.36
  174.96        3349.75           6863           2.00         2.00
  174.98        3350.00           6867           8.00         8.72
  175.01        3350.25           6870           1.00         2.00
  175.04        3350.50           6874           3.00         2.00
  175.06        3350.75           6878           6.00         2.00
  175.09        3351.00           6882           6.00         2.00
HL scan finished at 02:55:43
end
