************************************************************
  HL Scan of (1) Internal mercury lamp
************************************************************
Integration time is 0.2294 seconds per sample
dh030617Tamanrasset 22.79-5.529 3.26643pr865
************************************************************
Dead Time -------------------------  2.8E-08 
Number of Cycles Used -------------  4 
Starting Wavelength (Angstroms) ---  3331 
Final Wavelength (Angstoms) -------  3351 
Wavelength Increment (Angstroms) --  .25 
Filter Wheel #1 Position ---------- (1) Ground quartz diffuser (ND=2.32)
Filter Wheel #2 Position ---------- (0) Clear Aperture



************************************************************
HL scan start time = 02:51:48
Dark Count =  5 


Time (GMT)  Wavelength (Ang)  Step Number  Raw Counts  Counts/Second

  172.31        3331.00           6581           6.00         4.36
  172.53        3331.25           6585           7.00         8.72
  172.56        3331.50           6589           3.00         2.00
  172.59        3331.75           6593           8.00        13.08
  172.61        3332.00           6596           6.00         4.36
  172.64        3332.25           6600           5.00         2.00
  172.67        3332.50           6604           6.00         4.36
  172.70        3332.75           6608           7.00         8.72
  172.72        3333.00           6611           7.00         8.72
  172.75        3333.25           6615           3.00         2.00
  172.78        3333.50           6619           1.00         2.00
  172.80        3333.75           6623           6.00         4.36
  172.83        3334.00           6626           5.00         2.00
  172.86        3334.25           6630           1.00         2.00
  172.89        3334.50           6634           8.00        13.08
  172.91        3334.75           6638           4.00         2.00
  172.94        3335.00           6641           5.00         2.00
  172.97        3335.25           6645           8.00        13.08
  173.00        3335.50           6649           6.00         4.36
  173.02        3335.75           6653           4.00         2.00
  173.05        3336.00           6656           2.00         2.00
  173.08        3336.25           6660           6.00         4.36
  173.10        3336.50           6664           7.00         8.72
  173.13        3336.75           6668           7.00         8.72
  173.16        3337.00           6671           8.00        13.08
  173.19        3337.25           6675           7.00         8.72
  173.21        3337.50           6679           6.00         4.36
  173.24        3337.75           6683           7.00         8.72
  173.27        3338.00           6686           6.00         4.36
  173.29        3338.25           6690           6.00         4.36
  173.32        3338.50           6694           4.00         2.00
  173.35        3338.75           6698           6.00         4.36
  173.38        3339.00           6701           3.00         2.00
  173.40        3339.25           6705           6.00         4.36
  173.43        3339.50           6709           5.00         2.00
  173.46        3339.75           6713           3.00         2.00
  173.48        3340.00           6716           6.00         4.36
  173.51        3340.25           6720           4.00         2.00
  173.54        3340.50           6724           8.00        13.08
  173.57        3340.75           6728           4.00         2.00
  173.59        3341.00           6731           7.00         8.72
  173.62        3341.25           6735           4.00         2.00
  173.65        3341.50           6739           4.00         2.00
  173.67        3341.75           6743           8.00        13.08
  173.70        3342.00           6746           9.00        17.44
  173.73        3342.25           6750           7.00         8.72
  173.76        3342.50           6754           6.00         4.36
  173.78        3342.75           6758           8.00        13.08
  173.81        3343.00           6761           4.00         2.00
  173.84        3343.25           6765           7.00         8.72
  173.86        3343.50           6769           4.00         2.00
  173.89        3343.75           6773           7.00         8.72
  173.92        3344.00           6776           6.00         4.36
  173.95        3344.25           6780           3.00         2.00
  173.97        3344.50           6784           2.00         2.00
  174.00        3344.75           6788           4.00         2.00
  174.03        3345.00           6791           4.00         2.00
  174.05        3345.25           6795           4.00         2.00
  174.08        3345.50           6799           7.00         8.72
  174.11        3345.75           6803           7.00         8.72
  174.14        3346.00           6806           5.00         2.00
  174.16        3346.25           6810           6.00         4.36
  174.19        3346.50           6814           6.00         4.36
  174.22        3346.75           6818           7.00         8.72
  174.24        3347.00           6821           8.00        13.08
  174.27        3347.25           6825           5.00         2.00
  174.30        3347.50           6829           4.00         2.00
  174.32        3347.75           6833           6.00         4.36
  174.35        3348.00           6836           7.00         8.72
  174.38        3348.25           6840           6.00         4.36
  174.41        3348.50           6844           5.00         2.00
  174.43        3348.75           6848           6.00         4.36
  174.46        3349.00           6851           9.00        17.44
  174.49        3349.25           6855           6.00         4.36
  174.51        3349.50           6859           8.00        13.08
  174.54        3349.75           6863           4.00         2.00
  174.57        3350.00           6867           8.00        13.08
  174.60        3350.25           6870           4.00         2.00
  174.62        3350.50           6874           4.00         2.00
  174.65        3350.75           6878           7.00         8.72
  174.68        3351.00           6882           4.00         2.00
HL scan finished at 02:55:18
end
