************************************************************
  HL Scan of (1) Internal mercury lamp
************************************************************
Integration time is 0.2294 seconds per sample
dh080617Tamanrasset 22.79-5.529 3.128775pr865
************************************************************
Dead Time -------------------------  2.8E-08 
Number of Cycles Used -------------  4 
Starting Wavelength (Angstroms) ---  3331 
Final Wavelength (Angstoms) -------  3351 
Wavelength Increment (Angstroms) --  .25 
Filter Wheel #1 Position ---------- (1) Ground quartz diffuser (ND=2.32)
Filter Wheel #2 Position ---------- (0) Clear Aperture



************************************************************
HL scan start time = 02:51:45
Dark Count =  3.4 


Time (GMT)  Wavelength (Ang)  Step Number  Raw Counts  Counts/Second

  172.27        3331.00           6581           8.00        20.05
  172.48        3331.25           6585           5.00         6.97
  172.51        3331.50           6589           3.00         2.00
  172.54        3331.75           6593           7.00        15.69
  172.56        3332.00           6596           7.00        15.69
  172.59        3332.25           6600           6.00        11.33
  172.62        3332.50           6604           6.00        11.33
  172.65        3332.75           6608           3.00         2.00
  172.67        3333.00           6611           0.00         2.00
  172.70        3333.25           6615           1.00         2.00
  172.73        3333.50           6619           3.00         2.00
  172.75        3333.75           6623           8.00        20.05
  172.78        3334.00           6626           4.00         2.62
  172.81        3334.25           6630           6.00        11.33
  172.84        3334.50           6634           7.00        15.69
  172.86        3334.75           6638           3.00         2.00
  172.89        3335.00           6641           3.00         2.00
  172.92        3335.25           6645           7.00        15.69
  172.94        3335.50           6649           6.00        11.33
  172.97        3335.75           6653           4.00         2.62
  173.00        3336.00           6656           1.00         2.00
  173.02        3336.25           6660           2.00         2.00
  173.05        3336.50           6664           3.00         2.00
  173.08        3336.75           6668           2.00         2.00
  173.11        3337.00           6671           3.00         2.00
  173.13        3337.25           6675           5.00         6.97
  173.16        3337.50           6679           1.00         2.00
  173.19        3337.75           6683           4.00         2.62
  173.21        3338.00           6686           5.00         6.97
  173.24        3338.25           6690           1.00         2.00
  173.27        3338.50           6694           4.00         2.62
  173.30        3338.75           6698           6.00        11.33
  173.32        3339.00           6701           3.00         2.00
  173.35        3339.25           6705           7.00        15.69
  173.38        3339.50           6709           4.00         2.62
  173.40        3339.75           6713           4.00         2.62
  173.43        3340.00           6716           4.00         2.62
  173.46        3340.25           6720           7.00        15.69
  173.49        3340.50           6724           6.00        11.33
  173.51        3340.75           6728           1.00         2.00
  173.54        3341.00           6731           4.00         2.62
  173.57        3341.25           6735           3.00         2.00
  173.59        3341.50           6739           4.00         2.62
  173.62        3341.75           6743           6.00        11.33
  173.65        3342.00           6746           7.00        15.69
  173.67        3342.25           6750           6.00        11.33
  173.70        3342.50           6754           9.00        24.41
  173.73        3342.75           6758           5.00         6.97
  173.76        3343.00           6761           6.00        11.33
  173.78        3343.25           6765           6.00        11.33
  173.81        3343.50           6769           4.00         2.62
  173.84        3343.75           6773           2.00         2.00
  173.86        3344.00           6776           6.00        11.33
  173.89        3344.25           6780           7.00        15.69
  173.92        3344.50           6784           3.00         2.00
  173.95        3344.75           6788           5.00         6.97
  173.97        3345.00           6791           5.00         6.97
  174.00        3345.25           6795           1.00         2.00
  174.03        3345.50           6799           6.00        11.33
  174.05        3345.75           6803           5.00         6.97
  174.08        3346.00           6806           1.00         2.00
  174.11        3346.25           6810           6.00        11.33
  174.14        3346.50           6814           6.00        11.33
  174.16        3346.75           6818           9.00        24.41
  174.19        3347.00           6821           6.00        11.33
  174.22        3347.25           6825           5.00         6.97
  174.24        3347.50           6829           4.00         2.62
  174.27        3347.75           6833           7.00        15.69
  174.30        3348.00           6836           6.00        11.33
  174.33        3348.25           6840           2.00         2.00
  174.35        3348.50           6844           7.00        15.69
  174.38        3348.75           6848           1.00         2.00
  174.41        3349.00           6851           4.00         2.62
  174.43        3349.25           6855           6.00        11.33
  174.46        3349.50           6859           3.00         2.00
  174.49        3349.75           6863           2.00         2.00
  174.52        3350.00           6867           2.00         2.00
  174.54        3350.25           6870           4.00         2.62
  174.57        3350.50           6874           3.00         2.00
  174.60        3350.75           6878           7.00        15.69
  174.62        3351.00           6882           8.00        20.05
HL scan finished at 02:55:15
end
