************************************************************
  HL Scan of (1) Internal mercury lamp
************************************************************
Integration time is 0.2294 seconds per sample
dh060617Tamanrasset 22.79-5.529 3.215446pr865
************************************************************
Dead Time -------------------------  2.8E-08 
Number of Cycles Used -------------  4 
Starting Wavelength (Angstroms) ---  3331 
Final Wavelength (Angstoms) -------  3351 
Wavelength Increment (Angstroms) --  .25 
Filter Wheel #1 Position ---------- (1) Ground quartz diffuser (ND=2.32)
Filter Wheel #2 Position ---------- (0) Clear Aperture



************************************************************
HL scan start time = 02:51:58
Dark Count =  5.2 


Time (GMT)  Wavelength (Ang)  Step Number  Raw Counts  Counts/Second

  172.48        3331.00           6581           5.00         2.00
  172.70        3331.25           6585           7.00         7.85
  172.73        3331.50           6589           8.00        12.21
  172.76        3331.75           6593           3.00         2.00
  172.78        3332.00           6596           5.00         2.00
  172.81        3332.25           6600           6.00         3.49
  172.84        3332.50           6604           3.00         2.00
  172.86        3332.75           6608           6.00         3.49
  172.89        3333.00           6611           2.00         2.00
  172.92        3333.25           6615           5.00         2.00
  172.94        3333.50           6619           5.00         2.00
  172.97        3333.75           6623           5.00         2.00
  173.00        3334.00           6626           7.00         7.85
  173.03        3334.25           6630           6.00         3.49
  173.05        3334.50           6634           7.00         7.85
  173.08        3334.75           6638           7.00         7.85
  173.11        3335.00           6641           7.00         7.85
  173.13        3335.25           6645           2.00         2.00
  173.16        3335.50           6649           4.00         2.00
  173.19        3335.75           6653           7.00         7.85
  173.22        3336.00           6656           5.00         2.00
  173.24        3336.25           6660           5.00         2.00
  173.27        3336.50           6664           3.00         2.00
  173.30        3336.75           6668           6.00         3.49
  173.32        3337.00           6671           7.00         7.85
  173.35        3337.25           6675           4.00         2.00
  173.38        3337.50           6679           4.00         2.00
  173.41        3337.75           6683           3.00         2.00
  173.43        3338.00           6686           3.00         2.00
  173.46        3338.25           6690           8.00        12.21
  173.49        3338.50           6694           9.00        16.56
  173.51        3338.75           6698           8.00        12.21
  173.54        3339.00           6701           4.00         2.00
  173.57        3339.25           6705           3.00         2.00
  173.60        3339.50           6709           3.00         2.00
  173.62        3339.75           6713           7.00         7.85
  173.65        3340.00           6716           5.00         2.00
  173.68        3340.25           6720           6.00         3.49
  173.70        3340.50           6724           8.00        12.21
  173.73        3340.75           6728           4.00         2.00
  173.76        3341.00           6731           7.00         7.85
  173.79        3341.25           6735           8.00        12.21
  173.81        3341.50           6739           8.00        12.21
  173.84        3341.75           6743           2.00         2.00
  173.87        3342.00           6746           6.00         3.49
  173.89        3342.25           6750           5.00         2.00
  173.92        3342.50           6754           2.00         2.00
  173.95        3342.75           6758           7.00         7.85
  173.98        3343.00           6761           8.00        12.21
  174.00        3343.25           6765           7.00         7.85
  174.03        3343.50           6769           3.00         2.00
  174.06        3343.75           6773           1.00         2.00
  174.08        3344.00           6776           6.00         3.49
  174.11        3344.25           6780           4.00         2.00
  174.14        3344.50           6784           3.00         2.00
  174.17        3344.75           6788           5.00         2.00
  174.19        3345.00           6791           5.00         2.00
  174.22        3345.25           6795           8.00        12.21
  174.25        3345.50           6799           2.00         2.00
  174.27        3345.75           6803           4.00         2.00
  174.30        3346.00           6806           8.00        12.21
  174.33        3346.25           6810           8.00        12.21
  174.36        3346.50           6814           6.00         3.49
  174.38        3346.75           6818           6.00         3.49
  174.41        3347.00           6821           0.00         2.00
  174.44        3347.25           6825           7.00         7.85
  174.46        3347.50           6829           7.00         7.85
  174.49        3347.75           6833           4.00         2.00
  174.52        3348.00           6836           7.00         7.85
  174.55        3348.25           6840           5.00         2.00
  174.57        3348.50           6844           7.00         7.85
  174.60        3348.75           6848           0.00         2.00
  174.63        3349.00           6851           4.00         2.00
  174.65        3349.25           6855           6.00         3.49
  174.68        3349.50           6859           5.00         2.00
  174.71        3349.75           6863           5.00         2.00
  174.73        3350.00           6867           6.00         3.49
  174.76        3350.25           6870           6.00         3.49
  174.79        3350.50           6874           8.00        12.21
  174.82        3350.75           6878           8.00        12.21
  174.84        3351.00           6882           6.00         3.49
HL scan finished at 02:55:28
end
