************************************************************
  HL Scan of (1) Internal mercury lamp
************************************************************
Integration time is 0.2294 seconds per sample
dh020617Tamanrasset 22.79-5.529 3.388789pr865
************************************************************
Dead Time -------------------------  2.8E-08 
Number of Cycles Used -------------  4 
Starting Wavelength (Angstroms) ---  3331 
Final Wavelength (Angstoms) -------  3351 
Wavelength Increment (Angstroms) --  .25 
Filter Wheel #1 Position ---------- (1) Ground quartz diffuser (ND=2.32)
Filter Wheel #2 Position ---------- (0) Clear Aperture



************************************************************
HL scan start time = 02:52:13
Dark Count =  6.4 


Time (GMT)  Wavelength (Ang)  Step Number  Raw Counts  Counts/Second

  172.72        3331.00           6581           7.00         2.62
  172.94        3331.25           6585           6.00         2.00
  172.97        3331.50           6589           7.00         2.62
  172.99        3331.75           6593           8.00         6.97
  173.02        3332.00           6596           5.00         2.00
  173.05        3332.25           6600           4.00         2.00
  173.08        3332.50           6604           8.00         6.97
  173.10        3332.75           6608          11.00        20.05
  173.13        3333.00           6611           6.00         2.00
  173.16        3333.25           6615           7.00         2.62
  173.18        3333.50           6619           7.00         2.62
  173.21        3333.75           6623           5.00         2.00
  173.24        3334.00           6626           8.00         6.97
  173.27        3334.25           6630           4.00         2.00
  173.29        3334.50           6634           6.00         2.00
  173.32        3334.75           6638           7.00         2.62
  173.35        3335.00           6641           6.00         2.00
  173.37        3335.25           6645           6.00         2.00
  173.40        3335.50           6649           5.00         2.00
  173.43        3335.75           6653           6.00         2.00
  173.46        3336.00           6656           8.00         6.97
  173.48        3336.25           6660           7.00         2.62
  173.51        3336.50           6664           6.00         2.00
  173.54        3336.75           6668           1.00         2.00
  173.56        3337.00           6671           8.00         6.97
  173.59        3337.25           6675           8.00         6.97
  173.62        3337.50           6679           7.00         2.62
  173.65        3337.75           6683           3.00         2.00
  173.67        3338.00           6686           4.00         2.00
  173.70        3338.25           6690           7.00         2.62
  173.73        3338.50           6694           6.00         2.00
  173.75        3338.75           6698           6.00         2.00
  173.78        3339.00           6701           5.00         2.00
  173.81        3339.25           6705           5.00         2.00
  173.84        3339.50           6709           6.00         2.00
  173.86        3339.75           6713           5.00         2.00
  173.89        3340.00           6716           3.00         2.00
  173.92        3340.25           6720           5.00         2.00
  173.94        3340.50           6724           6.00         2.00
  173.97        3340.75           6728           4.00         2.00
  174.00        3341.00           6731           5.00         2.00
  174.03        3341.25           6735           8.00         6.97
  174.05        3341.50           6739           7.00         2.62
  174.08        3341.75           6743           3.00         2.00
  174.11        3342.00           6746           9.00        11.33
  174.13        3342.25           6750           6.00         2.00
  174.16        3342.50           6754           5.00         2.00
  174.19        3342.75           6758           7.00         2.62
  174.22        3343.00           6761           6.00         2.00
  174.24        3343.25           6765           7.00         2.62
  174.27        3343.50           6769           8.00         6.97
  174.30        3343.75           6773           6.00         2.00
  174.32        3344.00           6776           7.00         2.62
  174.35        3344.25           6780           6.00         2.00
  174.38        3344.50           6784           5.00         2.00
  174.41        3344.75           6788           7.00         2.62
  174.43        3345.00           6791           8.00         6.97
  174.46        3345.25           6795           6.00         2.00
  174.49        3345.50           6799           9.00        11.33
  174.51        3345.75           6803           6.00         2.00
  174.54        3346.00           6806           8.00         6.97
  174.57        3346.25           6810           5.00         2.00
  174.60        3346.50           6814           7.00         2.62
  174.62        3346.75           6818           6.00         2.00
  174.65        3347.00           6821           8.00         6.97
  174.68        3347.25           6825           8.00         6.97
  174.70        3347.50           6829           7.00         2.62
  174.73        3347.75           6833           7.00         2.62
  174.76        3348.00           6836           7.00         2.62
  174.79        3348.25           6840           7.00         2.62
  174.81        3348.50           6844           4.00         2.00
  174.84        3348.75           6848           9.00        11.33
  174.87        3349.00           6851           5.00         2.00
  174.89        3349.25           6855           6.00         2.00
  174.92        3349.50           6859           6.00         2.00
  174.95        3349.75           6863           8.00         6.97
  174.98        3350.00           6867           6.00         2.00
  175.00        3350.25           6870           9.00        11.33
  175.03        3350.50           6874           5.00         2.00
  175.06        3350.75           6878           7.00         2.62
  175.08        3351.00           6882           7.00         2.62
HL scan finished at 02:55:43
end
