************************************************************
  HL Scan of (1) Internal mercury lamp
************************************************************
Integration time is 0.2294 seconds per sample
dh050617Tamanrasset 22.79-5.529 3.215446pr865
************************************************************
Dead Time -------------------------  2.8E-08 
Number of Cycles Used -------------  4 
Starting Wavelength (Angstroms) ---  3331 
Final Wavelength (Angstoms) -------  3351 
Wavelength Increment (Angstroms) --  .25 
Filter Wheel #1 Position ---------- (1) Ground quartz diffuser (ND=2.32)
Filter Wheel #2 Position ---------- (0) Clear Aperture



************************************************************
HL scan start time = 02:51:46
Dark Count =  4.4 


Time (GMT)  Wavelength (Ang)  Step Number  Raw Counts  Counts/Second

  172.28        3331.00           6581           5.00         2.62
  172.50        3331.25           6585           8.00        15.69
  172.53        3331.50           6589           7.00        11.33
  172.56        3331.75           6593           8.00        15.69
  172.58        3332.00           6596           3.00         2.00
  172.61        3332.25           6600           5.00         2.62
  172.64        3332.50           6604           4.00         2.00
  172.66        3332.75           6608           3.00         2.00
  172.69        3333.00           6611           4.00         2.00
  172.72        3333.25           6615           4.00         2.00
  172.75        3333.50           6619           6.00         6.97
  172.77        3333.75           6623           6.00         6.97
  172.80        3334.00           6626           4.00         2.00
  172.83        3334.25           6630           6.00         6.97
  172.85        3334.50           6634           6.00         6.97
  172.88        3334.75           6638           7.00        11.33
  172.91        3335.00           6641           2.00         2.00
  172.94        3335.25           6645           3.00         2.00
  172.96        3335.50           6649           4.00         2.00
  172.99        3335.75           6653           2.00         2.00
  173.02        3336.00           6656           7.00        11.33
  173.04        3336.25           6660           8.00        15.69
  173.07        3336.50           6664           7.00        11.33
  173.10        3336.75           6668           4.00         2.00
  173.13        3337.00           6671           8.00        15.69
  173.15        3337.25           6675           8.00        15.69
  173.18        3337.50           6679           3.00         2.00
  173.21        3337.75           6683           7.00        11.33
  173.23        3338.00           6686           5.00         2.62
  173.26        3338.25           6690           4.00         2.00
  173.29        3338.50           6694           3.00         2.00
  173.32        3338.75           6698           4.00         2.00
  173.34        3339.00           6701           3.00         2.00
  173.37        3339.25           6705           8.00        15.69
  173.40        3339.50           6709           6.00         6.97
  173.42        3339.75           6713           8.00        15.69
  173.45        3340.00           6716           8.00        15.69
  173.48        3340.25           6720           7.00        11.33
  173.50        3340.50           6724           5.00         2.62
  173.53        3340.75           6728           5.00         2.62
  173.56        3341.00           6731           5.00         2.62
  173.59        3341.25           6735           7.00        11.33
  173.61        3341.50           6739           6.00         6.97
  173.64        3341.75           6743           0.00         2.00
  173.67        3342.00           6746           7.00        11.33
  173.69        3342.25           6750           7.00        11.33
  173.72        3342.50           6754           5.00         2.62
  173.75        3342.75           6758           4.00         2.00
  173.78        3343.00           6761           5.00         2.62
  173.80        3343.25           6765           5.00         2.62
  173.83        3343.50           6769           7.00        11.33
  173.86        3343.75           6773           5.00         2.62
  173.88        3344.00           6776           7.00        11.33
  173.91        3344.25           6780           8.00        15.69
  173.94        3344.50           6784           6.00         6.97
  173.97        3344.75           6788           7.00        11.33
  173.99        3345.00           6791           6.00         6.97
  174.02        3345.25           6795           7.00        11.33
  174.05        3345.50           6799           5.00         2.62
  174.07        3345.75           6803           2.00         2.00
  174.10        3346.00           6806           5.00         2.62
  174.13        3346.25           6810           3.00         2.00
  174.16        3346.50           6814           5.00         2.62
  174.18        3346.75           6818           6.00         6.97
  174.21        3347.00           6821           7.00        11.33
  174.24        3347.25           6825           4.00         2.00
  174.26        3347.50           6829           5.00         2.62
  174.29        3347.75           6833           6.00         6.97
  174.32        3348.00           6836           6.00         6.97
  174.35        3348.25           6840           8.00        15.69
  174.37        3348.50           6844           5.00         2.62
  174.40        3348.75           6848           7.00        11.33
  174.43        3349.00           6851           3.00         2.00
  174.45        3349.25           6855           5.00         2.62
  174.48        3349.50           6859           4.00         2.00
  174.51        3349.75           6863           8.00        15.69
  174.54        3350.00           6867           5.00         2.62
  174.56        3350.25           6870           5.00         2.62
  174.59        3350.50           6874           6.00         6.97
  174.62        3350.75           6878           5.00         2.62
  174.64        3351.00           6882           6.00         6.97
HL scan finished at 02:55:16
end
