************************************************************
  HL Scan of (1) Internal mercury lamp
************************************************************
Integration time is 0.2294 seconds per sample
dh300517Tamanrasset 22.79-5.529 3.154266pr865
************************************************************
Dead Time -------------------------  2.8E-08 
Number of Cycles Used -------------  4 
Starting Wavelength (Angstroms) ---  3331 
Final Wavelength (Angstoms) -------  3351 
Wavelength Increment (Angstroms) --  .25 
Filter Wheel #1 Position ---------- (1) Ground quartz diffuser (ND=2.32)
Filter Wheel #2 Position ---------- (0) Clear Aperture



************************************************************
HL scan start time = 02:52:46
Dark Count =  6.4 


Time (GMT)  Wavelength (Ang)  Step Number  Raw Counts  Counts/Second

  173.27        3331.00           6581           3.00         2.00
  173.49        3331.25           6585           5.00         2.00
  173.52        3331.50           6589           3.00         2.00
  173.55        3331.75           6593           4.00         2.00
  173.57        3332.00           6596           4.00         2.00
  173.60        3332.25           6600           4.00         2.00
  173.63        3332.50           6604           8.00         6.97
  173.66        3332.75           6608           7.00         2.62
  173.68        3333.00           6611           7.00         2.62
  173.71        3333.25           6615           4.00         2.00
  173.74        3333.50           6619           5.00         2.00
  173.76        3333.75           6623           8.00         6.97
  173.79        3334.00           6626           5.00         2.00
  173.82        3334.25           6630           6.00         2.00
  173.85        3334.50           6634           8.00         6.97
  173.87        3334.75           6638           7.00         2.62
  173.90        3335.00           6641           7.00         2.62
  173.93        3335.25           6645           0.00         2.00
  173.95        3335.50           6649           7.00         2.62
  173.98        3335.75           6653           2.00         2.00
  174.01        3336.00           6656           6.00         2.00
  174.04        3336.25           6660           5.00         2.00
  174.06        3336.50           6664           7.00         2.62
  174.09        3336.75           6668           5.00         2.00
  174.12        3337.00           6671           7.00         2.62
  174.14        3337.25           6675           7.00         2.62
  174.17        3337.50           6679           9.00        11.33
  174.20        3337.75           6683           4.00         2.00
  174.23        3338.00           6686           4.00         2.00
  174.25        3338.25           6690           6.00         2.00
  174.28        3338.50           6694           0.00         2.00
  174.31        3338.75           6698           5.00         2.00
  174.33        3339.00           6701           1.00         2.00
  174.36        3339.25           6705           5.00         2.00
  174.39        3339.50           6709           8.00         6.97
  174.42        3339.75           6713           7.00         2.62
  174.44        3340.00           6716           2.00         2.00
  174.47        3340.25           6720           5.00         2.00
  174.50        3340.50           6724           4.00         2.00
  174.53        3340.75           6728           2.00         2.00
  174.55        3341.00           6731           6.00         2.00
  174.58        3341.25           6735           6.00         2.00
  174.61        3341.50           6739           5.00         2.00
  174.63        3341.75           6743           9.00        11.33
  174.66        3342.00           6746           4.00         2.00
  174.69        3342.25           6750           6.00         2.00
  174.71        3342.50           6754           5.00         2.00
  174.74        3342.75           6758           6.00         2.00
  174.77        3343.00           6761           4.00         2.00
  174.80        3343.25           6765           4.00         2.00
  174.82        3343.50           6769           6.00         2.00
  174.85        3343.75           6773           8.00         6.97
  174.88        3344.00           6776           7.00         2.62
  174.90        3344.25           6780           7.00         2.62
  174.93        3344.50           6784           7.00         2.62
  174.96        3344.75           6788           6.00         2.00
  174.99        3345.00           6791           3.00         2.00
  175.01        3345.25           6795           2.00         2.00
  175.04        3345.50           6799           4.00         2.00
  175.07        3345.75           6803           3.00         2.00
  175.09        3346.00           6806           6.00         2.00
  175.12        3346.25           6810           3.00         2.00
  175.15        3346.50           6814           4.00         2.00
  175.18        3346.75           6818           5.00         2.00
  175.20        3347.00           6821           5.00         2.00
  175.23        3347.25           6825           4.00         2.00
  175.26        3347.50           6829           7.00         2.62
  175.28        3347.75           6833           3.00         2.00
  175.31        3348.00           6836           2.00         2.00
  175.34        3348.25           6840           6.00         2.00
  175.37        3348.50           6844           8.00         6.97
  175.39        3348.75           6848           3.00         2.00
  175.42        3349.00           6851           4.00         2.00
  175.45        3349.25           6855           4.00         2.00
  175.47        3349.50           6859           6.00         2.00
  175.50        3349.75           6863           5.00         2.00
  175.53        3350.00           6867           6.00         2.00
  175.56        3350.25           6870           4.00         2.00
  175.58        3350.50           6874           8.00         6.97
  175.61        3350.75           6878           1.00         2.00
  175.64        3351.00           6882           2.00         2.00
HL scan finished at 02:56:16
end
