************************************************************
  HL Scan of (1) Internal mercury lamp
************************************************************
Integration time is 0.2294 seconds per sample
dh070617Tamanrasset 22.79-5.529 3.220544pr865
************************************************************
Dead Time -------------------------  2.8E-08 
Number of Cycles Used -------------  4 
Starting Wavelength (Angstroms) ---  3331 
Final Wavelength (Angstoms) -------  3351 
Wavelength Increment (Angstroms) --  .25 
Filter Wheel #1 Position ---------- (1) Ground quartz diffuser (ND=2.32)
Filter Wheel #2 Position ---------- (0) Clear Aperture



************************************************************
HL scan start time = 02:51:48
Dark Count =  5.7 


Time (GMT)  Wavelength (Ang)  Step Number  Raw Counts  Counts/Second

  172.31        3331.00           6581           6.00         2.00
  172.53        3331.25           6585           3.00         2.00
  172.55        3331.50           6589           2.00         2.00
  172.58        3331.75           6593           4.00         2.00
  172.61        3332.00           6596           5.00         2.00
  172.64        3332.25           6600           7.00         5.67
  172.66        3332.50           6604           6.00         2.00
  172.69        3332.75           6608           7.00         5.67
  172.72        3333.00           6611           6.00         2.00
  172.74        3333.25           6615           7.00         5.67
  172.77        3333.50           6619           2.00         2.00
  172.80        3333.75           6623           2.00         2.00
  172.82        3334.00           6626           5.00         2.00
  172.85        3334.25           6630           6.00         2.00
  172.88        3334.50           6634           4.00         2.00
  172.91        3334.75           6638           8.00        10.03
  172.93        3335.00           6641           2.00         2.00
  172.96        3335.25           6645           2.00         2.00
  172.99        3335.50           6649           4.00         2.00
  173.02        3335.75           6653           5.00         2.00
  173.04        3336.00           6656           4.00         2.00
  173.07        3336.25           6660           8.00        10.03
  173.10        3336.50           6664           7.00         5.67
  173.12        3336.75           6668           7.00         5.67
  173.15        3337.00           6671           2.00         2.00
  173.18        3337.25           6675           4.00         2.00
  173.21        3337.50           6679           8.00        10.03
  173.23        3337.75           6683           3.00         2.00
  173.26        3338.00           6686           5.00         2.00
  173.29        3338.25           6690           3.00         2.00
  173.31        3338.50           6694           8.00        10.03
  173.34        3338.75           6698           6.00         2.00
  173.37        3339.00           6701           3.00         2.00
  173.39        3339.25           6705           7.00         5.67
  173.42        3339.50           6709           6.00         2.00
  173.45        3339.75           6713           5.00         2.00
  173.48        3340.00           6716           9.00        14.39
  173.50        3340.25           6720           9.00        14.39
  173.53        3340.50           6724           4.00         2.00
  173.56        3340.75           6728           5.00         2.00
  173.58        3341.00           6731           2.00         2.00
  173.61        3341.25           6735           3.00         2.00
  173.64        3341.50           6739           6.00         2.00
  173.67        3341.75           6743           6.00         2.00
  173.69        3342.00           6746           7.00         5.67
  173.72        3342.25           6750           5.00         2.00
  173.75        3342.50           6754           7.00         5.67
  173.77        3342.75           6758           3.00         2.00
  173.80        3343.00           6761           6.00         2.00
  173.83        3343.25           6765           3.00         2.00
  173.86        3343.50           6769           3.00         2.00
  173.88        3343.75           6773           6.00         2.00
  173.91        3344.00           6776           6.00         2.00
  173.94        3344.25           6780           6.00         2.00
  173.96        3344.50           6784           5.00         2.00
  173.99        3344.75           6788           6.00         2.00
  174.02        3345.00           6791           5.00         2.00
  174.05        3345.25           6795           2.00         2.00
  174.07        3345.50           6799           6.00         2.00
  174.10        3345.75           6803           5.00         2.00
  174.13        3346.00           6806           3.00         2.00
  174.15        3346.25           6810           8.00        10.03
  174.18        3346.50           6814           8.00        10.03
  174.21        3346.75           6818           5.00         2.00
  174.24        3347.00           6821           4.00         2.00
  174.26        3347.25           6825           3.00         2.00
  174.29        3347.50           6829           4.00         2.00
  174.32        3347.75           6833           6.00         2.00
  174.34        3348.00           6836           3.00         2.00
  174.37        3348.25           6840           5.00         2.00
  174.40        3348.50           6844           5.00         2.00
  174.43        3348.75           6848           7.00         5.67
  174.45        3349.00           6851           5.00         2.00
  174.48        3349.25           6855           8.00        10.03
  174.51        3349.50           6859           5.00         2.00
  174.53        3349.75           6863           2.00         2.00
  174.56        3350.00           6867           7.00         5.67
  174.59        3350.25           6870           4.00         2.00
  174.61        3350.50           6874           5.00         2.00
  174.64        3350.75           6878           7.00         5.67
  174.67        3351.00           6882           7.00         5.67
HL scan finished at 02:55:17
end
