************************************************************
  HL Scan of (1) Internal mercury lamp
************************************************************
Integration time is 0.2294 seconds per sample
dh170617Tamanrasset 22.79-5.529 3.042104pr865
************************************************************
Dead Time -------------------------  2.8E-08 
Number of Cycles Used -------------  4 
Starting Wavelength (Angstroms) ---  3331 
Final Wavelength (Angstoms) -------  3351 
Wavelength Increment (Angstroms) --  .25 
Filter Wheel #1 Position ---------- (1) Ground quartz diffuser (ND=2.32)
Filter Wheel #2 Position ---------- (0) Clear Aperture



************************************************************
HL scan start time = 02:52:46
Dark Count =  4.7 


Time (GMT)  Wavelength (Ang)  Step Number  Raw Counts  Counts/Second

  173.27        3331.00           6581           6.00         5.67
  173.49        3331.25           6585           6.00         5.67
  173.52        3331.50           6589           3.00         2.00
  173.54        3331.75           6593           6.00         5.67
  173.57        3332.00           6596           7.00        10.03
  173.60        3332.25           6600           0.00         2.00
  173.62        3332.50           6604           4.00         2.00
  173.65        3332.75           6608           1.00         2.00
  173.68        3333.00           6611           0.00         2.00
  173.71        3333.25           6615           1.00         2.00
  173.73        3333.50           6619           2.00         2.00
  173.76        3333.75           6623           1.00         2.00
  173.79        3334.00           6626           5.00         2.00
  173.81        3334.25           6630           0.00         2.00
  173.84        3334.50           6634           2.00         2.00
  173.87        3334.75           6638           7.00        10.03
  173.90        3335.00           6641           4.00         2.00
  173.92        3335.25           6645           7.00        10.03
  173.95        3335.50           6649           8.00        14.39
  173.98        3335.75           6653           8.00        14.39
  174.00        3336.00           6656           3.00         2.00
  174.03        3336.25           6660           6.00         5.67
  174.06        3336.50           6664           4.00         2.00
  174.09        3336.75           6668           3.00         2.00
  174.11        3337.00           6671           8.00        14.39
  174.14        3337.25           6675           3.00         2.00
  174.17        3337.50           6679           6.00         5.67
  174.19        3337.75           6683           6.00         5.67
  174.22        3338.00           6686           8.00        14.39
  174.25        3338.25           6690           8.00        14.39
  174.28        3338.50           6694           6.00         5.67
  174.30        3338.75           6698           3.00         2.00
  174.33        3339.00           6701           1.00         2.00
  174.36        3339.25           6705           1.00         2.00
  174.38        3339.50           6709           2.00         2.00
  174.41        3339.75           6713           7.00        10.03
  174.44        3340.00           6716           6.00         5.67
  174.47        3340.25           6720           7.00        10.03
  174.49        3340.50           6724           5.00         2.00
  174.52        3340.75           6728           0.00         2.00
  174.55        3341.00           6731           3.00         2.00
  174.57        3341.25           6735           6.00         5.67
  174.60        3341.50           6739           7.00        10.03
  174.63        3341.75           6743           7.00        10.03
  174.66        3342.00           6746           8.00        14.39
  174.68        3342.25           6750           2.00         2.00
  174.71        3342.50           6754           8.00        14.39
  174.74        3342.75           6758           6.00         5.67
  174.76        3343.00           6761           8.00        14.39
  174.79        3343.25           6765           5.00         2.00
  174.82        3343.50           6769           7.00        10.03
  174.85        3343.75           6773           2.00         2.00
  174.87        3344.00           6776           5.00         2.00
  174.90        3344.25           6780           4.00         2.00
  174.93        3344.50           6784           5.00         2.00
  174.95        3344.75           6788           5.00         2.00
  174.98        3345.00           6791           6.00         5.67
  175.01        3345.25           6795           3.00         2.00
  175.03        3345.50           6799           0.00         2.00
  175.06        3345.75           6803           2.00         2.00
  175.09        3346.00           6806           1.00         2.00
  175.12        3346.25           6810           7.00        10.03
  175.14        3346.50           6814           0.00         2.00
  175.17        3346.75           6818           8.00        14.39
  175.20        3347.00           6821           7.00        10.03
  175.22        3347.25           6825           3.00         2.00
  175.25        3347.50           6829           0.00         2.00
  175.28        3347.75           6833           7.00        10.03
  175.31        3348.00           6836           0.00         2.00
  175.33        3348.25           6840           8.00        14.39
  175.36        3348.50           6844           6.00         5.67
  175.39        3348.75           6848           6.00         5.67
  175.41        3349.00           6851           7.00        10.03
  175.44        3349.25           6855           2.00         2.00
  175.47        3349.50           6859           8.00        14.39
  175.50        3349.75           6863           0.00         2.00
  175.52        3350.00           6867           6.00         5.67
  175.55        3350.25           6870           2.00         2.00
  175.58        3350.50           6874           6.00         5.67
  175.60        3350.75           6878           5.00         2.00
  175.63        3351.00           6882           8.00        14.39
HL scan finished at 02:56:15
end
