************************************************************
  HL Scan of (1) Internal mercury lamp
************************************************************
Integration time is 0.2294 seconds per sample
dh110617Tamanrasset 22.79-5.529 3.358199pr865
************************************************************
Dead Time -------------------------  2.8E-08 
Number of Cycles Used -------------  4 
Starting Wavelength (Angstroms) ---  3331 
Final Wavelength (Angstoms) -------  3351 
Wavelength Increment (Angstroms) --  .25 
Filter Wheel #1 Position ---------- (1) Ground quartz diffuser (ND=2.32)
Filter Wheel #2 Position ---------- (0) Clear Aperture



************************************************************
HL scan start time = 02:51:53
Dark Count =  6.1 


Time (GMT)  Wavelength (Ang)  Step Number  Raw Counts  Counts/Second

  172.39        3331.00           6581           5.00         2.00
  172.61        3331.25           6585           8.00         8.28
  172.63        3331.50           6589           5.00         2.00
  172.66        3331.75           6593           3.00         2.00
  172.69        3332.00           6596           7.00         3.92
  172.72        3332.25           6600           6.00         2.00
  172.74        3332.50           6604           6.00         2.00
  172.77        3332.75           6608           8.00         8.28
  172.80        3333.00           6611           5.00         2.00
  172.82        3333.25           6615           4.00         2.00
  172.85        3333.50           6619           8.00         8.28
  172.88        3333.75           6623           4.00         2.00
  172.90        3334.00           6626           5.00         2.00
  172.93        3334.25           6630           5.00         2.00
  172.96        3334.50           6634           7.00         3.92
  172.99        3334.75           6638           5.00         2.00
  173.01        3335.00           6641           6.00         2.00
  173.04        3335.25           6645           5.00         2.00
  173.07        3335.50           6649           6.00         2.00
  173.09        3335.75           6653           4.00         2.00
  173.12        3336.00           6656           6.00         2.00
  173.15        3336.25           6660           6.00         2.00
  173.18        3336.50           6664           7.00         3.92
  173.20        3336.75           6668           7.00         3.92
  173.23        3337.00           6671           4.00         2.00
  173.26        3337.25           6675           7.00         3.92
  173.28        3337.50           6679           6.00         2.00
  173.31        3337.75           6683           7.00         3.92
  173.34        3338.00           6686           5.00         2.00
  173.37        3338.25           6690           6.00         2.00
  173.39        3338.50           6694           9.00        12.64
  173.42        3338.75           6698           4.00         2.00
  173.45        3339.00           6701           6.00         2.00
  173.47        3339.25           6705           7.00         3.92
  173.50        3339.50           6709           6.00         2.00
  173.53        3339.75           6713           8.00         8.28
  173.56        3340.00           6716           5.00         2.00
  173.58        3340.25           6720           7.00         3.92
  173.61        3340.50           6724           6.00         2.00
  173.64        3340.75           6728           6.00         2.00
  173.66        3341.00           6731           8.00         8.28
  173.69        3341.25           6735           5.00         2.00
  173.72        3341.50           6739           6.00         2.00
  173.75        3341.75           6743          10.00        17.00
  173.77        3342.00           6746           7.00         3.92
  173.80        3342.25           6750           7.00         3.92
  173.83        3342.50           6754           6.00         2.00
  173.85        3342.75           6758           4.00         2.00
  173.88        3343.00           6761           5.00         2.00
  173.91        3343.25           6765           5.00         2.00
  173.94        3343.50           6769           6.00         2.00
  173.96        3343.75           6773           8.00         8.28
  173.99        3344.00           6776           6.00         2.00
  174.02        3344.25           6780           5.00         2.00
  174.04        3344.50           6784           6.00         2.00
  174.07        3344.75           6788           4.00         2.00
  174.10        3345.00           6791           6.00         2.00
  174.13        3345.25           6795           9.00        12.64
  174.15        3345.50           6799           7.00         3.92
  174.18        3345.75           6803           5.00         2.00
  174.21        3346.00           6806           2.00         2.00
  174.23        3346.25           6810           7.00         3.92
  174.26        3346.50           6814           6.00         2.00
  174.29        3346.75           6818           9.00        12.64
  174.31        3347.00           6821           5.00         2.00
  174.34        3347.25           6825           6.00         2.00
  174.37        3347.50           6829           7.00         3.92
  174.40        3347.75           6833           3.00         2.00
  174.42        3348.00           6836           7.00         3.92
  174.45        3348.25           6840           6.00         2.00
  174.48        3348.50           6844           7.00         3.92
  174.51        3348.75           6848           5.00         2.00
  174.53        3349.00           6851           6.00         2.00
  174.56        3349.25           6855           8.00         8.28
  174.59        3349.50           6859           7.00         3.92
  174.61        3349.75           6863           2.00         2.00
  174.64        3350.00           6867           5.00         2.00
  174.67        3350.25           6870           6.00         2.00
  174.70        3350.50           6874           8.00         8.28
  174.72        3350.75           6878           2.00         2.00
  174.75        3351.00           6882           7.00         3.92
HL scan finished at 02:55:22
end
