************************************************************
  HL Scan of (1) Internal mercury lamp
************************************************************
Integration time is 0.2294 seconds per sample
dh180617Tamanrasset 22.79-5.529 3.297019pr865
************************************************************
Dead Time -------------------------  2.8E-08 
Number of Cycles Used -------------  4 
Starting Wavelength (Angstroms) ---  3331 
Final Wavelength (Angstoms) -------  3351 
Wavelength Increment (Angstroms) --  .25 
Filter Wheel #1 Position ---------- (1) Ground quartz diffuser (ND=2.32)
Filter Wheel #2 Position ---------- (0) Clear Aperture



************************************************************
HL scan start time = 02:52:41
Dark Count =  6.4 


Time (GMT)  Wavelength (Ang)  Step Number  Raw Counts  Counts/Second

  173.20        3331.00           6581           5.00         2.00
  173.41        3331.25           6585           5.00         2.00
  173.44        3331.50           6589           5.00         2.00
  173.47        3331.75           6593           7.00         2.62
  173.50        3332.00           6596           8.00         6.97
  173.52        3332.25           6600           5.00         2.00
  173.55        3332.50           6604           2.00         2.00
  173.58        3332.75           6608           8.00         6.97
  173.60        3333.00           6611           5.00         2.00
  173.63        3333.25           6615           5.00         2.00
  173.66        3333.50           6619           7.00         2.62
  173.69        3333.75           6623           3.00         2.00
  173.71        3334.00           6626           5.00         2.00
  173.74        3334.25           6630           6.00         2.00
  173.77        3334.50           6634           1.00         2.00
  173.79        3334.75           6638           5.00         2.00
  173.82        3335.00           6641           1.00         2.00
  173.85        3335.25           6645           7.00         2.62
  173.88        3335.50           6649           6.00         2.00
  173.90        3335.75           6653           6.00         2.00
  173.93        3336.00           6656           2.00         2.00
  173.96        3336.25           6660           0.00         2.00
  173.98        3336.50           6664           4.00         2.00
  174.01        3336.75           6668           3.00         2.00
  174.04        3337.00           6671           3.00         2.00
  174.06        3337.25           6675           4.00         2.00
  174.09        3337.50           6679           6.00         2.00
  174.12        3337.75           6683           7.00         2.62
  174.15        3338.00           6686           5.00         2.00
  174.17        3338.25           6690           6.00         2.00
  174.20        3338.50           6694           4.00         2.00
  174.23        3338.75           6698           5.00         2.00
  174.25        3339.00           6701           8.00         6.97
  174.28        3339.25           6705           6.00         2.00
  174.31        3339.50           6709           7.00         2.62
  174.34        3339.75           6713           7.00         2.62
  174.36        3340.00           6716           4.00         2.00
  174.39        3340.25           6720           6.00         2.00
  174.42        3340.50           6724           5.00         2.00
  174.44        3340.75           6728           4.00         2.00
  174.47        3341.00           6731           5.00         2.00
  174.50        3341.25           6735           6.00         2.00
  174.53        3341.50           6739           6.00         2.00
  174.55        3341.75           6743           8.00         6.97
  174.58        3342.00           6746           2.00         2.00
  174.61        3342.25           6750           5.00         2.00
  174.63        3342.50           6754           6.00         2.00
  174.66        3342.75           6758           5.00         2.00
  174.69        3343.00           6761           6.00         2.00
  174.72        3343.25           6765           5.00         2.00
  174.74        3343.50           6769           7.00         2.62
  174.77        3343.75           6773           6.00         2.00
  174.80        3344.00           6776           8.00         6.97
  174.82        3344.25           6780           8.00         6.97
  174.85        3344.50           6784           8.00         6.97
  174.88        3344.75           6788           8.00         6.97
  174.91        3345.00           6791           6.00         2.00
  174.93        3345.25           6795           5.00         2.00
  174.96        3345.50           6799           6.00         2.00
  174.99        3345.75           6803           7.00         2.62
  175.01        3346.00           6806           7.00         2.62
  175.04        3346.25           6810           4.00         2.00
  175.07        3346.50           6814           5.00         2.00
  175.10        3346.75           6818           7.00         2.62
  175.12        3347.00           6821           3.00         2.00
  175.15        3347.25           6825           6.00         2.00
  175.18        3347.50           6829           6.00         2.00
  175.20        3347.75           6833           4.00         2.00
  175.23        3348.00           6836           5.00         2.00
  175.26        3348.25           6840           3.00         2.00
  175.29        3348.50           6844           5.00         2.00
  175.31        3348.75           6848           4.00         2.00
  175.34        3349.00           6851           8.00         6.97
  175.37        3349.25           6855           8.00         6.97
  175.39        3349.50           6859           7.00         2.62
  175.42        3349.75           6863           7.00         2.62
  175.45        3350.00           6867           3.00         2.00
  175.48        3350.25           6870           7.00         2.62
  175.50        3350.50           6874           5.00         2.00
  175.53        3350.75           6878           8.00         6.97
  175.56        3351.00           6882           5.00         2.00
HL scan finished at 02:56:11
end
