************************************************************
  HL Scan of (1) Internal mercury lamp
************************************************************
Integration time is 0.2294 seconds per sample
dh140617Tamanrasset 22.79-5.529 3.123676pr865
************************************************************
Dead Time -------------------------  2.8E-08 
Number of Cycles Used -------------  4 
Starting Wavelength (Angstroms) ---  3331 
Final Wavelength (Angstoms) -------  3351 
Wavelength Increment (Angstroms) --  .25 
Filter Wheel #1 Position ---------- (1) Ground quartz diffuser (ND=2.32)
Filter Wheel #2 Position ---------- (0) Clear Aperture



************************************************************
HL scan start time = 02:51:46
Dark Count =  4.5 


Time (GMT)  Wavelength (Ang)  Step Number  Raw Counts  Counts/Second

  172.27        3331.00           6581           1.00         2.00
  172.49        3331.25           6585           4.00         2.00
  172.51        3331.50           6589           7.00        10.90
  172.54        3331.75           6593           6.00         6.54
  172.57        3332.00           6596           1.00         2.00
  172.60        3332.25           6600           9.00        19.62
  172.62        3332.50           6604           5.00         2.18
  172.65        3332.75           6608           5.00         2.18
  172.68        3333.00           6611           7.00        10.90
  172.70        3333.25           6615           1.00         2.00
  172.73        3333.50           6619           7.00        10.90
  172.76        3333.75           6623           5.00         2.18
  172.79        3334.00           6626           7.00        10.90
  172.81        3334.25           6630           6.00         6.54
  172.84        3334.50           6634           4.00         2.00
  172.87        3334.75           6638           7.00        10.90
  172.89        3335.00           6641           7.00        10.90
  172.92        3335.25           6645           0.00         2.00
  172.95        3335.50           6649           6.00         6.54
  172.98        3335.75           6653           4.00         2.00
  173.00        3336.00           6656           7.00        10.90
  173.03        3336.25           6660           4.00         2.00
  173.06        3336.50           6664           2.00         2.00
  173.08        3336.75           6668           3.00         2.00
  173.11        3337.00           6671           4.00         2.00
  173.14        3337.25           6675           8.00        15.26
  173.17        3337.50           6679           4.00         2.00
  173.19        3337.75           6683           3.00         2.00
  173.22        3338.00           6686           5.00         2.18
  173.25        3338.25           6690           3.00         2.00
  173.27        3338.50           6694           7.00        10.90
  173.30        3338.75           6698           5.00         2.18
  173.33        3339.00           6701           0.00         2.00
  173.36        3339.25           6705           8.00        15.26
  173.38        3339.50           6709           8.00        15.26
  173.41        3339.75           6713           3.00         2.00
  173.44        3340.00           6716           0.00         2.00
  173.46        3340.25           6720           7.00        10.90
  173.49        3340.50           6724           7.00        10.90
  173.52        3340.75           6728           0.00         2.00
  173.55        3341.00           6731           3.00         2.00
  173.57        3341.25           6735           6.00         6.54
  173.60        3341.50           6739           4.00         2.00
  173.63        3341.75           6743           6.00         6.54
  173.65        3342.00           6746           4.00         2.00
  173.68        3342.25           6750           5.00         2.18
  173.71        3342.50           6754           5.00         2.18
  173.74        3342.75           6758           5.00         2.18
  173.76        3343.00           6761           6.00         6.54
  173.79        3343.25           6765           5.00         2.18
  173.82        3343.50           6769           2.00         2.00
  173.84        3343.75           6773           4.00         2.00
  173.87        3344.00           6776           2.00         2.00
  173.90        3344.25           6780           7.00        10.90
  173.93        3344.50           6784           5.00         2.18
  173.95        3344.75           6788           6.00         6.54
  173.98        3345.00           6791           4.00         2.00
  174.01        3345.25           6795           6.00         6.54
  174.03        3345.50           6799           5.00         2.18
  174.06        3345.75           6803           8.00        15.26
  174.09        3346.00           6806           8.00        15.26
  174.12        3346.25           6810           3.00         2.00
  174.14        3346.50           6814           7.00        10.90
  174.17        3346.75           6818           7.00        10.90
  174.20        3347.00           6821           7.00        10.90
  174.22        3347.25           6825           0.00         2.00
  174.25        3347.50           6829           4.00         2.00
  174.28        3347.75           6833           6.00         6.54
  174.30        3348.00           6836           2.00         2.00
  174.33        3348.25           6840           5.00         2.18
  174.36        3348.50           6844           8.00        15.26
  174.39        3348.75           6848           3.00         2.00
  174.41        3349.00           6851           3.00         2.00
  174.44        3349.25           6855           6.00         6.54
  174.47        3349.50           6859           0.00         2.00
  174.49        3349.75           6863           2.00         2.00
  174.52        3350.00           6867           4.00         2.00
  174.55        3350.25           6870           4.00         2.00
  174.58        3350.50           6874           6.00         6.54
  174.60        3350.75           6878           8.00        15.26
  174.63        3351.00           6882           4.00         2.00
HL scan finished at 02:55:15
end
