************************************************************
  HL Scan of (1) Internal mercury lamp
************************************************************
Integration time is 0.2294 seconds per sample
dh120617Tamanrasset 22.79-5.529 3.210348pr865
************************************************************
Dead Time -------------------------  2.8E-08 
Number of Cycles Used -------------  4 
Starting Wavelength (Angstroms) ---  3331 
Final Wavelength (Angstoms) -------  3351 
Wavelength Increment (Angstroms) --  .25 
Filter Wheel #1 Position ---------- (1) Ground quartz diffuser (ND=2.32)
Filter Wheel #2 Position ---------- (0) Clear Aperture



************************************************************
HL scan start time = 02:51:47
Dark Count =  5.3 


Time (GMT)  Wavelength (Ang)  Step Number  Raw Counts  Counts/Second

  172.30        3331.00           6581           6.00         3.05
  172.52        3331.25           6585           5.00         2.00
  172.54        3331.50           6589           5.00         2.00
  172.57        3331.75           6593           6.00         3.05
  172.60        3332.00           6596           4.00         2.00
  172.63        3332.25           6600           5.00         2.00
  172.65        3332.50           6604           3.00         2.00
  172.68        3332.75           6608           6.00         3.05
  172.71        3333.00           6611           3.00         2.00
  172.73        3333.25           6615           5.00         2.00
  172.76        3333.50           6619           3.00         2.00
  172.79        3333.75           6623           5.00         2.00
  172.82        3334.00           6626           6.00         3.05
  172.84        3334.25           6630           6.00         3.05
  172.87        3334.50           6634           4.00         2.00
  172.90        3334.75           6638           5.00         2.00
  172.92        3335.00           6641           4.00         2.00
  172.95        3335.25           6645           4.00         2.00
  172.98        3335.50           6649           6.00         3.05
  173.01        3335.75           6653           5.00         2.00
  173.03        3336.00           6656           3.00         2.00
  173.06        3336.25           6660           5.00         2.00
  173.09        3336.50           6664           6.00         3.05
  173.11        3336.75           6668           6.00         3.05
  173.14        3337.00           6671           4.00         2.00
  173.17        3337.25           6675           2.00         2.00
  173.20        3337.50           6679           5.00         2.00
  173.22        3337.75           6683           5.00         2.00
  173.25        3338.00           6686           4.00         2.00
  173.28        3338.25           6690           7.00         7.41
  173.30        3338.50           6694           6.00         3.05
  173.33        3338.75           6698           3.00         2.00
  173.36        3339.00           6701           1.00         2.00
  173.38        3339.25           6705           6.00         3.05
  173.41        3339.50           6709           5.00         2.00
  173.44        3339.75           6713           6.00         3.05
  173.47        3340.00           6716           4.00         2.00
  173.49        3340.25           6720           7.00         7.41
  173.52        3340.50           6724           8.00        11.77
  173.55        3340.75           6728           4.00         2.00
  173.58        3341.00           6731           7.00         7.41
  173.60        3341.25           6735           3.00         2.00
  173.63        3341.50           6739           5.00         2.00
  173.66        3341.75           6743           4.00         2.00
  173.68        3342.00           6746           5.00         2.00
  173.71        3342.25           6750           7.00         7.41
  173.74        3342.50           6754           8.00        11.77
  173.76        3342.75           6758           3.00         2.00
  173.79        3343.00           6761           8.00        11.77
  173.82        3343.25           6765           7.00         7.41
  173.85        3343.50           6769           1.00         2.00
  173.87        3343.75           6773           3.00         2.00
  173.90        3344.00           6776           7.00         7.41
  173.93        3344.25           6780           4.00         2.00
  173.95        3344.50           6784           3.00         2.00
  173.98        3344.75           6788           6.00         3.05
  174.01        3345.00           6791           7.00         7.41
  174.04        3345.25           6795           2.00         2.00
  174.06        3345.50           6799           1.00         2.00
  174.09        3345.75           6803           7.00         7.41
  174.12        3346.00           6806           6.00         3.05
  174.14        3346.25           6810           5.00         2.00
  174.17        3346.50           6814           7.00         7.41
  174.20        3346.75           6818           2.00         2.00
  174.23        3347.00           6821           4.00         2.00
  174.25        3347.25           6825           5.00         2.00
  174.28        3347.50           6829           3.00         2.00
  174.31        3347.75           6833           7.00         7.41
  174.33        3348.00           6836           2.00         2.00
  174.36        3348.25           6840           7.00         7.41
  174.39        3348.50           6844           8.00        11.77
  174.42        3348.75           6848           0.00         2.00
  174.44        3349.00           6851           2.00         2.00
  174.47        3349.25           6855           5.00         2.00
  174.50        3349.50           6859           8.00        11.77
  174.52        3349.75           6863           7.00         7.41
  174.55        3350.00           6867           5.00         2.00
  174.58        3350.25           6870           6.00         3.05
  174.60        3350.50           6874           7.00         7.41
  174.63        3350.75           6878           8.00        11.77
  174.66        3351.00           6882           2.00         2.00
HL scan finished at 02:55:17
end
