************************************************************
  HL Scan of (1) Internal mercury lamp
************************************************************
Integration time is 0.2294 seconds per sample
dh100617Tamanrasset 22.79-5.529 3.256233pr865
************************************************************
Dead Time -------------------------  2.8E-08 
Number of Cycles Used -------------  4 
Starting Wavelength (Angstroms) ---  3331 
Final Wavelength (Angstoms) -------  3351 
Wavelength Increment (Angstroms) --  .25 
Filter Wheel #1 Position ---------- (1) Ground quartz diffuser (ND=2.32)
Filter Wheel #2 Position ---------- (0) Clear Aperture



************************************************************
HL scan start time = 02:51:44
Dark Count =  5.8 


Time (GMT)  Wavelength (Ang)  Step Number  Raw Counts  Counts/Second

  172.25        3331.00           6581           3.00         2.00
  172.47        3331.25           6585           5.00         2.00
  172.49        3331.50           6589           6.00         2.00
  172.52        3331.75           6593           7.00         5.23
  172.55        3332.00           6596           6.00         2.00
  172.57        3332.25           6600           6.00         2.00
  172.60        3332.50           6604           5.00         2.00
  172.63        3332.75           6608           4.00         2.00
  172.66        3333.00           6611           5.00         2.00
  172.68        3333.25           6615           7.00         5.23
  172.71        3333.50           6619           5.00         2.00
  172.74        3333.75           6623           6.00         2.00
  172.76        3334.00           6626           4.00         2.00
  172.79        3334.25           6630           4.00         2.00
  172.82        3334.50           6634           7.00         5.23
  172.85        3334.75           6638           8.00         9.59
  172.87        3335.00           6641           2.00         2.00
  172.90        3335.25           6645           8.00         9.59
  172.93        3335.50           6649           5.00         2.00
  172.95        3335.75           6653           8.00         9.59
  172.98        3336.00           6656           5.00         2.00
  173.01        3336.25           6660           6.00         2.00
  173.04        3336.50           6664           6.00         2.00
  173.06        3336.75           6668           6.00         2.00
  173.09        3337.00           6671           2.00         2.00
  173.12        3337.25           6675           7.00         5.23
  173.14        3337.50           6679           3.00         2.00
  173.17        3337.75           6683           5.00         2.00
  173.20        3338.00           6686           6.00         2.00
  173.23        3338.25           6690           5.00         2.00
  173.25        3338.50           6694           7.00         5.23
  173.28        3338.75           6698           6.00         2.00
  173.31        3339.00           6701           2.00         2.00
  173.33        3339.25           6705           8.00         9.59
  173.36        3339.50           6709           3.00         2.00
  173.39        3339.75           6713           6.00         2.00
  173.42        3340.00           6716           6.00         2.00
  173.44        3340.25           6720           5.00         2.00
  173.47        3340.50           6724           5.00         2.00
  173.50        3340.75           6728           7.00         5.23
  173.52        3341.00           6731           4.00         2.00
  173.55        3341.25           6735           7.00         5.23
  173.58        3341.50           6739           5.00         2.00
  173.61        3341.75           6743           7.00         5.23
  173.63        3342.00           6746           5.00         2.00
  173.66        3342.25           6750           7.00         5.23
  173.69        3342.50           6754           8.00         9.59
  173.71        3342.75           6758           7.00         5.23
  173.74        3343.00           6761           2.00         2.00
  173.77        3343.25           6765           5.00         2.00
  173.80        3343.50           6769           4.00         2.00
  173.82        3343.75           6773           2.00         2.00
  173.85        3344.00           6776           7.00         5.23
  173.88        3344.25           6780           4.00         2.00
  173.90        3344.50           6784           6.00         2.00
  173.93        3344.75           6788           5.00         2.00
  173.96        3345.00           6791           7.00         5.23
  173.98        3345.25           6795           7.00         5.23
  174.01        3345.50           6799           5.00         2.00
  174.04        3345.75           6803           6.00         2.00
  174.07        3346.00           6806           6.00         2.00
  174.09        3346.25           6810           4.00         2.00
  174.12        3346.50           6814           6.00         2.00
  174.15        3346.75           6818           7.00         5.23
  174.17        3347.00           6821           7.00         5.23
  174.20        3347.25           6825           9.00        13.95
  174.23        3347.50           6829           2.00         2.00
  174.26        3347.75           6833           8.00         9.59
  174.28        3348.00           6836           6.00         2.00
  174.31        3348.25           6840           4.00         2.00
  174.34        3348.50           6844           8.00         9.59
  174.36        3348.75           6848           6.00         2.00
  174.39        3349.00           6851           5.00         2.00
  174.42        3349.25           6855           5.00         2.00
  174.45        3349.50           6859           5.00         2.00
  174.47        3349.75           6863           5.00         2.00
  174.50        3350.00           6867           6.00         2.00
  174.53        3350.25           6870           6.00         2.00
  174.55        3350.50           6874           7.00         5.23
  174.58        3350.75           6878           5.00         2.00
  174.61        3351.00           6882           4.00         2.00
HL scan finished at 02:55:14
end
