************************************************************
  HL Scan of (1) Internal mercury lamp
************************************************************
Integration time is 0.2294 seconds per sample
dh130617Tamanrasset 22.79-5.529 3.026809pr865
************************************************************
Dead Time -------------------------  2.8E-08 
Number of Cycles Used -------------  4 
Starting Wavelength (Angstroms) ---  3331 
Final Wavelength (Angstoms) -------  3351 
Wavelength Increment (Angstroms) --  .25 
Filter Wheel #1 Position ---------- (1) Ground quartz diffuser (ND=2.32)
Filter Wheel #2 Position ---------- (0) Clear Aperture



************************************************************
HL scan start time = 02:51:48
Dark Count =  5.3 


Time (GMT)  Wavelength (Ang)  Step Number  Raw Counts  Counts/Second

  172.31        3331.00           6581           0.00         2.00
  172.53        3331.25           6585           8.00        11.77
  172.55        3331.50           6589           6.00         3.05
  172.58        3331.75           6593           3.00         2.00
  172.61        3332.00           6596           7.00         7.41
  172.63        3332.25           6600           0.00         2.00
  172.66        3332.50           6604           3.00         2.00
  172.69        3332.75           6608           6.00         3.05
  172.72        3333.00           6611           1.00         2.00
  172.74        3333.25           6615           0.00         2.00
  172.77        3333.50           6619           7.00         7.41
  172.80        3333.75           6623           2.00         2.00
  172.82        3334.00           6626           8.00        11.77
  172.85        3334.25           6630           0.00         2.00
  172.88        3334.50           6634           7.00         7.41
  172.91        3334.75           6638           7.00         7.41
  172.93        3335.00           6641           5.00         2.00
  172.96        3335.25           6645           2.00         2.00
  172.99        3335.50           6649           7.00         7.41
  173.01        3335.75           6653           5.00         2.00
  173.04        3336.00           6656           5.00         2.00
  173.07        3336.25           6660           3.00         2.00
  173.10        3336.50           6664           7.00         7.41
  173.12        3336.75           6668           8.00        11.77
  173.15        3337.00           6671           1.00         2.00
  173.18        3337.25           6675           4.00         2.00
  173.20        3337.50           6679           5.00         2.00
  173.23        3337.75           6683           7.00         7.41
  173.26        3338.00           6686           7.00         7.41
  173.28        3338.25           6690           4.00         2.00
  173.31        3338.50           6694           6.00         3.05
  173.34        3338.75           6698           0.00         2.00
  173.37        3339.00           6701           7.00         7.41
  173.39        3339.25           6705           8.00        11.77
  173.42        3339.50           6709           5.00         2.00
  173.45        3339.75           6713           8.00        11.77
  173.47        3340.00           6716           8.00        11.77
  173.50        3340.25           6720           5.00         2.00
  173.53        3340.50           6724           8.00        11.77
  173.56        3340.75           6728           8.00        11.77
  173.58        3341.00           6731           6.00         3.05
  173.61        3341.25           6735           5.00         2.00
  173.64        3341.50           6739           6.00         3.05
  173.66        3341.75           6743           4.00         2.00
  173.69        3342.00           6746           6.00         3.05
  173.72        3342.25           6750           8.00        11.77
  173.75        3342.50           6754           3.00         2.00
  173.77        3342.75           6758           5.00         2.00
  173.80        3343.00           6761           8.00        11.77
  173.83        3343.25           6765           5.00         2.00
  173.85        3343.50           6769           8.00        11.77
  173.88        3343.75           6773           8.00        11.77
  173.91        3344.00           6776           4.00         2.00
  173.94        3344.25           6780           4.00         2.00
  173.96        3344.50           6784           5.00         2.00
  173.99        3344.75           6788           6.00         3.05
  174.02        3345.00           6791           5.00         2.00
  174.04        3345.25           6795           7.00         7.41
  174.07        3345.50           6799           0.00         2.00
  174.10        3345.75           6803           1.00         2.00
  174.13        3346.00           6806           4.00         2.00
  174.15        3346.25           6810           5.00         2.00
  174.18        3346.50           6814           0.00         2.00
  174.21        3346.75           6818           6.00         3.05
  174.23        3347.00           6821           7.00         7.41
  174.26        3347.25           6825           5.00         2.00
  174.29        3347.50           6829           1.00         2.00
  174.32        3347.75           6833           7.00         7.41
  174.34        3348.00           6836           2.00         2.00
  174.37        3348.25           6840           6.00         3.05
  174.40        3348.50           6844           3.00         2.00
  174.42        3348.75           6848           5.00         2.00
  174.45        3349.00           6851           6.00         3.05
  174.48        3349.25           6855           7.00         7.41
  174.51        3349.50           6859           8.00        11.77
  174.53        3349.75           6863           3.00         2.00
  174.56        3350.00           6867           5.00         2.00
  174.59        3350.25           6870           6.00         3.05
  174.61        3350.50           6874           8.00        11.77
  174.64        3350.75           6878           8.00        11.77
  174.67        3351.00           6882           3.00         2.00
HL scan finished at 02:55:17
end
