************************************************************
  HL Scan of (1) Internal mercury lamp
************************************************************
Integration time is 0.2294 seconds per sample
dh160617Tamanrasset 22.79-5.529 3.14407pr865
************************************************************
Dead Time -------------------------  2.8E-08 
Number of Cycles Used -------------  4 
Starting Wavelength (Angstroms) ---  3331 
Final Wavelength (Angstoms) -------  3351 
Wavelength Increment (Angstroms) --  .25 
Filter Wheel #1 Position ---------- (1) Ground quartz diffuser (ND=2.32)
Filter Wheel #2 Position ---------- (0) Clear Aperture



************************************************************
HL scan start time = 02:52:45
Dark Count =  5.7 


Time (GMT)  Wavelength (Ang)  Step Number  Raw Counts  Counts/Second

  173.26        3331.00           6581           5.00         2.00
  173.48        3331.25           6585           5.00         2.00
  173.50        3331.50           6589           4.00         2.00
  173.53        3331.75           6593           8.00        10.03
  173.56        3332.00           6596           5.00         2.00
  173.59        3332.25           6600           7.00         5.67
  173.61        3332.50           6604           8.00        10.03
  173.64        3332.75           6608           5.00         2.00
  173.67        3333.00           6611           6.00         2.00
  173.69        3333.25           6615           8.00        10.03
  173.72        3333.50           6619           2.00         2.00
  173.75        3333.75           6623           3.00         2.00
  173.78        3334.00           6626           4.00         2.00
  173.80        3334.25           6630           6.00         2.00
  173.83        3334.50           6634           5.00         2.00
  173.86        3334.75           6638           7.00         5.67
  173.88        3335.00           6641           8.00        10.03
  173.91        3335.25           6645           7.00         5.67
  173.94        3335.50           6649           6.00         2.00
  173.97        3335.75           6653           6.00         2.00
  173.99        3336.00           6656           3.00         2.00
  174.02        3336.25           6660           6.00         2.00
  174.05        3336.50           6664           7.00         5.67
  174.07        3336.75           6668           8.00        10.03
  174.10        3337.00           6671           4.00         2.00
  174.13        3337.25           6675           3.00         2.00
  174.16        3337.50           6679           1.00         2.00
  174.18        3337.75           6683           6.00         2.00
  174.21        3338.00           6686           8.00        10.03
  174.24        3338.25           6690           5.00         2.00
  174.26        3338.50           6694           8.00        10.03
  174.29        3338.75           6698           6.00         2.00
  174.32        3339.00           6701           5.00         2.00
  174.34        3339.25           6705           6.00         2.00
  174.37        3339.50           6709           4.00         2.00
  174.40        3339.75           6713           6.00         2.00
  174.43        3340.00           6716           5.00         2.00
  174.45        3340.25           6720           6.00         2.00
  174.48        3340.50           6724           4.00         2.00
  174.51        3340.75           6728           2.00         2.00
  174.53        3341.00           6731           7.00         5.67
  174.56        3341.25           6735           3.00         2.00
  174.59        3341.50           6739           3.00         2.00
  174.62        3341.75           6743           8.00        10.03
  174.64        3342.00           6746           6.00         2.00
  174.67        3342.25           6750           4.00         2.00
  174.70        3342.50           6754           8.00        10.03
  174.72        3342.75           6758           3.00         2.00
  174.75        3343.00           6761           0.00         2.00
  174.78        3343.25           6765           5.00         2.00
  174.81        3343.50           6769           3.00         2.00
  174.83        3343.75           6773           8.00        10.03
  174.86        3344.00           6776           4.00         2.00
  174.89        3344.25           6780           8.00        10.03
  174.91        3344.50           6784           4.00         2.00
  174.94        3344.75           6788           4.00         2.00
  174.97        3345.00           6791           5.00         2.00
  175.00        3345.25           6795           5.00         2.00
  175.02        3345.50           6799           4.00         2.00
  175.05        3345.75           6803           5.00         2.00
  175.08        3346.00           6806           4.00         2.00
  175.10        3346.25           6810           8.00        10.03
  175.13        3346.50           6814           5.00         2.00
  175.16        3346.75           6818           8.00        10.03
  175.19        3347.00           6821           3.00         2.00
  175.21        3347.25           6825           4.00         2.00
  175.24        3347.50           6829           7.00         5.67
  175.27        3347.75           6833           4.00         2.00
  175.29        3348.00           6836           8.00        10.03
  175.32        3348.25           6840           6.00         2.00
  175.35        3348.50           6844           3.00         2.00
  175.38        3348.75           6848           8.00        10.03
  175.40        3349.00           6851           6.00         2.00
  175.43        3349.25           6855           4.00         2.00
  175.46        3349.50           6859           8.00        10.03
  175.48        3349.75           6863           2.00         2.00
  175.51        3350.00           6867           5.00         2.00
  175.54        3350.25           6870           7.00         5.67
  175.57        3350.50           6874           2.00         2.00
  175.59        3350.75           6878           4.00         2.00
  175.62        3351.00           6882           6.00         2.00
HL scan finished at 02:56:15
end
