************************************************************
  HL Scan of (1) Internal mercury lamp
************************************************************
Integration time is 0.2294 seconds per sample
dh090617Tamanrasset 22.79-5.529 3.276626pr865
************************************************************
Dead Time -------------------------  2.8E-08 
Number of Cycles Used -------------  4 
Starting Wavelength (Angstroms) ---  3331 
Final Wavelength (Angstoms) -------  3351 
Wavelength Increment (Angstroms) --  .25 
Filter Wheel #1 Position ---------- (1) Ground quartz diffuser (ND=2.32)
Filter Wheel #2 Position ---------- (0) Clear Aperture



************************************************************
HL scan start time = 02:51:58
Dark Count =  5.2 


Time (GMT)  Wavelength (Ang)  Step Number  Raw Counts  Counts/Second

  172.47        3331.00           6581           2.00         2.00
  172.69        3331.25           6585           3.00         2.00
  172.72        3331.50           6589           8.00        12.21
  172.75        3331.75           6593           7.00         7.85
  172.77        3332.00           6596           4.00         2.00
  172.80        3332.25           6600           6.00         3.49
  172.83        3332.50           6604           3.00         2.00
  172.86        3332.75           6608           6.00         3.49
  172.88        3333.00           6611           7.00         7.85
  172.91        3333.25           6615           5.00         2.00
  172.94        3333.50           6619           5.00         2.00
  172.96        3333.75           6623           6.00         3.49
  172.99        3334.00           6626           4.00         2.00
  173.02        3334.25           6630           4.00         2.00
  173.05        3334.50           6634           6.00         3.49
  173.07        3334.75           6638           6.00         3.49
  173.10        3335.00           6641           0.00         2.00
  173.13        3335.25           6645           6.00         3.49
  173.15        3335.50           6649           6.00         3.49
  173.18        3335.75           6653           7.00         7.85
  173.21        3336.00           6656           7.00         7.85
  173.24        3336.25           6660           6.00         3.49
  173.26        3336.50           6664           2.00         2.00
  173.29        3336.75           6668           2.00         2.00
  173.32        3337.00           6671           2.00         2.00
  173.34        3337.25           6675           5.00         2.00
  173.37        3337.50           6679           8.00        12.21
  173.40        3337.75           6683           8.00        12.21
  173.42        3338.00           6686           6.00         3.49
  173.45        3338.25           6690           5.00         2.00
  173.48        3338.50           6694           9.00        16.56
  173.51        3338.75           6698           8.00        12.21
  173.53        3339.00           6701           6.00         3.49
  173.56        3339.25           6705           7.00         7.85
  173.59        3339.50           6709           6.00         3.49
  173.61        3339.75           6713           3.00         2.00
  173.64        3340.00           6716           7.00         7.85
  173.67        3340.25           6720           9.00        16.56
  173.70        3340.50           6724           4.00         2.00
  173.72        3340.75           6728           9.00        16.56
  173.75        3341.00           6731           5.00         2.00
  173.78        3341.25           6735           3.00         2.00
  173.80        3341.50           6739           5.00         2.00
  173.83        3341.75           6743           5.00         2.00
  173.86        3342.00           6746           5.00         2.00
  173.89        3342.25           6750           7.00         7.85
  173.91        3342.50           6754           7.00         7.85
  173.94        3342.75           6758           6.00         3.49
  173.97        3343.00           6761           7.00         7.85
  173.99        3343.25           6765           8.00        12.21
  174.02        3343.50           6769           8.00        12.21
  174.05        3343.75           6773           2.00         2.00
  174.08        3344.00           6776           8.00        12.21
  174.10        3344.25           6780           5.00         2.00
  174.13        3344.50           6784           7.00         7.85
  174.16        3344.75           6788           6.00         3.49
  174.18        3345.00           6791           5.00         2.00
  174.21        3345.25           6795           1.00         2.00
  174.24        3345.50           6799           5.00         2.00
  174.27        3345.75           6803           8.00        12.21
  174.29        3346.00           6806           6.00         3.49
  174.32        3346.25           6810           3.00         2.00
  174.35        3346.50           6814           4.00         2.00
  174.37        3346.75           6818           3.00         2.00
  174.40        3347.00           6821           3.00         2.00
  174.43        3347.25           6825           7.00         7.85
  174.46        3347.50           6829           6.00         3.49
  174.48        3347.75           6833           6.00         3.49
  174.51        3348.00           6836           4.00         2.00
  174.54        3348.25           6840           1.00         2.00
  174.56        3348.50           6844           3.00         2.00
  174.59        3348.75           6848           3.00         2.00
  174.62        3349.00           6851           5.00         2.00
  174.64        3349.25           6855           7.00         7.85
  174.67        3349.50           6859           8.00        12.21
  174.70        3349.75           6863           5.00         2.00
  174.73        3350.00           6867           4.00         2.00
  174.75        3350.25           6870           3.00         2.00
  174.78        3350.50           6874           8.00        12.21
  174.81        3350.75           6878           4.00         2.00
  174.83        3351.00           6882           3.00         2.00
HL scan finished at 02:55:27
end
