************************************************************
  HL Scan of (1) Internal mercury lamp
************************************************************
Integration time is 0.2294 seconds per sample
dh250617Tamanrasset 22.79-5.529 3.14407pr865
************************************************************
Dead Time -------------------------  2.8E-08 
Number of Cycles Used -------------  4 
Starting Wavelength (Angstroms) ---  3331 
Final Wavelength (Angstoms) -------  3351 
Wavelength Increment (Angstroms) --  .25 
Filter Wheel #1 Position ---------- (1) Ground quartz diffuser (ND=2.32)
Filter Wheel #2 Position ---------- (0) Clear Aperture



************************************************************
HL scan start time = 02:53:47
Dark Count =  4 


Time (GMT)  Wavelength (Ang)  Step Number  Raw Counts  Counts/Second

  174.29        3331.00           6581           7.00        13.08
  174.51        3331.25           6585           7.00        13.08
  174.53        3331.50           6589           7.00        13.08
  174.56        3331.75           6593           7.00        13.08
  174.59        3332.00           6596           4.00         2.00
  174.62        3332.25           6600           7.00        13.08
  174.64        3332.50           6604           8.00        17.44
  174.67        3332.75           6608           5.00         4.36
  174.70        3333.00           6611           5.00         4.36
  174.72        3333.25           6615           5.00         4.36
  174.75        3333.50           6619           7.00        13.08
  174.78        3333.75           6623           6.00         8.72
  174.81        3334.00           6626           7.00        13.08
  174.83        3334.25           6630           8.00        17.44
  174.86        3334.50           6634           4.00         2.00
  174.89        3334.75           6638           6.00         8.72
  174.91        3335.00           6641           8.00        17.44
  174.94        3335.25           6645           5.00         4.36
  174.97        3335.50           6649           5.00         4.36
  175.00        3335.75           6653           6.00         8.72
  175.02        3336.00           6656           7.00        13.08
  175.05        3336.25           6660           3.00         2.00
  175.08        3336.50           6664           7.00        13.08
  175.10        3336.75           6668           6.00         8.72
  175.13        3337.00           6671           7.00        13.08
  175.16        3337.25           6675           7.00        13.08
  175.19        3337.50           6679           3.00         2.00
  175.21        3337.75           6683           1.00         2.00
  175.24        3338.00           6686           7.00        13.08
  175.27        3338.25           6690           4.00         2.00
  175.29        3338.50           6694           7.00        13.08
  175.32        3338.75           6698           6.00         8.72
  175.35        3339.00           6701           8.00        17.44
  175.38        3339.25           6705           0.00         2.00
  175.40        3339.50           6709           8.00        17.44
  175.43        3339.75           6713           4.00         2.00
  175.46        3340.00           6716           4.00         2.00
  175.48        3340.25           6720           3.00         2.00
  175.51        3340.50           6724           4.00         2.00
  175.54        3340.75           6728           7.00        13.08
  175.57        3341.00           6731           3.00         2.00
  175.59        3341.25           6735           7.00        13.08
  175.62        3341.50           6739           7.00        13.08
  175.65        3341.75           6743           7.00        13.08
  175.67        3342.00           6746           4.00         2.00
  175.70        3342.25           6750           3.00         2.00
  175.73        3342.50           6754           8.00        17.44
  175.76        3342.75           6758           3.00         2.00
  175.78        3343.00           6761           7.00        13.08
  175.81        3343.25           6765           6.00         8.72
  175.84        3343.50           6769           4.00         2.00
  175.86        3343.75           6773           4.00         2.00
  175.89        3344.00           6776           8.00        17.44
  175.92        3344.25           6780           7.00        13.08
  175.95        3344.50           6784           7.00        13.08
  175.97        3344.75           6788           3.00         2.00
  176.00        3345.00           6791           8.00        17.44
  176.03        3345.25           6795           3.00         2.00
  176.05        3345.50           6799           3.00         2.00
  176.08        3345.75           6803           6.00         8.72
  176.11        3346.00           6806           6.00         8.72
  176.14        3346.25           6810           9.00        21.80
  176.16        3346.50           6814           7.00        13.08
  176.19        3346.75           6818           3.00         2.00
  176.22        3347.00           6821           4.00         2.00
  176.24        3347.25           6825           4.00         2.00
  176.27        3347.50           6829           4.00         2.00
  176.30        3347.75           6833           4.00         2.00
  176.33        3348.00           6836           6.00         8.72
  176.35        3348.25           6840           7.00        13.08
  176.38        3348.50           6844           8.00        17.44
  176.41        3348.75           6848           8.00        17.44
  176.43        3349.00           6851           7.00        13.08
  176.46        3349.25           6855           6.00         8.72
  176.49        3349.50           6859           4.00         2.00
  176.51        3349.75           6863           5.00         4.36
  176.54        3350.00           6867           3.00         2.00
  176.57        3350.25           6870           2.00         2.00
  176.60        3350.50           6874           5.00         4.36
  176.62        3350.75           6878           5.00         4.36
  176.65        3351.00           6882           6.00         8.72
HL scan finished at 02:57:16
end
