************************************************************
  HL Scan of (1) Internal mercury lamp
************************************************************
Integration time is 0.2294 seconds per sample
dh260617Tamanrasset 22.79-5.529 3.118579pr865
************************************************************
Dead Time -------------------------  2.8E-08 
Number of Cycles Used -------------  4 
Starting Wavelength (Angstroms) ---  3331 
Final Wavelength (Angstoms) -------  3351 
Wavelength Increment (Angstroms) --  .25 
Filter Wheel #1 Position ---------- (1) Ground quartz diffuser (ND=2.32)
Filter Wheel #2 Position ---------- (0) Clear Aperture



************************************************************
HL scan start time = 02:54:46
Dark Count =  4.9 


Time (GMT)  Wavelength (Ang)  Step Number  Raw Counts  Counts/Second

  175.28        3331.00           6581           5.00         2.00
  175.50        3331.25           6585           8.00        13.51
  175.52        3331.50           6589           6.00         4.80
  175.55        3331.75           6593           3.00         2.00
  175.58        3332.00           6596           3.00         2.00
  175.61        3332.25           6600           4.00         2.00
  175.63        3332.50           6604           4.00         2.00
  175.66        3332.75           6608           6.00         4.80
  175.69        3333.00           6611           6.00         4.80
  175.71        3333.25           6615           8.00        13.51
  175.74        3333.50           6619           3.00         2.00
  175.77        3333.75           6623           5.00         2.00
  175.79        3334.00           6626           3.00         2.00
  175.82        3334.25           6630           8.00        13.51
  175.85        3334.50           6634           5.00         2.00
  175.88        3334.75           6638           2.00         2.00
  175.90        3335.00           6641           8.00        13.51
  175.93        3335.25           6645           3.00         2.00
  175.96        3335.50           6649           8.00        13.51
  175.98        3335.75           6653           8.00        13.51
  176.01        3336.00           6656           5.00         2.00
  176.04        3336.25           6660           5.00         2.00
  176.07        3336.50           6664           4.00         2.00
  176.09        3336.75           6668           5.00         2.00
  176.12        3337.00           6671           6.00         4.80
  176.15        3337.25           6675           5.00         2.00
  176.18        3337.50           6679           3.00         2.00
  176.20        3337.75           6683           6.00         4.80
  176.23        3338.00           6686           8.00        13.51
  176.26        3338.25           6690           7.00         9.15
  176.28        3338.50           6694           7.00         9.15
  176.31        3338.75           6698           4.00         2.00
  176.34        3339.00           6701           6.00         4.80
  176.37        3339.25           6705           7.00         9.15
  176.39        3339.50           6709           4.00         2.00
  176.42        3339.75           6713           8.00        13.51
  176.45        3340.00           6716           4.00         2.00
  176.47        3340.25           6720           8.00        13.51
  176.50        3340.50           6724           8.00        13.51
  176.53        3340.75           6728           7.00         9.15
  176.56        3341.00           6731           0.00         2.00
  176.58        3341.25           6735           8.00        13.51
  176.61        3341.50           6739           6.00         4.80
  176.64        3341.75           6743           8.00        13.51
  176.66        3342.00           6746           8.00        13.51
  176.69        3342.25           6750           5.00         2.00
  176.72        3342.50           6754           3.00         2.00
  176.74        3342.75           6758           2.00         2.00
  176.77        3343.00           6761           4.00         2.00
  176.80        3343.25           6765           6.00         4.80
  176.83        3343.50           6769           6.00         4.80
  176.85        3343.75           6773           7.00         9.15
  176.88        3344.00           6776           6.00         4.80
  176.91        3344.25           6780           5.00         2.00
  176.93        3344.50           6784           5.00         2.00
  176.96        3344.75           6788           6.00         4.80
  176.99        3345.00           6791           8.00        13.51
  177.02        3345.25           6795           3.00         2.00
  177.04        3345.50           6799           7.00         9.15
  177.07        3345.75           6803           7.00         9.15
  177.10        3346.00           6806           0.00         2.00
  177.12        3346.25           6810           6.00         4.80
  177.15        3346.50           6814           7.00         9.15
  177.18        3346.75           6818           6.00         4.80
  177.21        3347.00           6821           6.00         4.80
  177.23        3347.25           6825           2.00         2.00
  177.26        3347.50           6829           2.00         2.00
  177.29        3347.75           6833           8.00        13.51
  177.31        3348.00           6836           3.00         2.00
  177.34        3348.25           6840           5.00         2.00
  177.37        3348.50           6844           4.00         2.00
  177.40        3348.75           6848           3.00         2.00
  177.42        3349.00           6851           4.00         2.00
  177.45        3349.25           6855           7.00         9.15
  177.48        3349.50           6859           4.00         2.00
  177.50        3349.75           6863           7.00         9.15
  177.53        3350.00           6867           8.00        13.51
  177.56        3350.25           6870           6.00         4.80
  177.58        3350.50           6874           3.00         2.00
  177.61        3350.75           6878           6.00         4.80
  177.64        3351.00           6882           3.00         2.00
HL scan finished at 02:58:16
end
