************************************************************
  HL Scan of (1) Internal mercury lamp
************************************************************
Integration time is 0.2294 seconds per sample
dh220617Tamanrasset 22.79-5.529 3.133873pr865
************************************************************
Dead Time -------------------------  2.8E-08 
Number of Cycles Used -------------  4 
Starting Wavelength (Angstroms) ---  3331 
Final Wavelength (Angstoms) -------  3351 
Wavelength Increment (Angstroms) --  .25 
Filter Wheel #1 Position ---------- (1) Ground quartz diffuser (ND=2.32)
Filter Wheel #2 Position ---------- (0) Clear Aperture



************************************************************
HL scan start time = 02:53:48
Dark Count =  5.4 


Time (GMT)  Wavelength (Ang)  Step Number  Raw Counts  Counts/Second

  174.31        3331.00           6581           5.00         2.00
  174.52        3331.25           6585           5.00         2.00
  174.55        3331.50           6589           1.00         2.00
  174.58        3331.75           6593           5.00         2.00
  174.61        3332.00           6596           5.00         2.00
  174.63        3332.25           6600           4.00         2.00
  174.66        3332.50           6604           5.00         2.00
  174.69        3332.75           6608           4.00         2.00
  174.71        3333.00           6611           6.00         2.62
  174.74        3333.25           6615           8.00        11.33
  174.77        3333.50           6619           6.00         2.62
  174.79        3333.75           6623           5.00         2.00
  174.82        3334.00           6626           3.00         2.00
  174.85        3334.25           6630           4.00         2.00
  174.88        3334.50           6634           6.00         2.62
  174.90        3334.75           6638           6.00         2.62
  174.93        3335.00           6641           3.00         2.00
  174.96        3335.25           6645           3.00         2.00
  174.98        3335.50           6649           5.00         2.00
  175.01        3335.75           6653           7.00         6.97
  175.04        3336.00           6656           7.00         6.97
  175.07        3336.25           6660           7.00         6.97
  175.09        3336.50           6664           5.00         2.00
  175.12        3336.75           6668           7.00         6.97
  175.15        3337.00           6671           5.00         2.00
  175.17        3337.25           6675           7.00         6.97
  175.20        3337.50           6679           4.00         2.00
  175.23        3337.75           6683           7.00         6.97
  175.26        3338.00           6686           8.00        11.33
  175.28        3338.25           6690           2.00         2.00
  175.31        3338.50           6694           8.00        11.33
  175.34        3338.75           6698           8.00        11.33
  175.36        3339.00           6701           5.00         2.00
  175.39        3339.25           6705           6.00         2.62
  175.42        3339.50           6709           4.00         2.00
  175.45        3339.75           6713           8.00        11.33
  175.47        3340.00           6716           2.00         2.00
  175.50        3340.25           6720           8.00        11.33
  175.53        3340.50           6724           6.00         2.62
  175.55        3340.75           6728           6.00         2.62
  175.58        3341.00           6731           4.00         2.00
  175.61        3341.25           6735           1.00         2.00
  175.64        3341.50           6739           6.00         2.62
  175.66        3341.75           6743           5.00         2.00
  175.69        3342.00           6746           5.00         2.00
  175.72        3342.25           6750           5.00         2.00
  175.74        3342.50           6754           2.00         2.00
  175.77        3342.75           6758           6.00         2.62
  175.80        3343.00           6761           5.00         2.00
  175.83        3343.25           6765           3.00         2.00
  175.85        3343.50           6769           5.00         2.00
  175.88        3343.75           6773           4.00         2.00
  175.91        3344.00           6776           0.00         2.00
  175.93        3344.25           6780           7.00         6.97
  175.96        3344.50           6784           5.00         2.00
  175.99        3344.75           6788           4.00         2.00
  176.02        3345.00           6791           7.00         6.97
  176.04        3345.25           6795           4.00         2.00
  176.07        3345.50           6799           7.00         6.97
  176.10        3345.75           6803           5.00         2.00
  176.12        3346.00           6806           6.00         2.62
  176.15        3346.25           6810           4.00         2.00
  176.18        3346.50           6814           3.00         2.00
  176.21        3346.75           6818           0.00         2.00
  176.23        3347.00           6821           0.00         2.00
  176.26        3347.25           6825           4.00         2.00
  176.29        3347.50           6829           8.00        11.33
  176.31        3347.75           6833           7.00         6.97
  176.34        3348.00           6836           3.00         2.00
  176.37        3348.25           6840           6.00         2.62
  176.40        3348.50           6844           6.00         2.62
  176.42        3348.75           6848           6.00         2.62
  176.45        3349.00           6851           3.00         2.00
  176.48        3349.25           6855           7.00         6.97
  176.50        3349.50           6859           8.00        11.33
  176.53        3349.75           6863           7.00         6.97
  176.56        3350.00           6867           4.00         2.00
  176.58        3350.25           6870           2.00         2.00
  176.61        3350.50           6874           3.00         2.00
  176.64        3350.75           6878           4.00         2.00
  176.67        3351.00           6882           5.00         2.00
HL scan finished at 02:57:17
end
