************************************************************
  HL Scan of (1) Internal mercury lamp
************************************************************
Integration time is 0.2294 seconds per sample
dh230617Tamanrasset 22.79-5.529 3.02171pr865
************************************************************
Dead Time -------------------------  2.8E-08 
Number of Cycles Used -------------  4 
Starting Wavelength (Angstroms) ---  3331 
Final Wavelength (Angstoms) -------  3351 
Wavelength Increment (Angstroms) --  .25 
Filter Wheel #1 Position ---------- (1) Ground quartz diffuser (ND=2.32)
Filter Wheel #2 Position ---------- (0) Clear Aperture



************************************************************
HL scan start time = 02:53:48
Dark Count =  3.8 


Time (GMT)  Wavelength (Ang)  Step Number  Raw Counts  Counts/Second

  174.30        3331.00           6581           8.00        18.31
  174.52        3331.25           6585           1.00         2.00
  174.55        3331.50           6589           0.00         2.00
  174.58        3331.75           6593           0.00         2.00
  174.60        3332.00           6596           5.00         5.23
  174.63        3332.25           6600           2.00         2.00
  174.66        3332.50           6604           4.00         2.00
  174.68        3332.75           6608           7.00        13.95
  174.71        3333.00           6611           3.00         2.00
  174.74        3333.25           6615           4.00         2.00
  174.77        3333.50           6619           2.00         2.00
  174.79        3333.75           6623           6.00         9.59
  174.82        3334.00           6626           5.00         5.23
  174.85        3334.25           6630           0.00         2.00
  174.87        3334.50           6634           3.00         2.00
  174.90        3334.75           6638           7.00        13.95
  174.93        3335.00           6641           0.00         2.00
  174.95        3335.25           6645           8.00        18.31
  174.98        3335.50           6649           8.00        18.31
  175.01        3335.75           6653           0.00         2.00
  175.04        3336.00           6656           7.00        13.95
  175.06        3336.25           6660           2.00         2.00
  175.09        3336.50           6664           5.00         5.23
  175.12        3336.75           6668           6.00         9.59
  175.14        3337.00           6671           3.00         2.00
  175.17        3337.25           6675           5.00         5.23
  175.20        3337.50           6679           4.00         2.00
  175.23        3337.75           6683           5.00         5.23
  175.25        3338.00           6686           4.00         2.00
  175.28        3338.25           6690           7.00        13.95
  175.31        3338.50           6694           8.00        18.31
  175.33        3338.75           6698           9.00        22.67
  175.36        3339.00           6701           5.00         5.23
  175.39        3339.25           6705           5.00         5.23
  175.42        3339.50           6709           4.00         2.00
  175.44        3339.75           6713           1.00         2.00
  175.47        3340.00           6716           8.00        18.31
  175.50        3340.25           6720           3.00         2.00
  175.52        3340.50           6724           3.00         2.00
  175.55        3340.75           6728           6.00         9.59
  175.58        3341.00           6731           2.00         2.00
  175.61        3341.25           6735           7.00        13.95
  175.63        3341.50           6739           3.00         2.00
  175.66        3341.75           6743           3.00         2.00
  175.69        3342.00           6746           3.00         2.00
  175.71        3342.25           6750           3.00         2.00
  175.74        3342.50           6754           8.00        18.31
  175.77        3342.75           6758           6.00         9.59
  175.80        3343.00           6761           7.00        13.95
  175.82        3343.25           6765           2.00         2.00
  175.85        3343.50           6769           3.00         2.00
  175.88        3343.75           6773           6.00         9.59
  175.90        3344.00           6776           8.00        18.31
  175.93        3344.25           6780           6.00         9.59
  175.96        3344.50           6784           3.00         2.00
  175.99        3344.75           6788           7.00        13.95
  176.01        3345.00           6791           0.00         2.00
  176.04        3345.25           6795           3.00         2.00
  176.07        3345.50           6799           6.00         9.59
  176.09        3345.75           6803           1.00         2.00
  176.12        3346.00           6806           4.00         2.00
  176.15        3346.25           6810           7.00        13.95
  176.17        3346.50           6814           7.00        13.95
  176.20        3346.75           6818           2.00         2.00
  176.23        3347.00           6821           2.00         2.00
  176.26        3347.25           6825           6.00         9.59
  176.28        3347.50           6829           2.00         2.00
  176.31        3347.75           6833           0.00         2.00
  176.34        3348.00           6836           8.00        18.31
  176.36        3348.25           6840           1.00         2.00
  176.39        3348.50           6844           2.00         2.00
  176.42        3348.75           6848           6.00         9.59
  176.45        3349.00           6851           7.00        13.95
  176.47        3349.25           6855           2.00         2.00
  176.50        3349.50           6859           6.00         9.59
  176.53        3349.75           6863           4.00         2.00
  176.55        3350.00           6867           5.00         5.23
  176.58        3350.25           6870           8.00        18.31
  176.61        3350.50           6874           8.00        18.31
  176.64        3350.75           6878           5.00         5.23
  176.66        3351.00           6882           5.00         5.23
HL scan finished at 02:57:17
end
