************************************************************
  HL Scan of (1) Internal mercury lamp
************************************************************
Integration time is 0.2294 seconds per sample
dh190617Tamanrasset 22.79-5.529 3.327609pr865
************************************************************
Dead Time -------------------------  2.8E-08 
Number of Cycles Used -------------  4 
Starting Wavelength (Angstroms) ---  3331 
Final Wavelength (Angstoms) -------  3351 
Wavelength Increment (Angstroms) --  .25 
Filter Wheel #1 Position ---------- (1) Ground quartz diffuser (ND=2.32)
Filter Wheel #2 Position ---------- (0) Clear Aperture



************************************************************
HL scan start time = 02:52:48
Dark Count =  5.9 


Time (GMT)  Wavelength (Ang)  Step Number  Raw Counts  Counts/Second

  173.31        3331.00           6581           5.00         2.00
  173.53        3331.25           6585           8.00         9.15
  173.56        3331.50           6589           9.00        13.51
  173.59        3331.75           6593           4.00         2.00
  173.61        3332.00           6596           8.00         9.15
  173.64        3332.25           6600           2.00         2.00
  173.67        3332.50           6604           4.00         2.00
  173.70        3332.75           6608           7.00         4.80
  173.72        3333.00           6611           5.00         2.00
  173.75        3333.25           6615           5.00         2.00
  173.78        3333.50           6619           5.00         2.00
  173.80        3333.75           6623           5.00         2.00
  173.83        3334.00           6626           6.00         2.00
  173.86        3334.25           6630           6.00         2.00
  173.89        3334.50           6634           6.00         2.00
  173.91        3334.75           6638           5.00         2.00
  173.94        3335.00           6641           4.00         2.00
  173.97        3335.25           6645           8.00         9.15
  173.99        3335.50           6649           5.00         2.00
  174.02        3335.75           6653           8.00         9.15
  174.05        3336.00           6656           9.00        13.51
  174.07        3336.25           6660           5.00         2.00
  174.10        3336.50           6664           5.00         2.00
  174.13        3336.75           6668           8.00         9.15
  174.16        3337.00           6671           6.00         2.00
  174.18        3337.25           6675           5.00         2.00
  174.21        3337.50           6679           6.00         2.00
  174.24        3337.75           6683           7.00         4.80
  174.26        3338.00           6686           8.00         9.15
  174.29        3338.25           6690           6.00         2.00
  174.32        3338.50           6694           7.00         4.80
  174.35        3338.75           6698           4.00         2.00
  174.37        3339.00           6701           2.00         2.00
  174.40        3339.25           6705           7.00         4.80
  174.43        3339.50           6709           2.00         2.00
  174.45        3339.75           6713           7.00         4.80
  174.48        3340.00           6716           5.00         2.00
  174.51        3340.25           6720           7.00         4.80
  174.54        3340.50           6724           7.00         4.80
  174.56        3340.75           6728           6.00         2.00
  174.59        3341.00           6731           2.00         2.00
  174.62        3341.25           6735           8.00         9.15
  174.64        3341.50           6739           8.00         9.15
  174.67        3341.75           6743           6.00         2.00
  174.70        3342.00           6746           5.00         2.00
  174.72        3342.25           6750           7.00         4.80
  174.75        3342.50           6754           6.00         2.00
  174.78        3342.75           6758           7.00         4.80
  174.81        3343.00           6761           5.00         2.00
  174.83        3343.25           6765           5.00         2.00
  174.86        3343.50           6769           4.00         2.00
  174.89        3343.75           6773           2.00         2.00
  174.91        3344.00           6776           6.00         2.00
  174.94        3344.25           6780           6.00         2.00
  174.97        3344.50           6784           8.00         9.15
  175.00        3344.75           6788           4.00         2.00
  175.02        3345.00           6791           5.00         2.00
  175.05        3345.25           6795           5.00         2.00
  175.08        3345.50           6799           6.00         2.00
  175.10        3345.75           6803           4.00         2.00
  175.13        3346.00           6806           5.00         2.00
  175.16        3346.25           6810           5.00         2.00
  175.19        3346.50           6814           4.00         2.00
  175.21        3346.75           6818           5.00         2.00
  175.24        3347.00           6821           7.00         4.80
  175.27        3347.25           6825           8.00         9.15
  175.29        3347.50           6829           6.00         2.00
  175.32        3347.75           6833           6.00         2.00
  175.35        3348.00           6836           3.00         2.00
  175.38        3348.25           6840           3.00         2.00
  175.40        3348.50           6844           7.00         4.80
  175.43        3348.75           6848           6.00         2.00
  175.46        3349.00           6851           3.00         2.00
  175.48        3349.25           6855           7.00         4.80
  175.51        3349.50           6859           6.00         2.00
  175.54        3349.75           6863           9.00        13.51
  175.57        3350.00           6867           7.00         4.80
  175.59        3350.25           6870           7.00         4.80
  175.62        3350.50           6874           2.00         2.00
  175.65        3350.75           6878           6.00         2.00
  175.67        3351.00           6882           5.00         2.00
HL scan finished at 02:56:18
end
