************************************************************
  HL Scan of (1) Internal mercury lamp
************************************************************
Integration time is 0.2294 seconds per sample
dh270617Tamanrasset 22.79-5.529 3.363297pr865
************************************************************
Dead Time -------------------------  2.8E-08 
Number of Cycles Used -------------  4 
Starting Wavelength (Angstroms) ---  3331 
Final Wavelength (Angstoms) -------  3351 
Wavelength Increment (Angstroms) --  .25 
Filter Wheel #1 Position ---------- (1) Ground quartz diffuser (ND=2.32)
Filter Wheel #2 Position ---------- (0) Clear Aperture



************************************************************
HL scan start time = 02:54:46
Dark Count =  6.2 


Time (GMT)  Wavelength (Ang)  Step Number  Raw Counts  Counts/Second

  175.28        3331.00           6581           6.00         2.00
  175.50        3331.25           6585           8.00         7.85
  175.52        3331.50           6589          10.00        16.56
  175.55        3331.75           6593           5.00         2.00
  175.58        3332.00           6596           8.00         7.85
  175.60        3332.25           6600           7.00         3.49
  175.63        3332.50           6604           7.00         3.49
  175.66        3332.75           6608           5.00         2.00
  175.69        3333.00           6611           7.00         3.49
  175.71        3333.25           6615           5.00         2.00
  175.74        3333.50           6619           5.00         2.00
  175.77        3333.75           6623           7.00         3.49
  175.79        3334.00           6626           4.00         2.00
  175.82        3334.25           6630           4.00         2.00
  175.85        3334.50           6634           5.00         2.00
  175.88        3334.75           6638           7.00         3.49
  175.90        3335.00           6641           9.00        12.21
  175.93        3335.25           6645           7.00         3.49
  175.96        3335.50           6649           9.00        12.21
  175.98        3335.75           6653           7.00         3.49
  176.01        3336.00           6656           6.00         2.00
  176.04        3336.25           6660           6.00         2.00
  176.07        3336.50           6664           7.00         3.49
  176.09        3336.75           6668           4.00         2.00
  176.12        3337.00           6671           5.00         2.00
  176.15        3337.25           6675           6.00         2.00
  176.17        3337.50           6679           4.00         2.00
  176.20        3337.75           6683           6.00         2.00
  176.23        3338.00           6686           8.00         7.85
  176.25        3338.25           6690           4.00         2.00
  176.28        3338.50           6694           4.00         2.00
  176.31        3338.75           6698           5.00         2.00
  176.34        3339.00           6701           4.00         2.00
  176.36        3339.25           6705           6.00         2.00
  176.39        3339.50           6709           7.00         3.49
  176.42        3339.75           6713           4.00         2.00
  176.44        3340.00           6716           7.00         3.49
  176.47        3340.25           6720           9.00        12.21
  176.50        3340.50           6724           7.00         3.49
  176.53        3340.75           6728           5.00         2.00
  176.55        3341.00           6731           7.00         3.49
  176.58        3341.25           6735           4.00         2.00
  176.61        3341.50           6739           5.00         2.00
  176.63        3341.75           6743           5.00         2.00
  176.66        3342.00           6746           5.00         2.00
  176.69        3342.25           6750           6.00         2.00
  176.72        3342.50           6754           3.00         2.00
  176.74        3342.75           6758           6.00         2.00
  176.77        3343.00           6761           8.00         7.85
  176.80        3343.25           6765           9.00        12.21
  176.82        3343.50           6769           5.00         2.00
  176.85        3343.75           6773           4.00         2.00
  176.88        3344.00           6776           3.00         2.00
  176.91        3344.25           6780           8.00         7.85
  176.93        3344.50           6784           2.00         2.00
  176.96        3344.75           6788           7.00         3.49
  176.99        3345.00           6791           6.00         2.00
  177.01        3345.25           6795           4.00         2.00
  177.04        3345.50           6799           8.00         7.85
  177.07        3345.75           6803           7.00         3.49
  177.10        3346.00           6806           4.00         2.00
  177.12        3346.25           6810           4.00         2.00
  177.15        3346.50           6814           6.00         2.00
  177.18        3346.75           6818           5.00         2.00
  177.20        3347.00           6821           7.00         3.49
  177.23        3347.25           6825           4.00         2.00
  177.26        3347.50           6829           7.00         3.49
  177.29        3347.75           6833           7.00         3.49
  177.31        3348.00           6836           3.00         2.00
  177.34        3348.25           6840           5.00         2.00
  177.37        3348.50           6844           6.00         2.00
  177.39        3348.75           6848           7.00         3.49
  177.42        3349.00           6851           8.00         7.85
  177.45        3349.25           6855           7.00         3.49
  177.48        3349.50           6859           7.00         3.49
  177.50        3349.75           6863           5.00         2.00
  177.53        3350.00           6867           6.00         2.00
  177.56        3350.25           6870           5.00         2.00
  177.59        3350.50           6874           2.00         2.00
  177.61        3350.75           6878           6.00         2.00
  177.64        3351.00           6882           5.00         2.00
HL scan finished at 02:58:16
end
