************************************************************
  HL Scan of (1) Internal mercury lamp
************************************************************
Integration time is 0.2294 seconds per sample
dh200617Tamanrasset 22.79-5.529 3.388789pr865
************************************************************
Dead Time -------------------------  2.8E-08 
Number of Cycles Used -------------  4 
Starting Wavelength (Angstroms) ---  3331 
Final Wavelength (Angstoms) -------  3351 
Wavelength Increment (Angstroms) --  .25 
Filter Wheel #1 Position ---------- (1) Ground quartz diffuser (ND=2.32)
Filter Wheel #2 Position ---------- (0) Clear Aperture



************************************************************
HL scan start time = 02:52:57
Dark Count =  5.5 


Time (GMT)  Wavelength (Ang)  Step Number  Raw Counts  Counts/Second

  173.46        3331.00           6581           7.00         6.54
  173.68        3331.25           6585           6.00         2.18
  173.71        3331.50           6589           8.00        10.90
  173.73        3331.75           6593           7.00         6.54
  173.76        3332.00           6596           9.00        15.26
  173.79        3332.25           6600           5.00         2.00
  173.82        3332.50           6604           7.00         6.54
  173.84        3332.75           6608           7.00         6.54
  173.87        3333.00           6611           6.00         2.18
  173.90        3333.25           6615           8.00        10.90
  173.92        3333.50           6619           6.00         2.18
  173.95        3333.75           6623           8.00        10.90
  173.98        3334.00           6626           5.00         2.00
  174.01        3334.25           6630           9.00        15.26
  174.03        3334.50           6634           7.00         6.54
  174.06        3334.75           6638           5.00         2.00
  174.09        3335.00           6641           5.00         2.00
  174.11        3335.25           6645           7.00         6.54
  174.14        3335.50           6649           7.00         6.54
  174.17        3335.75           6653           6.00         2.18
  174.20        3336.00           6656           7.00         6.54
  174.22        3336.25           6660           5.00         2.00
  174.25        3336.50           6664           8.00        10.90
  174.28        3336.75           6668           6.00         2.18
  174.30        3337.00           6671           8.00        10.90
  174.33        3337.25           6675           3.00         2.00
  174.36        3337.50           6679           7.00         6.54
  174.39        3337.75           6683           6.00         2.18
  174.41        3338.00           6686           5.00         2.00
  174.44        3338.25           6690           8.00        10.90
  174.47        3338.50           6694           6.00         2.18
  174.49        3338.75           6698           7.00         6.54
  174.52        3339.00           6701           7.00         6.54
  174.55        3339.25           6705           6.00         2.18
  174.57        3339.50           6709           5.00         2.00
  174.60        3339.75           6713           8.00        10.90
  174.63        3340.00           6716           8.00        10.90
  174.66        3340.25           6720           8.00        10.90
  174.68        3340.50           6724           8.00        10.90
  174.71        3340.75           6728           6.00         2.18
  174.74        3341.00           6731           8.00        10.90
  174.76        3341.25           6735           6.00         2.18
  174.79        3341.50           6739           4.00         2.00
  174.82        3341.75           6743           8.00        10.90
  174.85        3342.00           6746           5.00         2.00
  174.87        3342.25           6750           9.00        15.26
  174.90        3342.50           6754           4.00         2.00
  174.93        3342.75           6758           3.00         2.00
  174.96        3343.00           6761           6.00         2.18
  174.98        3343.25           6765           7.00         6.54
  175.01        3343.50           6769           9.00        15.26
  175.04        3343.75           6773           7.00         6.54
  175.06        3344.00           6776           8.00        10.90
  175.09        3344.25           6780           7.00         6.54
  175.12        3344.50           6784           4.00         2.00
  175.14        3344.75           6788           4.00         2.00
  175.17        3345.00           6791           3.00         2.00
  175.20        3345.25           6795           6.00         2.18
  175.23        3345.50           6799           9.00        15.26
  175.25        3345.75           6803           4.00         2.00
  175.28        3346.00           6806           3.00         2.00
  175.31        3346.25           6810           7.00         6.54
  175.34        3346.50           6814           6.00         2.18
  175.36        3346.75           6818           8.00        10.90
  175.39        3347.00           6821           5.00         2.00
  175.42        3347.25           6825           9.00        15.26
  175.44        3347.50           6829           6.00         2.18
  175.47        3347.75           6833           7.00         6.54
  175.50        3348.00           6836           3.00         2.00
  175.53        3348.25           6840           5.00         2.00
  175.55        3348.50           6844           6.00         2.18
  175.58        3348.75           6848           7.00         6.54
  175.61        3349.00           6851           7.00         6.54
  175.63        3349.25           6855           6.00         2.18
  175.66        3349.50           6859           3.00         2.00
  175.69        3349.75           6863           6.00         2.18
  175.72        3350.00           6867           6.00         2.18
  175.74        3350.25           6870           7.00         6.54
  175.77        3350.50           6874           6.00         2.18
  175.80        3350.75           6878           6.00         2.18
  175.83        3351.00           6882           7.00         6.54
HL scan finished at 02:56:27
end
