************************************************************
  HL Scan of (1) Internal mercury lamp
************************************************************
Integration time is 0.2294 seconds per sample
dh280617Tamanrasset 22.79-5.529 1.784871pr865
************************************************************
Dead Time -------------------------  2.8E-08 
Number of Cycles Used -------------  4 
Starting Wavelength (Angstroms) ---  3331 
Final Wavelength (Angstoms) -------  3351 
Wavelength Increment (Angstroms) --  .25 
Filter Wheel #1 Position ---------- (1) Ground quartz diffuser (ND=2.32)
Filter Wheel #2 Position ---------- (0) Clear Aperture



************************************************************
HL scan start time = 02:54:29
Dark Count =  5.5 


Time (GMT)  Wavelength (Ang)  Step Number  Raw Counts  Counts/Second

  175.00        3331.00           6581           6.00         2.18
  175.22        3331.25           6585           8.00        10.90
  175.25        3331.50           6589           6.00         2.18
  175.27        3331.75           6593           4.00         2.00
  175.30        3332.00           6596           5.00         2.00
  175.33        3332.25           6600           5.00         2.00
  175.35        3332.50           6604           6.00         2.18
  175.38        3332.75           6608           4.00         2.00
  175.41        3333.00           6611           5.00         2.00
  175.44        3333.25           6615           7.00         6.54
  175.46        3333.50           6619           3.00         2.00
  175.49        3333.75           6623           4.00         2.00
  175.52        3334.00           6626           4.00         2.00
  175.54        3334.25           6630           7.00         6.54
  175.57        3334.50           6634           3.00         2.00
  175.60        3334.75           6638           5.00         2.00
  175.63        3335.00           6641           4.00         2.00
  175.65        3335.25           6645           6.00         2.18
  175.68        3335.50           6649           5.00         2.00
  175.71        3335.75           6653           7.00         6.54
  175.73        3336.00           6656           2.00         2.00
  175.76        3336.25           6660           2.00         2.00
  175.79        3336.50           6664           5.00         2.00
  175.82        3336.75           6668           6.00         2.18
  175.84        3337.00           6671           8.00        10.90
  175.87        3337.25           6675           8.00        10.90
  175.90        3337.50           6679           2.00         2.00
  175.92        3337.75           6683           7.00         6.54
  175.95        3338.00           6686           6.00         2.18
  175.98        3338.25           6690           7.00         6.54
  176.01        3338.50           6694           4.00         2.00
  176.03        3338.75           6698           9.00        15.26
  176.06        3339.00           6701           5.00         2.00
  176.09        3339.25           6705           5.00         2.00
  176.12        3339.50           6709           3.00         2.00
  176.14        3339.75           6713           5.00         2.00
  176.17        3340.00           6716           6.00         2.18
  176.20        3340.25           6720           6.00         2.18
  176.22        3340.50           6724           6.00         2.18
  176.25        3340.75           6728           5.00         2.00
  176.28        3341.00           6731           6.00         2.18
  176.31        3341.25           6735           4.00         2.00
  176.33        3341.50           6739           6.00         2.18
  176.36        3341.75           6743           8.00        10.90
  176.39        3342.00           6746           1.00         2.00
  176.41        3342.25           6750           6.00         2.18
  176.44        3342.50           6754           9.00        15.26
  176.47        3342.75           6758           2.00         2.00
  176.50        3343.00           6761           4.00         2.00
  176.52        3343.25           6765           8.00        10.90
  176.55        3343.50           6769           4.00         2.00
  176.58        3343.75           6773           4.00         2.00
  176.60        3344.00           6776           2.00         2.00
  176.63        3344.25           6780           3.00         2.00
  176.66        3344.50           6784           6.00         2.18
  176.68        3344.75           6788           3.00         2.00
  176.71        3345.00           6791           5.00         2.00
  176.74        3345.25           6795           6.00         2.18
  176.77        3345.50           6799           8.00        10.90
  176.79        3345.75           6803           6.00         2.18
  176.82        3346.00           6806           6.00         2.18
  176.85        3346.25           6810           3.00         2.00
  176.87        3346.50           6814           4.00         2.00
  176.90        3346.75           6818           7.00         6.54
  176.93        3347.00           6821           8.00        10.90
  176.96        3347.25           6825           6.00         2.18
  176.98        3347.50           6829           5.00         2.00
  177.01        3347.75           6833           8.00        10.90
  177.04        3348.00           6836           7.00         6.54
  177.06        3348.25           6840           4.00         2.00
  177.09        3348.50           6844           7.00         6.54
  177.12        3348.75           6848           5.00         2.00
  177.15        3349.00           6851           9.00        15.26
  177.17        3349.25           6855           4.00         2.00
  177.20        3349.50           6859           4.00         2.00
  177.23        3349.75           6863           2.00         2.00
  177.25        3350.00           6867           6.00         2.18
  177.28        3350.25           6870           4.00         2.00
  177.31        3350.50           6874           3.00         2.00
  177.34        3350.75           6878           7.00         6.54
  177.36        3351.00           6882           5.00         2.00
HL scan finished at 02:57:59
end
