************************************************************
  HL Scan of (1) Internal mercury lamp
************************************************************
Integration time is 0.2294 seconds per sample
dh240617Tamanrasset 22.79-5.529 2.924843pr865
************************************************************
Dead Time -------------------------  2.8E-08 
Number of Cycles Used -------------  4 
Starting Wavelength (Angstroms) ---  3331 
Final Wavelength (Angstoms) -------  3351 
Wavelength Increment (Angstroms) --  .25 
Filter Wheel #1 Position ---------- (1) Ground quartz diffuser (ND=2.32)
Filter Wheel #2 Position ---------- (0) Clear Aperture



************************************************************
HL scan start time = 02:53:45
Dark Count =  4.7 


Time (GMT)  Wavelength (Ang)  Step Number  Raw Counts  Counts/Second

  174.27        3331.00           6581           6.00         5.67
  174.48        3331.25           6585           7.00        10.03
  174.51        3331.50           6589           2.00         2.00
  174.54        3331.75           6593           5.00         2.00
  174.56        3332.00           6596           6.00         5.67
  174.59        3332.25           6600           3.00         2.00
  174.62        3332.50           6604           2.00         2.00
  174.65        3332.75           6608           2.00         2.00
  174.67        3333.00           6611           8.00        14.39
  174.70        3333.25           6615           5.00         2.00
  174.73        3333.50           6619           5.00         2.00
  174.76        3333.75           6623           8.00        14.39
  174.78        3334.00           6626           2.00         2.00
  174.81        3334.25           6630           2.00         2.00
  174.84        3334.50           6634           0.00         2.00
  174.86        3334.75           6638           8.00        14.39
  174.89        3335.00           6641           4.00         2.00
  174.92        3335.25           6645           7.00        10.03
  174.95        3335.50           6649           6.00         5.67
  174.97        3335.75           6653           7.00        10.03
  175.00        3336.00           6656           3.00         2.00
  175.03        3336.25           6660           3.00         2.00
  175.05        3336.50           6664           8.00        14.39
  175.08        3336.75           6668           3.00         2.00
  175.11        3337.00           6671           6.00         5.67
  175.13        3337.25           6675           6.00         5.67
  175.16        3337.50           6679           5.00         2.00
  175.19        3337.75           6683           6.00         5.67
  175.22        3338.00           6686           2.00         2.00
  175.24        3338.25           6690           8.00        14.39
  175.27        3338.50           6694           1.00         2.00
  175.30        3338.75           6698           0.00         2.00
  175.32        3339.00           6701           4.00         2.00
  175.35        3339.25           6705           1.00         2.00
  175.38        3339.50           6709           1.00         2.00
  175.41        3339.75           6713           8.00        14.39
  175.43        3340.00           6716           3.00         2.00
  175.46        3340.25           6720           1.00         2.00
  175.49        3340.50           6724           7.00        10.03
  175.51        3340.75           6728           2.00         2.00
  175.54        3341.00           6731           4.00         2.00
  175.57        3341.25           6735           8.00        14.39
  175.60        3341.50           6739           5.00         2.00
  175.62        3341.75           6743           7.00        10.03
  175.65        3342.00           6746           7.00        10.03
  175.68        3342.25           6750           8.00        14.39
  175.70        3342.50           6754           3.00         2.00
  175.73        3342.75           6758           8.00        14.39
  175.76        3343.00           6761           6.00         5.67
  175.79        3343.25           6765           8.00        14.39
  175.81        3343.50           6769           2.00         2.00
  175.84        3343.75           6773           7.00        10.03
  175.87        3344.00           6776           8.00        14.39
  175.89        3344.25           6780           5.00         2.00
  175.92        3344.50           6784           7.00        10.03
  175.95        3344.75           6788           1.00         2.00
  175.98        3345.00           6791           4.00         2.00
  176.00        3345.25           6795           8.00        14.39
  176.03        3345.50           6799           3.00         2.00
  176.06        3345.75           6803           0.00         2.00
  176.08        3346.00           6806           6.00         5.67
  176.11        3346.25           6810           5.00         2.00
  176.14        3346.50           6814           4.00         2.00
  176.16        3346.75           6818           8.00        14.39
  176.19        3347.00           6821           0.00         2.00
  176.22        3347.25           6825           4.00         2.00
  176.25        3347.50           6829           6.00         5.67
  176.27        3347.75           6833           8.00        14.39
  176.30        3348.00           6836           3.00         2.00
  176.33        3348.25           6840           8.00        14.39
  176.35        3348.50           6844           1.00         2.00
  176.38        3348.75           6848           0.00         2.00
  176.41        3349.00           6851           6.00         5.67
  176.44        3349.25           6855           6.00         5.67
  176.46        3349.50           6859           6.00         5.67
  176.49        3349.75           6863           4.00         2.00
  176.52        3350.00           6867           9.00        18.74
  176.54        3350.25           6870           4.00         2.00
  176.57        3350.50           6874           8.00        14.39
  176.60        3350.75           6878           3.00         2.00
  176.63        3351.00           6882           5.00         2.00
HL scan finished at 02:57:15
end
