************************************************************
  HL Scan of (1) Internal mercury lamp
************************************************************
Integration time is 0.2294 seconds per sample
dh010717Tamanrasset 22.79-5.529 3.419379pr865
************************************************************
Dead Time -------------------------  2.8E-08 
Number of Cycles Used -------------  4 
Starting Wavelength (Angstroms) ---  3331 
Final Wavelength (Angstoms) -------  3351 
Wavelength Increment (Angstroms) --  .25 
Filter Wheel #1 Position ---------- (1) Ground quartz diffuser (ND=2.32)
Filter Wheel #2 Position ---------- (0) Clear Aperture



************************************************************
HL scan start time = 03:23:11
Dark Count =  6.9 


Time (GMT)  Wavelength (Ang)  Step Number  Raw Counts  Counts/Second

  203.70        3331.00           6581          36.00       126.85
  203.92        3331.25           6585          39.00       139.93
  203.95        3331.50           6589          31.00       105.06
  203.97        3331.75           6593          37.00       131.21
  204.00        3332.00           6596          31.00       105.06
  204.03        3332.25           6600          31.00       105.06
  204.06        3332.50           6604          32.00       109.42
  204.08        3332.75           6608          35.00       122.49
  204.11        3333.00           6611          33.00       113.78
  204.14        3333.25           6615          35.00       122.49
  204.16        3333.50           6619          33.00       113.78
  204.19        3333.75           6623          34.00       118.13
  204.22        3334.00           6626          32.00       109.42
  204.25        3334.25           6630          29.00        96.34
  204.27        3334.50           6634          31.00       105.06
  204.30        3334.75           6638          39.00       139.93
  204.33        3335.00           6641          34.00       118.13
  204.36        3335.25           6645          34.00       118.13
  204.38        3335.50           6649          44.00       161.73
  204.41        3335.75           6653          70.00       275.07
  204.44        3336.00           6656         171.00       715.36
  204.47        3336.25           6660         550.00      2367.64
  204.49        3336.50           6664        1240.00      5376.14
  204.52        3336.75           6668        2094.00      9100.40
  204.55        3337.00           6671        2834.00     12328.14
  204.57        3337.25           6675        4815.00     20971.77
  204.60        3337.50           6679        7083.00     30872.80
  204.63        3337.75           6683        9170.00     39988.52
  204.66        3338.00           6686       10665.00     46521.33
  204.68        3338.25           6690       13045.00     56926.33
  204.71        3338.50           6694       15394.00     67201.75
  204.74        3338.75           6698       17562.00     76690.66
  204.77        3339.00           6701       19313.00     84358.13
  204.79        3339.25           6705       21742.00     94999.96
  204.82        3339.50           6709       24070.00    105205.30
  204.85        3339.75           6713       26257.00    114797.80
  204.88        3340.00           6716       28088.00    122832.80
  204.90        3340.25           6720       30278.00    132448.00
  204.93        3340.50           6724       32539.00    142380.40
  204.96        3340.75           6728       34716.00    151949.00
  204.99        3341.00           6731       36240.00    158650.50
  205.01        3341.25           6735       38138.00    167000.10
  205.04        3341.50           6739       39534.00    173143.90
  205.07        3341.75           6743       40205.00    176097.60
  205.10        3342.00           6746       40203.00    176088.80
  205.13        3342.25           6750       39678.00    173777.70
  205.15        3342.50           6754       37810.00    165556.90
  205.18        3342.75           6758       35574.00    155721.50
  205.21        3343.00           6761       34294.00    150093.70
  205.24        3343.25           6765       32092.00    140416.30
  205.26        3343.50           6769       29829.00    130476.20
  205.29        3343.75           6773       27740.00    121305.40
  205.32        3344.00           6776       25837.00    112955.20
  205.34        3344.25           6780       23461.00    102535.00
  205.37        3344.50           6784       21059.00     92007.00
  205.40        3344.75           6788       18686.00     81612.18
  205.43        3345.00           6791       16606.00     72505.82
  205.45        3345.25           6795       13608.00     59388.57
  205.48        3345.50           6799       10708.00     46709.26
  205.51        3345.75           6803        8303.00     36201.02
  205.54        3346.00           6806        6576.00     28659.00
  205.56        3346.25           6810        4451.00     19383.23
  205.59        3346.50           6814        3147.00     13693.57
  205.62        3346.75           6818        2189.00      9514.74
  205.65        3347.00           6821        1307.00      5668.29
  205.67        3347.25           6825         403.00      1726.76
  205.70        3347.50           6829          89.00       357.89
  205.73        3347.75           6833          54.00       205.32
  205.76        3348.00           6836          41.00       148.65
  205.78        3348.25           6840          40.00       144.29
  205.81        3348.50           6844          35.00       122.49
  205.84        3348.75           6848          41.00       148.65
  205.87        3349.00           6851          36.00       126.85
  205.89        3349.25           6855          41.00       148.65
  205.92        3349.50           6859          41.00       148.65
  205.95        3349.75           6863          40.00       144.29
  205.98        3350.00           6867          38.00       135.57
  206.00        3350.25           6870          38.00       135.57
  206.03        3350.50           6874          36.00       126.85
  206.06        3350.75           6878          36.00       126.85
  206.08        3351.00           6882          36.00       126.85
HL scan finished at 03:26:42
end
