************************************************************
  HL Scan of (1) Internal mercury lamp
************************************************************
Integration time is 0.2294 seconds per sample
dh030717Tamanrasset 22.79-5.529 3.470362pr865
************************************************************
Dead Time -------------------------  2.8E-08 
Number of Cycles Used -------------  4 
Starting Wavelength (Angstroms) ---  3331 
Final Wavelength (Angstoms) -------  3351 
Wavelength Increment (Angstroms) --  .25 
Filter Wheel #1 Position ---------- (1) Ground quartz diffuser (ND=2.32)
Filter Wheel #2 Position ---------- (0) Clear Aperture



************************************************************
HL scan start time = 03:23:38
Dark Count =  6.9 


Time (GMT)  Wavelength (Ang)  Step Number  Raw Counts  Counts/Second

  204.14        3331.00           6581          28.00        91.98
  204.36        3331.25           6585          38.00       135.57
  204.39        3331.50           6589          35.00       122.49
  204.41        3331.75           6593          34.00       118.13
  204.44        3332.00           6596          42.00       153.01
  204.47        3332.25           6600          38.00       135.57
  204.50        3332.50           6604          35.00       122.49
  204.52        3332.75           6608          35.00       122.49
  204.55        3333.00           6611          33.00       113.78
  204.58        3333.25           6615          31.00       105.06
  204.61        3333.50           6619          32.00       109.42
  204.63        3333.75           6623          35.00       122.49
  204.66        3334.00           6626          33.00       113.78
  204.69        3334.25           6630          34.00       118.13
  204.72        3334.50           6634          34.00       118.13
  204.74        3334.75           6638          38.00       135.57
  204.77        3335.00           6641          39.00       139.93
  204.80        3335.25           6645          42.00       153.01
  204.82        3335.50           6649          47.00       174.80
  204.85        3335.75           6653          65.00       253.27
  204.88        3336.00           6656         146.00       606.37
  204.91        3336.25           6660         487.00      2092.97
  204.93        3336.50           6664        1276.00      5533.12
  204.96        3336.75           6668        2259.00      9820.05
  204.99        3337.00           6671        2714.00     11804.69
  205.02        3337.25           6675        4611.00     20081.47
  205.04        3337.50           6679        6737.00     29361.97
  205.07        3337.75           6683        8918.00     38887.57
  205.10        3338.00           6686       10591.00     46197.91
  205.13        3338.25           6690       12966.00     56580.85
  205.15        3338.50           6694       15138.00     66081.62
  205.18        3338.75           6698       17511.00     76467.38
  205.21        3339.00           6701       19411.00     84787.37
  205.24        3339.25           6705       21823.00     95354.94
  205.26        3339.50           6709       23929.00    104587.00
  205.29        3339.75           6713       26344.00    115179.50
  205.32        3340.00           6716       28270.00    123631.70
  205.35        3340.25           6720       30612.00    133914.90
  205.37        3340.50           6724       32762.00    143360.30
  205.40        3340.75           6728       34840.00    152494.10
  205.43        3341.00           6731       36513.00    159851.20
  205.46        3341.25           6735       38296.00    167695.40
  205.48        3341.50           6739       40179.00    175983.20
  205.51        3341.75           6743       40921.00    179250.10
  205.54        3342.00           6746       41019.00    179681.60
  205.57        3342.25           6750       40517.00    177471.20
  205.59        3342.50           6754       38736.00    169631.60
  205.62        3342.75           6758       36187.00    158417.40
  205.65        3343.00           6761       34923.00    152859.10
  205.68        3343.25           6765       32569.00    142512.20
  205.70        3343.50           6769       30704.00    134318.90
  205.73        3343.75           6773       28466.00    124492.10
  205.76        3344.00           6776       26678.00    116645.00
  205.79        3344.25           6780       24548.00    107301.40
  205.81        3344.50           6784       21982.00     96051.79
  205.84        3344.75           6788       19543.00     85365.53
  205.87        3345.00           6791       17481.00     76336.05
  205.90        3345.25           6795       15021.00     65569.71
  205.92        3345.50           6799       11378.00     49637.82
  205.95        3345.75           6803        9026.00     39359.40
  205.98        3346.00           6806        7296.00     31802.94
  206.00        3346.25           6810        5064.00     22058.52
  206.03        3346.50           6814        3522.00     15329.60
  206.06        3346.75           6818        2302.00     10007.60
  206.09        3347.00           6821        1487.00      6453.22
  206.11        3347.25           6825         496.00      2132.21
  206.14        3347.50           6829         116.00       475.59
  206.17        3347.75           6833          48.00       179.16
  206.20        3348.00           6836          40.00       144.29
  206.22        3348.25           6840          42.00       153.01
  206.25        3348.50           6844          35.00       122.49
  206.28        3348.75           6848          39.00       139.93
  206.31        3349.00           6851          40.00       144.29
  206.33        3349.25           6855          39.00       139.93
  206.36        3349.50           6859          40.00       144.29
  206.39        3349.75           6863          33.00       113.78
  206.42        3350.00           6867          36.00       126.85
  206.44        3350.25           6870          37.00       131.21
  206.47        3350.50           6874          33.00       113.78
  206.50        3350.75           6878          33.00       113.78
  206.52        3351.00           6882          35.00       122.49
HL scan finished at 03:27:09
end
