************************************************************
  HL Scan of (1) Internal mercury lamp
************************************************************
Integration time is 0.2294 seconds per sample
dh300617Tamanrasset 22.79-5.529 3.353101pr865
************************************************************
Dead Time -------------------------  2.8E-08 
Number of Cycles Used -------------  4 
Starting Wavelength (Angstroms) ---  3331 
Final Wavelength (Angstoms) -------  3351 
Wavelength Increment (Angstroms) --  .25 
Filter Wheel #1 Position ---------- (1) Ground quartz diffuser (ND=2.32)
Filter Wheel #2 Position ---------- (0) Clear Aperture



************************************************************
HL scan start time = 03:23:08
Dark Count =  6.4 


Time (GMT)  Wavelength (Ang)  Step Number  Raw Counts  Counts/Second

  203.65        3331.00           6581          37.00       133.39
  203.87        3331.25           6585          28.00        94.16
  203.89        3331.50           6589          31.00       107.24
  203.92        3331.75           6593          35.00       124.67
  203.95        3332.00           6596          37.00       133.39
  203.97        3332.25           6600          33.00       115.96
  204.00        3332.50           6604          33.00       115.96
  204.03        3332.75           6608          29.00        98.52
  204.06        3333.00           6611          32.00       111.60
  204.08        3333.25           6615          34.00       120.31
  204.11        3333.50           6619          36.00       129.03
  204.14        3333.75           6623          36.00       129.03
  204.17        3334.00           6626          35.00       124.67
  204.19        3334.25           6630          31.00       107.24
  204.22        3334.50           6634          36.00       129.03
  204.25        3334.75           6638          32.00       111.60
  204.27        3335.00           6641          34.00       120.31
  204.30        3335.25           6645          36.00       129.03
  204.33        3335.50           6649          45.00       168.27
  204.36        3335.75           6653          43.00       159.55
  204.38        3336.00           6656          92.00       373.15
  204.41        3336.25           6660         304.00      1297.34
  204.44        3336.50           6664         874.00      3782.44
  204.47        3336.75           6668        1668.00      7244.71
  204.49        3337.00           6671        1960.00      8518.16
  204.52        3337.25           6675        3610.00     15715.72
  204.55        3337.50           6679        5596.00     24382.82
  204.57        3337.75           6683        7777.00     33905.76
  204.60        3338.00           6686        9512.00     41484.95
  204.63        3338.25           6690       11717.00     51121.95
  204.66        3338.50           6694       13918.00     60746.65
  204.68        3338.75           6698       16064.00     70135.86
  204.71        3339.00           6701       17727.00     77415.23
  204.74        3339.25           6705       20005.00     87391.44
  204.77        3339.50           6709       22266.00     97298.72
  204.79        3339.75           6713       24579.00    107439.60
  204.82        3340.00           6716       26259.00    114808.80
  204.85        3340.25           6720       28257.00    123576.80
  204.88        3340.50           6724       30523.00    133526.20
  204.90        3340.75           6728       32702.00    143098.80
  204.93        3341.00           6731       34156.00    149489.30
  204.96        3341.25           6735       36070.00    157905.00
  204.99        3341.50           6739       37671.00    164947.50
  205.02        3341.75           6743       38841.00    170095.90
  205.04        3342.00           6746       39161.00    171504.30
  205.07        3342.25           6750       38658.00    169290.60
  205.10        3342.50           6754       37542.00    164380.00
  205.13        3342.75           6758       35128.00    153762.60
  205.15        3343.00           6761       33857.00    148175.00
  205.18        3343.25           6765       31356.00    137185.10
  205.21        3343.50           6769       29886.00    130728.70
  205.24        3343.75           6773       27627.00    120811.60
  205.26        3344.00           6776       25721.00    112448.50
  205.29        3344.25           6780       23677.00    103484.30
  205.32        3344.50           6784       21449.00     93718.15
  205.34        3344.75           6788       19142.00     83611.38
  205.37        3345.00           6791       17227.00     75226.29
  205.40        3345.25           6795       14897.00     65029.37
  205.43        3345.50           6799       11413.00     49793.00
  205.45        3345.75           6803        9005.00     39269.83
  205.48        3346.00           6806        7337.00     31984.17
  205.51        3346.25           6810        5270.00     22959.83
  205.54        3346.50           6814        3903.00     16994.14
  205.56        3346.75           6818        2611.00     11357.58
  205.59        3347.00           6821        1769.00      7685.18
  205.62        3347.25           6825         668.00      2884.28
  205.65        3347.50           6829         154.00       643.43
  205.67        3347.75           6833          48.00       181.34
  205.70        3348.00           6836          44.00       163.91
  205.73        3348.25           6840          39.00       142.11
  205.76        3348.50           6844          40.00       146.47
  205.78        3348.75           6848          38.00       137.75
  205.81        3349.00           6851          37.00       133.39
  205.84        3349.25           6855          37.00       133.39
  205.87        3349.50           6859          38.00       137.75
  205.89        3349.75           6863          34.00       120.31
  205.92        3350.00           6867          36.00       129.03
  205.95        3350.25           6870          40.00       146.47
  205.98        3350.50           6874          38.00       137.75
  206.00        3350.75           6878          37.00       133.39
  206.03        3351.00           6882          30.00       102.88
HL scan finished at 03:26:39
end
