************************************************************
  HL Scan of (1) Internal mercury lamp
************************************************************
Integration time is 0.2294 seconds per sample
dh150917Tamanrasset 22.79-5.529 3.17466pr865
************************************************************
Dead Time -------------------------  2.8E-08 
Number of Cycles Used -------------  4 
Starting Wavelength (Angstroms) ---  3331 
Final Wavelength (Angstoms) -------  3351 
Wavelength Increment (Angstroms) --  .25 
Filter Wheel #1 Position ---------- (1) Ground quartz diffuser (ND=2.32)
Filter Wheel #2 Position ---------- (0) Clear Aperture



************************************************************
HL scan start time = 03:53:11
Dark Count =  5.5 


Time (GMT)  Wavelength (Ang)  Step Number  Raw Counts  Counts/Second

  233.70        3331.00           6581          31.00       111.16
  233.92        3331.25           6585          30.00       106.80
  233.95        3331.50           6589          35.00       128.60
  233.98        3331.75           6593          31.00       111.16
  234.00        3332.00           6596          28.00        98.08
  234.03        3332.25           6600          28.00        98.08
  234.06        3332.50           6604          34.00       124.24
  234.08        3332.75           6608          28.00        98.08
  234.11        3333.00           6611          32.00       115.52
  234.14        3333.25           6615          31.00       111.16
  234.17        3333.50           6619          31.00       111.16
  234.19        3333.75           6623          28.00        98.08
  234.22        3334.00           6626          33.00       119.88
  234.25        3334.25           6630          37.00       137.32
  234.27        3334.50           6634          29.00       102.44
  234.30        3334.75           6638          31.00       111.16
  234.33        3335.00           6641          29.00       102.44
  234.36        3335.25           6645          35.00       128.60
  234.38        3335.50           6649          35.00       128.60
  234.41        3335.75           6653          47.00       180.91
  234.44        3336.00           6656          99.00       407.59
  234.46        3336.25           6660         311.00      1331.78
  234.49        3336.50           6664         643.00      2779.21
  234.52        3336.75           6668        1282.00      5565.38
  234.55        3337.00           6671        1876.00      8155.74
  234.57        3337.25           6675        3452.00     15030.30
  234.60        3337.50           6679        5272.00     22972.49
  234.63        3337.75           6683        7230.00     31520.83
  234.66        3338.00           6686        8679.00     37849.60
  234.68        3338.25           6690       10669.00     46544.93
  234.71        3338.50           6694       12565.00     54833.47
  234.74        3338.75           6698       14588.00     63681.46
  234.76        3339.00           6701       16084.00     70227.32
  234.79        3339.25           6705       18056.00     78859.65
  234.82        3339.50           6709       20124.00     87916.68
  234.85        3339.75           6713       22168.00     96873.14
  234.87        3340.00           6716       23536.00    102870.00
  234.90        3340.25           6720       25618.00    112000.60
  234.93        3340.50           6724       27464.00    120100.20
  234.96        3340.75           6728       29487.00    128980.70
  234.98        3341.00           6731       30783.00    134672.10
  235.01        3341.25           6735       32391.00    141736.20
  235.04        3341.50           6739       33657.00    147299.80
  235.07        3341.75           6743       34095.00    149225.10
  235.09        3342.00           6746       34373.00    150447.20
  235.12        3342.25           6750       33959.00    148627.30
  235.15        3342.50           6754       32786.00    143471.90
  235.17        3342.75           6758       30970.00    135493.50
  235.20        3343.00           6761       29548.00    129248.50
  235.23        3343.25           6765       27807.00    121605.60
  235.26        3343.50           6769       25866.00    113088.60
  235.28        3343.75           6773       23864.00    104308.10
  235.31        3344.00           6776       22411.00     97938.21
  235.34        3344.25           6780       20405.00     89147.71
  235.37        3344.50           6784       18457.00     80615.50
  235.39        3344.75           6788       16345.00     71369.60
  235.42        3345.00           6791       14586.00     63672.71
  235.45        3345.25           6795       12189.00     53189.44
  235.48        3345.50           6799        9784.00     42677.39
  235.50        3345.75           6803        7426.00     32376.77
  235.53        3346.00           6806        5878.00     25617.76
  235.56        3346.25           6810        4103.00     17870.76
  235.59        3346.50           6814        3231.00     14066.13
  235.61        3346.75           6818        2159.00      9390.00
  235.64        3347.00           6821        1246.00      5408.40
  235.67        3347.25           6825         421.00      1811.34
  235.69        3347.50           6829          90.00       368.36
  235.72        3347.75           6833          41.00       154.75
  235.75        3348.00           6836          41.00       154.75
  235.78        3348.25           6840          41.00       154.75
  235.80        3348.50           6844          39.00       146.03
  235.83        3348.75           6848          34.00       124.24
  235.86        3349.00           6851          33.00       119.88
  235.88        3349.25           6855          32.00       115.52
  235.91        3349.50           6859          30.00       106.80
  235.94        3349.75           6863          35.00       128.60
  235.97        3350.00           6867          33.00       119.88
  235.99        3350.25           6870          33.00       119.88
  236.02        3350.50           6874          31.00       111.16
  236.05        3350.75           6878          36.00       132.96
  236.08        3351.00           6882          29.00       102.44
HL scan finished at 03:56:42
end
