************************************************************
  HL Scan of (1) Internal mercury lamp
************************************************************
Integration time is 0.2294 seconds per sample
dh110917Tamanrasset 22.79-5.529 3.409182pr865
************************************************************
Dead Time -------------------------  2.8E-08 
Number of Cycles Used -------------  4 
Starting Wavelength (Angstroms) ---  3331 
Final Wavelength (Angstoms) -------  3351 
Wavelength Increment (Angstroms) --  .25 
Filter Wheel #1 Position ---------- (1) Ground quartz diffuser (ND=2.32)
Filter Wheel #2 Position ---------- (0) Clear Aperture



************************************************************
HL scan start time = 03:52:41
Dark Count =  6.2 


Time (GMT)  Wavelength (Ang)  Step Number  Raw Counts  Counts/Second

  233.20        3331.00           6581          32.00       112.47
  233.42        3331.25           6585          40.00       147.34
  233.45        3331.50           6589          33.00       116.83
  233.47        3331.75           6593          28.00        95.03
  233.50        3332.00           6596          32.00       112.47
  233.53        3332.25           6600          33.00       116.83
  233.56        3332.50           6604          34.00       121.19
  233.58        3332.75           6608          35.00       125.55
  233.61        3333.00           6611          32.00       112.47
  233.64        3333.25           6615          38.00       138.62
  233.66        3333.50           6619          34.00       121.19
  233.69        3333.75           6623          32.00       112.47
  233.72        3334.00           6626          31.00       108.11
  233.75        3334.25           6630          34.00       121.19
  233.77        3334.50           6634          34.00       121.19
  233.80        3334.75           6638          31.00       108.11
  233.83        3335.00           6641          39.00       142.98
  233.85        3335.25           6645          37.00       134.26
  233.88        3335.50           6649          41.00       151.70
  233.91        3335.75           6653          49.00       186.57
  233.94        3336.00           6656         115.00       474.29
  233.96        3336.25           6660         392.00      1681.86
  233.99        3336.50           6664        1055.00      4572.51
  234.02        3336.75           6668        1780.00      7734.02
  234.05        3337.00           6671        2409.00     10477.35
  234.07        3337.25           6675        4225.00     18400.06
  234.10        3337.50           6679        6333.00     27601.10
  234.13        3337.75           6683        8597.00     37488.33
  234.15        3338.00           6686       10219.00     44575.22
  234.18        3338.25           6690       12571.00     54856.65
  234.21        3338.50           6694       14871.00     64916.50
  234.24        3338.75           6698       17003.00     74246.61
  234.26        3339.00           6701       18768.00     81974.35
  234.29        3339.25           6705       20997.00     91738.39
  234.32        3339.50           6709       23381.00    102187.30
  234.35        3339.75           6713       25748.00    112567.90
  234.37        3340.00           6716       27389.00    119768.00
  234.40        3340.25           6720       29776.00    130246.60
  234.43        3340.50           6724       31839.00    139307.80
  234.46        3340.75           6728       34222.00    149780.30
  234.48        3341.00           6731       35886.00    157096.70
  234.51        3341.25           6735       37726.00    165190.40
  234.54        3341.50           6739       38830.00    170048.40
  234.57        3341.75           6743       39803.00    174331.00
  234.59        3342.00           6746       39965.00    175044.20
  234.62        3342.25           6750       39585.00    173371.40
  234.65        3342.50           6754       38031.00    166532.40
  234.67        3342.75           6758       35757.00    156529.40
  234.70        3343.00           6761       34389.00    150514.40
  234.73        3343.25           6765       32182.00    140814.80
  234.76        3343.50           6769       30121.00    131761.60
  234.78        3343.75           6773       27812.00    121624.50
  234.81        3344.00           6776       26070.00    113980.50
  234.84        3344.25           6780       23860.00    104287.50
  234.87        3344.50           6784       21374.00     93390.36
  234.89        3344.75           6788       19159.00     83686.71
  234.92        3345.00           6791       17269.00     75411.03
  234.95        3345.25           6795       14831.00     64741.49
  234.98        3345.50           6799       11317.00     49374.23
  235.00        3345.75           6803        8817.00     38449.39
  235.03        3346.00           6806        7101.00     30954.46
  235.06        3346.25           6810        4905.00     21367.62
  235.08        3346.50           6814        3557.00     15485.35
  235.11        3346.75           6818        2458.00     10691.08
  235.14        3347.00           6821        1614.00      7010.09
  235.17        3347.25           6825         526.00      2266.05
  235.19        3347.50           6829         120.00       496.08
  235.22        3347.75           6833          50.00       190.93
  235.25        3348.00           6836          42.00       156.06
  235.28        3348.25           6840          39.00       142.98
  235.30        3348.50           6844          41.00       151.70
  235.33        3348.75           6848          42.00       156.06
  235.36        3349.00           6851          44.00       164.78
  235.38        3349.25           6855          39.00       142.98
  235.41        3349.50           6859          35.00       125.55
  235.44        3349.75           6863          31.00       108.11
  235.47        3350.00           6867          33.00       116.83
  235.49        3350.25           6870          39.00       142.98
  235.52        3350.50           6874          35.00       125.55
  235.55        3350.75           6878          36.00       129.90
  235.57        3351.00           6882          35.00       125.55
HL scan finished at 03:56:12
end
