************************************************************
  HL Scan of (1) Internal mercury lamp
************************************************************
Integration time is 0.2294 seconds per sample
dh251018Tamanrasset 22.79-5.529 4.974364pr865
************************************************************
Dead Time -------------------------  2.8E-08 
Number of Cycles Used -------------  4 
Starting Wavelength (Angstroms) ---  3331 
Final Wavelength (Angstoms) -------  3351 
Wavelength Increment (Angstroms) --  .25 
Filter Wheel #1 Position ---------- (1) Ground quartz diffuser (ND=2.32)
Filter Wheel #2 Position ---------- (0) Clear Aperture



************************************************************
HL scan start time = 04:08:43
Dark Count =  4.3 


Time (GMT)  Wavelength (Ang)  Step Number  Raw Counts  Counts/Second

  249.22        3331.00           6581          28.00       103.31
  249.44        3331.25           6585          30.00       112.03
  249.47        3331.50           6589          29.00       107.67
  249.50        3331.75           6593          29.00       107.67
  249.52        3332.00           6596          25.00        90.24
  249.55        3332.25           6600          27.00        98.95
  249.58        3332.50           6604          27.00        98.95
  249.60        3332.75           6608          27.00        98.95
  249.63        3333.00           6611          28.00       103.31
  249.66        3333.25           6615          35.00       133.83
  249.69        3333.50           6619          30.00       112.03
  249.71        3333.75           6623          28.00       103.31
  249.74        3334.00           6626          29.00       107.67
  249.77        3334.25           6630          30.00       112.03
  249.79        3334.50           6634          31.00       116.39
  249.82        3334.75           6638          29.00       107.67
  249.85        3335.00           6641          29.00       107.67
  249.88        3335.25           6645          36.00       138.19
  249.90        3335.50           6649          30.00       112.03
  249.93        3335.75           6653          39.00       151.26
  249.96        3336.00           6656          61.00       247.17
  249.98        3336.25           6660         190.00       809.52
  250.01        3336.50           6664         593.00      2566.44
  250.04        3336.75           6668         889.00      3857.00
  250.07        3337.00           6671        1276.00      5544.45
  250.09        3337.25           6675        2550.00     11100.66
  250.12        3337.50           6679        4033.00     17570.54
  250.15        3337.75           6683        5646.00     24610.24
  250.18        3338.00           6686        6819.00     29731.37
  250.20        3338.25           6690        8617.00     37583.99
  250.23        3338.50           6694       10139.00     44233.92
  250.26        3338.75           6698       11821.00     51585.79
  250.28        3339.00           6701       12997.00     56727.79
  250.31        3339.25           6705       14874.00     64937.94
  250.34        3339.50           6709       16362.00     71449.25
  250.37        3339.75           6713       18128.00     79180.16
  250.39        3340.00           6716       19272.00     84189.94
  250.42        3340.25           6720       20960.00     91584.59
  250.45        3340.50           6724       22510.00     98377.41
  250.48        3340.75           6728       24193.00    105756.00
  250.50        3341.00           6731       25285.00    110545.20
  250.53        3341.25           6735       26630.00    116445.80
  250.56        3341.50           6739       28050.00    122677.40
  250.59        3341.75           6743       28587.00    125034.60
  250.61        3342.00           6746       28660.00    125355.10
  250.64        3342.25           6750       28653.00    125324.40
  250.67        3342.50           6754       27841.00    121760.10
  250.69        3342.75           6758       26205.00    114581.10
  250.72        3343.00           6761       24925.00    108966.20
  250.75        3343.25           6765       23556.00    102962.90
  250.78        3343.50           6769       21935.00     95857.19
  250.80        3343.75           6773       20398.00     89122.29
  250.83        3344.00           6776       19162.00     83708.18
  250.86        3344.25           6780       17539.00     76601.35
  250.89        3344.50           6784       15899.00     69422.96
  250.91        3344.75           6788       14238.00     62155.60
  250.94        3345.00           6791       12928.00     56426.05
  250.97        3345.25           6795       11060.00     48259.16
  251.00        3345.50           6799        8733.00     38090.74
  251.02        3345.75           6803        6598.00     28766.41
  251.05        3346.00           6806        5377.00     23436.04
  251.08        3346.25           6810        4071.00     17736.36
  251.11        3346.50           6814        3244.00     14128.08
  251.13        3346.75           6818        2123.00      9238.22
  251.16        3347.00           6821        1434.00      6233.43
  251.19        3347.25           6825         553.00      2392.05
  251.21        3347.50           6829         130.00       547.96
  251.24        3347.75           6833          40.00       155.62
  251.27        3348.00           6836          38.00       146.91
  251.30        3348.25           6840          35.00       133.83
  251.32        3348.50           6844          35.00       133.83
  251.35        3348.75           6848          31.00       116.39
  251.38        3349.00           6851          32.00       120.75
  251.40        3349.25           6855          31.00       116.39
  251.43        3349.50           6859          36.00       138.19
  251.46        3349.75           6863          38.00       146.91
  251.49        3350.00           6867          32.00       120.75
  251.51        3350.25           6870          33.00       125.11
  251.54        3350.50           6874          28.00       103.31
  251.57        3350.75           6878          32.00       120.75
  251.59        3351.00           6882          30.00       112.03
HL scan finished at 04:12:13
end
