************************************************************
  HL Scan of (1) Internal mercury lamp
************************************************************
Integration time is 0.2294 seconds per sample
dh281018Tamanrasset 22.79-5.529 4.974364pr865
************************************************************
Dead Time -------------------------  2.8E-08 
Number of Cycles Used -------------  4 
Starting Wavelength (Angstroms) ---  3331 
Final Wavelength (Angstoms) -------  3351 
Wavelength Increment (Angstroms) --  .25 
Filter Wheel #1 Position ---------- (1) Ground quartz diffuser (ND=2.32)
Filter Wheel #2 Position ---------- (0) Clear Aperture



************************************************************
HL scan start time = 04:09:54
Dark Count =  6 


Time (GMT)  Wavelength (Ang)  Step Number  Raw Counts  Counts/Second

  250.41        3331.00           6581          27.00        91.54
  250.63        3331.25           6585          28.00        95.90
  250.65        3331.50           6589          27.00        91.54
  250.68        3331.75           6593          25.00        82.82
  250.71        3332.00           6596          27.00        91.54
  250.74        3332.25           6600          29.00       100.26
  250.76        3332.50           6604          28.00        95.90
  250.79        3332.75           6608          29.00       100.26
  250.82        3333.00           6611          25.00        82.82
  250.84        3333.25           6615          34.00       122.06
  250.87        3333.50           6619          25.00        82.82
  250.90        3333.75           6623          28.00        95.90
  250.93        3334.00           6626          27.00        91.54
  250.95        3334.25           6630          30.00       104.62
  250.98        3334.50           6634          29.00       100.26
  251.01        3334.75           6638          30.00       104.62
  251.03        3335.00           6641          32.00       113.34
  251.06        3335.25           6645          32.00       113.34
  251.09        3335.50           6649          37.00       135.14
  251.12        3335.75           6653          38.00       139.49
  251.14        3336.00           6656          47.00       178.73
  251.17        3336.25           6660         168.00       706.20
  251.20        3336.50           6664         544.00      2345.40
  251.23        3336.75           6668         901.00      3901.91
  251.25        3337.00           6671        1265.00      5489.07
  251.28        3337.25           6675        2426.00     10552.38
  251.31        3337.50           6679        3833.00     16690.45
  251.33        3337.75           6683        5238.00     22821.90
  251.36        3338.00           6686        6490.00     28287.44
  251.39        3338.25           6690        7902.00     34453.45
  251.42        3338.50           6694        9387.00     40940.54
  251.44        3338.75           6698       10826.00     47228.94
  251.47        3339.00           6701       11890.00     51880.02
  251.50        3339.25           6705       13454.00     58718.96
  251.53        3339.50           6709       14899.00     65039.88
  251.55        3339.75           6713       16526.00     72159.60
  251.58        3340.00           6716       17580.00     76773.41
  251.61        3340.25           6720       19168.00     83727.01
  251.63        3340.50           6724       20550.00     89780.78
  251.66        3340.75           6728       22042.00     96318.71
  251.69        3341.00           6731       23134.00    101105.30
  251.72        3341.25           6735       24339.00    106388.80
  251.74        3341.50           6739       25458.00    111296.60
  251.77        3341.75           6743       26092.00    114077.90
  251.80        3342.00           6746       26250.00    114771.00
  251.83        3342.25           6750       26157.00    114363.00
  251.85        3342.50           6754       25372.00    110919.40
  251.88        3342.75           6758       23986.00    104840.90
  251.91        3343.00           6761       22846.00     99842.81
  251.94        3343.25           6765       21355.00     93307.98
  251.96        3343.50           6769       19985.00     87305.58
  251.99        3343.75           6773       18469.00     80665.86
  252.02        3344.00           6776       17351.00     75770.88
  252.04        3344.25           6780       15760.00     68807.25
  252.07        3344.50           6784       14403.00     62869.96
  252.10        3344.75           6788       12686.00     55360.38
  252.13        3345.00           6791       11557.00     50424.24
  252.15        3345.25           6795       10041.00     43798.23
  252.18        3345.50           6799        8081.00     35235.27
  252.21        3345.75           6803        6111.00     26632.76
  252.24        3346.00           6806        4939.00     21516.88
  252.26        3346.25           6810        3647.00     15878.90
  252.29        3346.50           6814        2585.00     11245.91
  252.32        3346.75           6818        1783.00      7747.98
  252.34        3347.00           6821        1171.00      5079.19
  252.37        3347.25           6825         421.00      1809.16
  252.40        3347.50           6829         116.00       479.52
  252.43        3347.75           6833          37.00       135.14
  252.45        3348.00           6836          33.00       117.70
  252.48        3348.25           6840          37.00       135.14
  252.51        3348.50           6844          29.00       100.26
  252.53        3348.75           6848          29.00       100.26
  252.56        3349.00           6851          24.00        78.47
  252.59        3349.25           6855          33.00       117.70
  252.62        3349.50           6859          28.00        95.90
  252.64        3349.75           6863          30.00       104.62
  252.67        3350.00           6867          28.00        95.90
  252.70        3350.25           6870          30.00       104.62
  252.72        3350.50           6874          34.00       122.06
  252.75        3350.75           6878          32.00       113.34
  252.78        3351.00           6882          31.00       108.98
HL scan finished at 04:13:24
end
