************************************************************
  HS Scan of (1) Internal mercury lamp
************************************************************
Integration time is 0.2294 seconds per sample
dh040117Tamanrasset 22.79-5.529 2.649534pr865
************************************************************
Dead Time -------------------------  2.8E-08 
Number of Cycles Used -------------  4 
Starting Wavelength (Angstroms) ---  2950 
Final Wavelength (Angstoms) -------  2984 
Wavelength Increment (Angstroms) --  .25 
Filter Wheel #1 Position ---------- (1) Ground quartz diffuser (ND=2.32)
Filter Wheel #2 Position ---------- (1) Neutral Density 0.494



************************************************************
HS scan start time = 04:02:04
Dark Count =  4.1 


Time (GMT)  Wavelength (Ang)  Step Number  Raw Counts  Counts/Second

  242.42        2950.00           1233           5.00         3.92
  242.49        2950.25           1236           0.00         2.00
  242.51        2950.50           1239           6.00         8.28
  242.54        2950.75           1242           5.00         3.92
  242.57        2951.00           1246           2.00         2.00
  242.60        2951.25           1249           0.00         2.00
  242.62        2951.50           1252           5.00         3.92
  242.65        2951.75           1256           8.00        17.00
  242.68        2952.00           1259           8.00        17.00
  242.71        2952.25           1262           7.00        12.64
  242.73        2952.50           1266           0.00         2.00
  242.76        2952.75           1269           8.00        17.00
  242.79        2953.00           1272           0.00         2.00
  242.81        2953.25           1276           8.00        17.00
  242.84        2953.50           1279           6.00         8.28
  242.87        2953.75           1282           0.00         2.00
  242.90        2954.00           1286           0.00         2.00
  242.92        2954.25           1289           6.00         8.28
  242.95        2954.50           1292           8.00        17.00
  242.98        2954.75           1295           1.00         2.00
  243.00        2955.00           1299           0.00         2.00
  243.03        2955.25           1302           0.00         2.00
  243.06        2955.50           1305           6.00         8.28
  243.09        2955.75           1309           6.00         8.28
  243.11        2956.00           1312           2.00         2.00
  243.14        2956.25           1315           3.00         2.00
  243.17        2956.50           1319           0.00         2.00
  243.20        2956.75           1322           8.00        17.00
  243.22        2957.00           1325           1.00         2.00
  243.25        2957.25           1329           8.00        17.00
  243.28        2957.50           1332           1.00         2.00
  243.30        2957.75           1335           0.00         2.00
  243.33        2958.00           1339           8.00        17.00
  243.36        2958.25           1342           8.00        17.00
  243.39        2958.50           1345           0.00         2.00
  243.41        2958.75           1348           4.00         2.00
  243.44        2959.00           1352           5.00         3.92
  243.47        2959.25           1355           7.00        12.64
  243.50        2959.50           1358           0.00         2.00
  243.52        2959.75           1362           3.00         2.00
  243.55        2960.00           1365           8.00        17.00
  243.58        2960.25           1368           0.00         2.00
  243.60        2960.50           1372           1.00         2.00
  243.63        2960.75           1375           0.00         2.00
  243.66        2961.00           1378           0.00         2.00
  243.69        2961.25           1382           0.00         2.00
  243.71        2961.50           1385           0.00         2.00
  243.74        2961.75           1388           0.00         2.00
  243.77        2962.00           1392           0.00         2.00
  243.79        2962.25           1395           0.00         2.00
  243.82        2962.50           1398           0.00         2.00
  243.85        2962.75           1402           0.00         2.00
  243.88        2963.00           1405           8.00        17.00
  243.90        2963.25           1408           0.00         2.00
  243.93        2963.50           1412           0.00         2.00
  243.96        2963.75           1415           4.00         2.00
  243.99        2964.00           1418           0.00         2.00
  244.01        2964.25           1422           0.00         2.00
  244.04        2964.50           1425           0.00         2.00
  244.07        2964.75           1428           0.00         2.00
  244.09        2965.00           1431           8.00        17.00
  244.12        2965.25           1435           8.00        17.00
  244.15        2965.50           1438           5.00         3.92
  244.18        2965.75           1441           5.00         3.92
  244.20        2966.00           1445           0.00         2.00
  244.23        2966.25           1448           0.00         2.00
  244.26        2966.50           1451           0.00         2.00
  244.29        2966.75           1455           1.00         2.00
  244.31        2967.00           1458           7.00        12.64
  244.34        2967.25           1461           8.00        17.00
  244.37        2967.50           1465           4.00         2.00
  244.39        2967.75           1468           0.00         2.00
  244.42        2968.00           1471           8.00        17.00
  244.45        2968.25           1475           8.00        17.00
  244.48        2968.50           1478           1.00         2.00
  244.50        2968.75           1481           0.00         2.00
  244.53        2969.00           1485           8.00        17.00
  244.56        2969.25           1488           8.00        17.00
  244.59        2969.50           1491           5.00         3.92
  244.61        2969.75           1495           7.00        12.64
  244.64        2970.00           1498           0.00         2.00
  244.67        2970.25           1501           5.00         3.92
  244.69        2970.50           1505           2.00         2.00
  244.72        2970.75           1508           2.00         2.00
  244.75        2971.00           1511           5.00         3.92
  244.78        2971.25           1515           8.00        17.00
  244.80        2971.50           1518           8.00        17.00
  244.83        2971.75           1521           8.00        17.00
  244.86        2972.00           1525           0.00         2.00
  244.88        2972.25           1528           0.00         2.00
  244.91        2972.50           1531           0.00         2.00
  244.94        2972.75           1535           8.00        17.00
  244.97        2973.00           1538           0.00         2.00
  244.99        2973.25           1541           0.00         2.00
  245.02        2973.50           1545           1.00         2.00
  245.05        2973.75           1548           4.00         2.00
  245.08        2974.00           1551           3.00         2.00
  245.10        2974.25           1555           7.00        12.64
  245.13        2974.50           1558           0.00         2.00
  245.16        2974.75           1561           0.00         2.00
  245.18        2975.00           1565           8.00        17.00
  245.21        2975.25           1568           8.00        17.00
  245.24        2975.50           1571           4.00         2.00
  245.27        2975.75           1575           8.00        17.00
  245.29        2976.00           1578           8.00        17.00
  245.32        2976.25           1581           0.00         2.00
  245.35        2976.50           1585           3.00         2.00
  245.38        2976.75           1588           0.00         2.00
  245.40        2977.00           1591           0.00         2.00
  245.43        2977.25           1595           0.00         2.00
  245.46        2977.50           1598           0.00         2.00
  245.48        2977.75           1601           7.00        12.64
  245.51        2978.00           1605           8.00        17.00
  245.54        2978.25           1608           8.00        17.00
  245.57        2978.50           1611           2.00         2.00
  245.59        2978.75           1615           0.00         2.00
  245.62        2979.00           1618           0.00         2.00
  245.65        2979.25           1621           0.00         2.00
  245.67        2979.50           1625           8.00        17.00
  245.70        2979.75           1628           4.00         2.00
  245.73        2980.00           1631           6.00         8.28
  245.76        2980.25           1635           0.00         2.00
  245.78        2980.50           1638           4.00         2.00
  245.81        2980.75           1641           3.00         2.00
  245.84        2981.00           1645           0.00         2.00
  245.87        2981.25           1648           5.00         3.92
  245.89        2981.50           1651           8.00        17.00
  245.92        2981.75           1655           0.00         2.00
  245.95        2982.00           1658           7.00        12.64
  245.97        2982.25           1661           5.00         3.92
  246.00        2982.50           1665           7.00        12.64
  246.03        2982.75           1668           8.00        17.00
  246.06        2983.00           1671           4.00         2.00
  246.08        2983.25           1675           0.00         2.00
  246.11        2983.50           1678           0.00         2.00
  246.14        2983.75           1681           2.00         2.00
  246.16        2984.00           1685           0.00         2.00
HS scan finished at 04:06:21
end
