************************************************************
  HS Scan of (1) Internal mercury lamp
************************************************************
Integration time is 0.2294 seconds per sample
dh010117Tamanrasset 22.79-5.529 2.639337pr865
************************************************************
Dead Time -------------------------  2.8E-08 
Number of Cycles Used -------------  4 
Starting Wavelength (Angstroms) ---  2950 
Final Wavelength (Angstoms) -------  2984 
Wavelength Increment (Angstroms) --  .25 
Filter Wheel #1 Position ---------- (1) Ground quartz diffuser (ND=2.32)
Filter Wheel #2 Position ---------- (1) Neutral Density 0.494



************************************************************
HS scan start time = 04:00:28
Dark Count =  5.3 


Time (GMT)  Wavelength (Ang)  Step Number  Raw Counts  Counts/Second

  240.82        2950.00           1233           0.00         2.00
  240.88        2950.25           1236           9.00        16.13
  240.91        2950.50           1239           4.00         2.00
  240.93        2950.75           1242           8.00        11.77
  240.96        2951.00           1246           8.00        11.77
  240.99        2951.25           1249           0.00         2.00
  241.02        2951.50           1252           3.00         2.00
  241.04        2951.75           1256           8.00        11.77
  241.07        2952.00           1259           3.00         2.00
  241.10        2952.25           1262           8.00        11.77
  241.13        2952.50           1266           3.00         2.00
  241.15        2952.75           1269           2.00         2.00
  241.18        2953.00           1272           7.00         7.41
  241.21        2953.25           1276           7.00         7.41
  241.23        2953.50           1279           2.00         2.00
  241.26        2953.75           1282           8.00        11.77
  241.29        2954.00           1286           8.00        11.77
  241.32        2954.25           1289           8.00        11.77
  241.34        2954.50           1292           0.00         2.00
  241.37        2954.75           1295           8.00        11.77
  241.40        2955.00           1299           8.00        11.77
  241.42        2955.25           1302           8.00        11.77
  241.45        2955.50           1305           4.00         2.00
  241.48        2955.75           1309           8.00        11.77
  241.51        2956.00           1312           6.00         3.05
  241.53        2956.25           1315           0.00         2.00
  241.56        2956.50           1319           0.00         2.00
  241.59        2956.75           1322           3.00         2.00
  241.62        2957.00           1325           0.00         2.00
  241.64        2957.25           1329           2.00         2.00
  241.67        2957.50           1332           0.00         2.00
  241.70        2957.75           1335           2.00         2.00
  241.73        2958.00           1339           8.00        11.77
  241.75        2958.25           1342           8.00        11.77
  241.78        2958.50           1345           5.00         2.00
  241.81        2958.75           1348           8.00        11.77
  241.84        2959.00           1352           8.00        11.77
  241.86        2959.25           1355           8.00        11.77
  241.89        2959.50           1358           0.00         2.00
  241.92        2959.75           1362           3.00         2.00
  241.94        2960.00           1365           0.00         2.00
  241.97        2960.25           1368           8.00        11.77
  242.00        2960.50           1372           8.00        11.77
  242.03        2960.75           1375           0.00         2.00
  242.05        2961.00           1378           0.00         2.00
  242.08        2961.25           1382           5.00         2.00
  242.11        2961.50           1385           0.00         2.00
  242.13        2961.75           1388           4.00         2.00
  242.16        2962.00           1392           1.00         2.00
  242.19        2962.25           1395           4.00         2.00
  242.22        2962.50           1398           8.00        11.77
  242.24        2962.75           1402           0.00         2.00
  242.27        2963.00           1405           0.00         2.00
  242.30        2963.25           1408           7.00         7.41
  242.33        2963.50           1412           0.00         2.00
  242.35        2963.75           1415           0.00         2.00
  242.38        2964.00           1418           0.00         2.00
  242.41        2964.25           1422           0.00         2.00
  242.43        2964.50           1425           8.00        11.77
  242.46        2964.75           1428           4.00         2.00
  242.49        2965.00           1431           8.00        11.77
  242.52        2965.25           1435           6.00         3.05
  242.54        2965.50           1438           0.00         2.00
  242.57        2965.75           1441           8.00        11.77
  242.60        2966.00           1445           8.00        11.77
  242.62        2966.25           1448           0.00         2.00
  242.65        2966.50           1451           4.00         2.00
  242.68        2966.75           1455           8.00        11.77
  242.71        2967.00           1458           0.00         2.00
  242.73        2967.25           1461           4.00         2.00
  242.76        2967.50           1465           7.00         7.41
  242.79        2967.75           1468           8.00        11.77
  242.82        2968.00           1471           0.00         2.00
  242.84        2968.25           1475           0.00         2.00
  242.87        2968.50           1478           0.00         2.00
  242.90        2968.75           1481           7.00         7.41
  242.92        2969.00           1485           0.00         2.00
  242.95        2969.25           1488           7.00         7.41
  242.98        2969.50           1491           4.00         2.00
  243.01        2969.75           1495           4.00         2.00
  243.03        2970.00           1498           8.00        11.77
  243.06        2970.25           1501           2.00         2.00
  243.09        2970.50           1505           8.00        11.77
  243.12        2970.75           1508           8.00        11.77
  243.14        2971.00           1511           8.00        11.77
  243.17        2971.25           1515           8.00        11.77
  243.20        2971.50           1518           0.00         2.00
  243.22        2971.75           1521           7.00         7.41
  243.25        2972.00           1525           5.00         2.00
  243.28        2972.25           1528           8.00        11.77
  243.31        2972.50           1531           8.00        11.77
  243.33        2972.75           1535           7.00         7.41
  243.36        2973.00           1538           5.00         2.00
  243.39        2973.25           1541           8.00        11.77
  243.42        2973.50           1545           8.00        11.77
  243.44        2973.75           1548           8.00        11.77
  243.47        2974.00           1551           8.00        11.77
  243.50        2974.25           1555           0.00         2.00
  243.52        2974.50           1558           0.00         2.00
  243.55        2974.75           1561           5.00         2.00
  243.58        2975.00           1565           1.00         2.00
  243.61        2975.25           1568           8.00        11.77
  243.63        2975.50           1571           2.00         2.00
  243.66        2975.75           1575           8.00        11.77
  243.69        2976.00           1578           8.00        11.77
  243.72        2976.25           1581           8.00        11.77
  243.74        2976.50           1585           8.00        11.77
  243.77        2976.75           1588           8.00        11.77
  243.80        2977.00           1591           0.00         2.00
  243.82        2977.25           1595           8.00        11.77
  243.85        2977.50           1598           7.00         7.41
  243.88        2977.75           1601           8.00        11.77
  243.91        2978.00           1605           8.00        11.77
  243.93        2978.25           1608           0.00         2.00
  243.96        2978.50           1611           7.00         7.41
  243.99        2978.75           1615           8.00        11.77
  244.02        2979.00           1618           8.00        11.77
  244.04        2979.25           1621           1.00         2.00
  244.07        2979.50           1625           8.00        11.77
  244.10        2979.75           1628           8.00        11.77
  244.12        2980.00           1631           2.00         2.00
  244.15        2980.25           1635           0.00         2.00
  244.18        2980.50           1638           8.00        11.77
  244.21        2980.75           1641           4.00         2.00
  244.23        2981.00           1645           8.00        11.77
  244.26        2981.25           1648           8.00        11.77
  244.29        2981.50           1651           8.00        11.77
  244.32        2981.75           1655           0.00         2.00
  244.34        2982.00           1658           0.00         2.00
  244.37        2982.25           1661           1.00         2.00
  244.40        2982.50           1665           0.00         2.00
  244.42        2982.75           1668           8.00        11.77
  244.45        2983.00           1671           0.00         2.00
  244.48        2983.25           1675           4.00         2.00
  244.51        2983.50           1678           1.00         2.00
  244.53        2983.75           1681           8.00        11.77
  244.56        2984.00           1685           8.00        11.77
HS scan finished at 04:04:45
end
