************************************************************
  HS Scan of (1) Internal mercury lamp
************************************************************
Integration time is 0.2294 seconds per sample
dh080117Tamanrasset 22.79-5.529 2.654632pr865
************************************************************
Dead Time -------------------------  2.8E-08 
Number of Cycles Used -------------  4 
Starting Wavelength (Angstroms) ---  2950 
Final Wavelength (Angstoms) -------  2984 
Wavelength Increment (Angstroms) --  .25 
Filter Wheel #1 Position ---------- (1) Ground quartz diffuser (ND=2.32)
Filter Wheel #2 Position ---------- (1) Neutral Density 0.494



************************************************************
HS scan start time = 04:03:07
Dark Count =  5.7 


Time (GMT)  Wavelength (Ang)  Step Number  Raw Counts  Counts/Second

  243.47        2950.00           1233           1.00         2.00
  243.53        2950.25           1236           8.00        10.03
  243.56        2950.50           1239           1.00         2.00
  243.58        2950.75           1242           2.00         2.00
  243.61        2951.00           1246           0.00         2.00
  243.64        2951.25           1249           7.00         5.67
  243.67        2951.50           1252           0.00         2.00
  243.69        2951.75           1256           5.00         2.00
  243.72        2952.00           1259           0.00         2.00
  243.75        2952.25           1262           8.00        10.03
  243.77        2952.50           1266           8.00        10.03
  243.80        2952.75           1269           1.00         2.00
  243.83        2953.00           1272           6.00         2.00
  243.86        2953.25           1276           2.00         2.00
  243.88        2953.50           1279           1.00         2.00
  243.91        2953.75           1282           8.00        10.03
  243.94        2954.00           1286           0.00         2.00
  243.97        2954.25           1289           1.00         2.00
  243.99        2954.50           1292           8.00        10.03
  244.02        2954.75           1295           5.00         2.00
  244.05        2955.00           1299           5.00         2.00
  244.07        2955.25           1302           8.00        10.03
  244.10        2955.50           1305           8.00        10.03
  244.13        2955.75           1309           0.00         2.00
  244.16        2956.00           1312           0.00         2.00
  244.18        2956.25           1315           8.00        10.03
  244.21        2956.50           1319           0.00         2.00
  244.24        2956.75           1322           8.00        10.03
  244.27        2957.00           1325           4.00         2.00
  244.29        2957.25           1329           3.00         2.00
  244.32        2957.50           1332           8.00        10.03
  244.35        2957.75           1335           0.00         2.00
  244.37        2958.00           1339           7.00         5.67
  244.40        2958.25           1342           0.00         2.00
  244.43        2958.50           1345           6.00         2.00
  244.46        2958.75           1348           8.00        10.03
  244.48        2959.00           1352           0.00         2.00
  244.51        2959.25           1355           7.00         5.67
  244.54        2959.50           1358           6.00         2.00
  244.57        2959.75           1362           8.00        10.03
  244.59        2960.00           1365           8.00        10.03
  244.62        2960.25           1368           5.00         2.00
  244.65        2960.50           1372           8.00        10.03
  244.67        2960.75           1375           5.00         2.00
  244.70        2961.00           1378           5.00         2.00
  244.73        2961.25           1382           8.00        10.03
  244.76        2961.50           1385           0.00         2.00
  244.78        2961.75           1388           0.00         2.00
  244.81        2962.00           1392           8.00        10.03
  244.84        2962.25           1395           2.00         2.00
  244.87        2962.50           1398           0.00         2.00
  244.89        2962.75           1402           8.00        10.03
  244.92        2963.00           1405           0.00         2.00
  244.95        2963.25           1408           0.00         2.00
  244.97        2963.50           1412           8.00        10.03
  245.00        2963.75           1415           4.00         2.00
  245.03        2964.00           1418           2.00         2.00
  245.06        2964.25           1422           0.00         2.00
  245.08        2964.50           1425           0.00         2.00
  245.11        2964.75           1428           7.00         5.67
  245.14        2965.00           1431           4.00         2.00
  245.16        2965.25           1435           8.00        10.03
  245.19        2965.50           1438           7.00         5.67
  245.22        2965.75           1441           0.00         2.00
  245.25        2966.00           1445           0.00         2.00
  245.27        2966.25           1448           5.00         2.00
  245.30        2966.50           1451           8.00        10.03
  245.33        2966.75           1455           8.00        10.03
  245.36        2967.00           1458           6.00         2.00
  245.38        2967.25           1461           0.00         2.00
  245.41        2967.50           1465           0.00         2.00
  245.44        2967.75           1468           0.00         2.00
  245.46        2968.00           1471           0.00         2.00
  245.49        2968.25           1475           8.00        10.03
  245.52        2968.50           1478           8.00        10.03
  245.55        2968.75           1481           2.00         2.00
  245.57        2969.00           1485           7.00         5.67
  245.60        2969.25           1488           8.00        10.03
  245.63        2969.50           1491           1.00         2.00
  245.65        2969.75           1495           3.00         2.00
  245.68        2970.00           1498           5.00         2.00
  245.71        2970.25           1501           8.00        10.03
  245.74        2970.50           1505           8.00        10.03
  245.76        2970.75           1508           0.00         2.00
  245.79        2971.00           1511           8.00        10.03
  245.82        2971.25           1515           1.00         2.00
  245.85        2971.50           1518           0.00         2.00
  245.87        2971.75           1521           0.00         2.00
  245.90        2972.00           1525           4.00         2.00
  245.93        2972.25           1528           8.00        10.03
  245.95        2972.50           1531           2.00         2.00
  245.98        2972.75           1535           0.00         2.00
  246.01        2973.00           1538           8.00        10.03
  246.04        2973.25           1541           5.00         2.00
  246.06        2973.50           1545           3.00         2.00
  246.09        2973.75           1548           8.00        10.03
  246.12        2974.00           1551           2.00         2.00
  246.15        2974.25           1555           0.00         2.00
  246.17        2974.50           1558           8.00        10.03
  246.20        2974.75           1561           8.00        10.03
  246.23        2975.00           1565           0.00         2.00
  246.25        2975.25           1568           0.00         2.00
  246.28        2975.50           1571           8.00        10.03
  246.31        2975.75           1575           3.00         2.00
  246.34        2976.00           1578           0.00         2.00
  246.36        2976.25           1581           8.00        10.03
  246.39        2976.50           1585           1.00         2.00
  246.42        2976.75           1588           5.00         2.00
  246.44        2977.00           1591           2.00         2.00
  246.47        2977.25           1595           5.00         2.00
  246.50        2977.50           1598           8.00        10.03
  246.53        2977.75           1601           8.00        10.03
  246.55        2978.00           1605           2.00         2.00
  246.58        2978.25           1608           8.00        10.03
  246.61        2978.50           1611           5.00         2.00
  246.64        2978.75           1615           6.00         2.00
  246.66        2979.00           1618           0.00         2.00
  246.69        2979.25           1621           0.00         2.00
  246.72        2979.50           1625           4.00         2.00
  246.74        2979.75           1628           6.00         2.00
  246.77        2980.00           1631           0.00         2.00
  246.80        2980.25           1635           8.00        10.03
  246.83        2980.50           1638           1.00         2.00
  246.85        2980.75           1641           8.00        10.03
  246.88        2981.00           1645           5.00         2.00
  246.91        2981.25           1648           8.00        10.03
  246.93        2981.50           1651           8.00        10.03
  246.96        2981.75           1655           4.00         2.00
  246.99        2982.00           1658           3.00         2.00
  247.02        2982.25           1661           6.00         2.00
  247.04        2982.50           1665           8.00        10.03
  247.07        2982.75           1668           6.00         2.00
  247.10        2983.00           1671           5.00         2.00
  247.13        2983.25           1675           0.00         2.00
  247.15        2983.50           1678           8.00        10.03
  247.18        2983.75           1681           2.00         2.00
  247.21        2984.00           1685           0.00         2.00
HS scan finished at 04:07:24
end
