************************************************************
  HS Scan of (1) Internal mercury lamp
************************************************************
Integration time is 0.2294 seconds per sample
dh060117Tamanrasset 22.79-5.529 2.634239pr865
************************************************************
Dead Time -------------------------  2.8E-08 
Number of Cycles Used -------------  4 
Starting Wavelength (Angstroms) ---  2950 
Final Wavelength (Angstoms) -------  2984 
Wavelength Increment (Angstroms) --  .25 
Filter Wheel #1 Position ---------- (1) Ground quartz diffuser (ND=2.32)
Filter Wheel #2 Position ---------- (1) Neutral Density 0.494



************************************************************
HS scan start time = 04:02:33
Dark Count =  5.2 


Time (GMT)  Wavelength (Ang)  Step Number  Raw Counts  Counts/Second

  242.90        2950.00           1233           8.00        12.21
  242.96        2950.25           1236           9.00        16.56
  242.99        2950.50           1239           5.00         2.00
  243.02        2950.75           1242           7.00         7.85
  243.05        2951.00           1246           0.00         2.00
  243.07        2951.25           1249           8.00        12.21
  243.10        2951.50           1252           1.00         2.00
  243.13        2951.75           1256           8.00        12.21
  243.15        2952.00           1259           0.00         2.00
  243.18        2952.25           1262           8.00        12.21
  243.21        2952.50           1266           8.00        12.21
  243.24        2952.75           1269           0.00         2.00
  243.26        2953.00           1272           8.00        12.21
  243.29        2953.25           1276           0.00         2.00
  243.32        2953.50           1279           0.00         2.00
  243.35        2953.75           1282           0.00         2.00
  243.37        2954.00           1286           0.00         2.00
  243.40        2954.25           1289           5.00         2.00
  243.43        2954.50           1292           0.00         2.00
  243.45        2954.75           1295           3.00         2.00
  243.48        2955.00           1299           8.00        12.21
  243.51        2955.25           1302           8.00        12.21
  243.54        2955.50           1305           8.00        12.21
  243.56        2955.75           1309           5.00         2.00
  243.59        2956.00           1312           8.00        12.21
  243.62        2956.25           1315           8.00        12.21
  243.65        2956.50           1319           6.00         3.49
  243.67        2956.75           1322           5.00         2.00
  243.70        2957.00           1325           6.00         3.49
  243.73        2957.25           1329           8.00        12.21
  243.76        2957.50           1332           8.00        12.21
  243.78        2957.75           1335           8.00        12.21
  243.81        2958.00           1339           4.00         2.00
  243.84        2958.25           1342           0.00         2.00
  243.86        2958.50           1345           8.00        12.21
  243.89        2958.75           1348           5.00         2.00
  243.92        2959.00           1352           5.00         2.00
  243.95        2959.25           1355           0.00         2.00
  243.97        2959.50           1358           0.00         2.00
  244.00        2959.75           1362           5.00         2.00
  244.03        2960.00           1365           0.00         2.00
  244.05        2960.25           1368           4.00         2.00
  244.08        2960.50           1372           3.00         2.00
  244.11        2960.75           1375           1.00         2.00
  244.14        2961.00           1378           2.00         2.00
  244.16        2961.25           1382           1.00         2.00
  244.19        2961.50           1385           5.00         2.00
  244.22        2961.75           1388           3.00         2.00
  244.24        2962.00           1392           8.00        12.21
  244.27        2962.25           1395           7.00         7.85
  244.30        2962.50           1398           8.00        12.21
  244.33        2962.75           1402           3.00         2.00
  244.35        2963.00           1405           8.00        12.21
  244.38        2963.25           1408           8.00        12.21
  244.41        2963.50           1412           2.00         2.00
  244.44        2963.75           1415           0.00         2.00
  244.46        2964.00           1418           0.00         2.00
  244.49        2964.25           1422           1.00         2.00
  244.52        2964.50           1425           2.00         2.00
  244.54        2964.75           1428           6.00         3.49
  244.57        2965.00           1431           7.00         7.85
  244.60        2965.25           1435           0.00         2.00
  244.63        2965.50           1438           8.00        12.21
  244.65        2965.75           1441           8.00        12.21
  244.68        2966.00           1445           0.00         2.00
  244.71        2966.25           1448           0.00         2.00
  244.74        2966.50           1451           0.00         2.00
  244.76        2966.75           1455           0.00         2.00
  244.79        2967.00           1458           8.00        12.21
  244.82        2967.25           1461           8.00        12.21
  244.84        2967.50           1465           1.00         2.00
  244.87        2967.75           1468           8.00        12.21
  244.90        2968.00           1471           8.00        12.21
  244.93        2968.25           1475           6.00         3.49
  244.95        2968.50           1478           8.00        12.21
  244.98        2968.75           1481           0.00         2.00
  245.01        2969.00           1485           0.00         2.00
  245.03        2969.25           1488           0.00         2.00
  245.06        2969.50           1491           7.00         7.85
  245.09        2969.75           1495           0.00         2.00
  245.12        2970.00           1498           2.00         2.00
  245.14        2970.25           1501           8.00        12.21
  245.17        2970.50           1505           0.00         2.00
  245.20        2970.75           1508           1.00         2.00
  245.23        2971.00           1511           7.00         7.85
  245.25        2971.25           1515           0.00         2.00
  245.28        2971.50           1518           4.00         2.00
  245.31        2971.75           1521           8.00        12.21
  245.33        2972.00           1525           6.00         3.49
  245.36        2972.25           1528           0.00         2.00
  245.39        2972.50           1531           0.00         2.00
  245.42        2972.75           1535           3.00         2.00
  245.44        2973.00           1538           8.00        12.21
  245.47        2973.25           1541           8.00        12.21
  245.50        2973.50           1545           0.00         2.00
  245.53        2973.75           1548           8.00        12.21
  245.55        2974.00           1551           3.00         2.00
  245.58        2974.25           1555           2.00         2.00
  245.61        2974.50           1558           8.00        12.21
  245.63        2974.75           1561           8.00        12.21
  245.66        2975.00           1565           2.00         2.00
  245.69        2975.25           1568           0.00         2.00
  245.72        2975.50           1571           4.00         2.00
  245.74        2975.75           1575           3.00         2.00
  245.77        2976.00           1578           8.00        12.21
  245.80        2976.25           1581           2.00         2.00
  245.82        2976.50           1585           0.00         2.00
  245.85        2976.75           1588           8.00        12.21
  245.88        2977.00           1591           0.00         2.00
  245.91        2977.25           1595           8.00        12.21
  245.93        2977.50           1598           8.00        12.21
  245.96        2977.75           1601           4.00         2.00
  245.99        2978.00           1605           8.00        12.21
  246.02        2978.25           1608           5.00         2.00
  246.04        2978.50           1611           8.00        12.21
  246.07        2978.75           1615           8.00        12.21
  246.10        2979.00           1618           8.00        12.21
  246.12        2979.25           1621           5.00         2.00
  246.15        2979.50           1625           8.00        12.21
  246.18        2979.75           1628           2.00         2.00
  246.21        2980.00           1631           7.00         7.85
  246.23        2980.25           1635           0.00         2.00
  246.26        2980.50           1638           0.00         2.00
  246.29        2980.75           1641           7.00         7.85
  246.32        2981.00           1645           8.00        12.21
  246.34        2981.25           1648           0.00         2.00
  246.37        2981.50           1651           0.00         2.00
  246.40        2981.75           1655           3.00         2.00
  246.42        2982.00           1658           0.00         2.00
  246.45        2982.25           1661           0.00         2.00
  246.48        2982.50           1665           8.00        12.21
  246.51        2982.75           1668           8.00        12.21
  246.53        2983.00           1671           0.00         2.00
  246.56        2983.25           1675           0.00         2.00
  246.59        2983.50           1678           8.00        12.21
  246.61        2983.75           1681           7.00         7.85
  246.64        2984.00           1685           2.00         2.00
HS scan finished at 04:06:50
end
