************************************************************
  HS Scan of (1) Internal mercury lamp
************************************************************
Integration time is 0.2294 seconds per sample
dh020117Tamanrasset 22.79-5.529 2.639337pr865
************************************************************
Dead Time -------------------------  2.8E-08 
Number of Cycles Used -------------  4 
Starting Wavelength (Angstroms) ---  2950 
Final Wavelength (Angstoms) -------  2984 
Wavelength Increment (Angstroms) --  .25 
Filter Wheel #1 Position ---------- (1) Ground quartz diffuser (ND=2.32)
Filter Wheel #2 Position ---------- (1) Neutral Density 0.494



************************************************************
HS scan start time = 04:00:52
Dark Count =  7.2 


Time (GMT)  Wavelength (Ang)  Step Number  Raw Counts  Counts/Second

  241.22        2950.00           1233           1.00         2.00
  241.28        2950.25           1236           8.00         3.49
  241.31        2950.50           1239           8.00         3.49
  241.34        2950.75           1242           1.00         2.00
  241.36        2951.00           1246           1.00         2.00
  241.39        2951.25           1249           8.00         3.49
  241.42        2951.50           1252           3.00         2.00
  241.45        2951.75           1256           2.00         2.00
  241.47        2952.00           1259           0.00         2.00
  241.50        2952.25           1262           5.00         2.00
  241.53        2952.50           1266           6.00         2.00
  241.55        2952.75           1269           8.00         3.49
  241.58        2953.00           1272           4.00         2.00
  241.61        2953.25           1276           1.00         2.00
  241.64        2953.50           1279           0.00         2.00
  241.66        2953.75           1282           0.00         2.00
  241.69        2954.00           1286           8.00         3.49
  241.72        2954.25           1289           9.00         7.85
  241.75        2954.50           1292           0.00         2.00
  241.77        2954.75           1295           8.00         3.49
  241.80        2955.00           1299           8.00         3.49
  241.83        2955.25           1302           8.00         3.49
  241.85        2955.50           1305           0.00         2.00
  241.88        2955.75           1309           8.00         3.49
  241.91        2956.00           1312           5.00         2.00
  241.94        2956.25           1315           5.00         2.00
  241.96        2956.50           1319           8.00         3.49
  241.99        2956.75           1322           8.00         3.49
  242.02        2957.00           1325           0.00         2.00
  242.05        2957.25           1329           3.00         2.00
  242.07        2957.50           1332           8.00         3.49
  242.10        2957.75           1335           7.00         2.00
  242.13        2958.00           1339           8.00         3.49
  242.15        2958.25           1342           0.00         2.00
  242.18        2958.50           1345           8.00         3.49
  242.21        2958.75           1348           8.00         3.49
  242.24        2959.00           1352           4.00         2.00
  242.26        2959.25           1355           8.00         3.49
  242.29        2959.50           1358           8.00         3.49
  242.32        2959.75           1362           8.00         3.49
  242.34        2960.00           1365           7.00         2.00
  242.37        2960.25           1368           6.00         2.00
  242.40        2960.50           1372           0.00         2.00
  242.43        2960.75           1375           0.00         2.00
  242.45        2961.00           1378           0.00         2.00
  242.48        2961.25           1382           3.00         2.00
  242.51        2961.50           1385           8.00         3.49
  242.53        2961.75           1388           0.00         2.00
  242.56        2962.00           1392           0.00         2.00
  242.59        2962.25           1395           2.00         2.00
  242.62        2962.50           1398           0.00         2.00
  242.64        2962.75           1402           0.00         2.00
  242.67        2963.00           1405           1.00         2.00
  242.70        2963.25           1408           8.00         3.49
  242.73        2963.50           1412           0.00         2.00
  242.75        2963.75           1415           0.00         2.00
  242.78        2964.00           1418           6.00         2.00
  242.81        2964.25           1422           0.00         2.00
  242.83        2964.50           1425           0.00         2.00
  242.86        2964.75           1428           3.00         2.00
  242.89        2965.00           1431           8.00         3.49
  242.92        2965.25           1435           8.00         3.49
  242.94        2965.50           1438           2.00         2.00
  242.97        2965.75           1441           6.00         2.00
  243.00        2966.00           1445           8.00         3.49
  243.03        2966.25           1448           0.00         2.00
  243.05        2966.50           1451           8.00         3.49
  243.08        2966.75           1455           8.00         3.49
  243.11        2967.00           1458           8.00         3.49
  243.13        2967.25           1461           5.00         2.00
  243.16        2967.50           1465           0.00         2.00
  243.19        2967.75           1468           6.00         2.00
  243.22        2968.00           1471           8.00         3.49
  243.24        2968.25           1475           2.00         2.00
  243.27        2968.50           1478           4.00         2.00
  243.30        2968.75           1481           0.00         2.00
  243.32        2969.00           1485           8.00         3.49
  243.35        2969.25           1488           3.00         2.00
  243.38        2969.50           1491           8.00         3.49
  243.41        2969.75           1495           8.00         3.49
  243.43        2970.00           1498           8.00         3.49
  243.46        2970.25           1501           0.00         2.00
  243.49        2970.50           1505           3.00         2.00
  243.52        2970.75           1508           8.00         3.49
  243.54        2971.00           1511           1.00         2.00
  243.57        2971.25           1515           8.00         3.49
  243.60        2971.50           1518           0.00         2.00
  243.62        2971.75           1521           0.00         2.00
  243.65        2972.00           1525           2.00         2.00
  243.68        2972.25           1528           8.00         3.49
  243.71        2972.50           1531           8.00         3.49
  243.73        2972.75           1535           0.00         2.00
  243.76        2973.00           1538           3.00         2.00
  243.79        2973.25           1541           0.00         2.00
  243.81        2973.50           1545           8.00         3.49
  243.84        2973.75           1548           6.00         2.00
  243.87        2974.00           1551           0.00         2.00
  243.90        2974.25           1555           0.00         2.00
  243.92        2974.50           1558           0.00         2.00
  243.95        2974.75           1561           7.00         2.00
  243.98        2975.00           1565           6.00         2.00
  244.01        2975.25           1568           8.00         3.49
  244.03        2975.50           1571           8.00         3.49
  244.06        2975.75           1575           3.00         2.00
  244.09        2976.00           1578           4.00         2.00
  244.11        2976.25           1581           8.00         3.49
  244.14        2976.50           1585           0.00         2.00
  244.17        2976.75           1588           0.00         2.00
  244.20        2977.00           1591           7.00         2.00
  244.22        2977.25           1595           0.00         2.00
  244.25        2977.50           1598           5.00         2.00
  244.28        2977.75           1601           8.00         3.49
  244.30        2978.00           1605           8.00         3.49
  244.33        2978.25           1608           0.00         2.00
  244.36        2978.50           1611           0.00         2.00
  244.39        2978.75           1615           5.00         2.00
  244.41        2979.00           1618           8.00         3.49
  244.44        2979.25           1621           8.00         3.49
  244.47        2979.50           1625           4.00         2.00
  244.50        2979.75           1628           8.00         3.49
  244.52        2980.00           1631           8.00         3.49
  244.55        2980.25           1635           8.00         3.49
  244.58        2980.50           1638           6.00         2.00
  244.60        2980.75           1641           0.00         2.00
  244.63        2981.00           1645           8.00         3.49
  244.66        2981.25           1648           8.00         3.49
  244.69        2981.50           1651           0.00         2.00
  244.71        2981.75           1655           0.00         2.00
  244.74        2982.00           1658           7.00         2.00
  244.77        2982.25           1661           0.00         2.00
  244.80        2982.50           1665           8.00         3.49
  244.82        2982.75           1668           1.00         2.00
  244.85        2983.00           1671           8.00         3.49
  244.88        2983.25           1675           0.00         2.00
  244.90        2983.50           1678           3.00         2.00
  244.93        2983.75           1681           3.00         2.00
  244.96        2984.00           1685           1.00         2.00
HS scan finished at 04:05:09
end
