************************************************************
  HS Scan of (1) Internal mercury lamp
************************************************************
Integration time is 0.2294 seconds per sample
dh070117Tamanrasset 22.79-5.529 2.654632pr865
************************************************************
Dead Time -------------------------  2.8E-08 
Number of Cycles Used -------------  4 
Starting Wavelength (Angstroms) ---  2950 
Final Wavelength (Angstoms) -------  2984 
Wavelength Increment (Angstroms) --  .25 
Filter Wheel #1 Position ---------- (1) Ground quartz diffuser (ND=2.32)
Filter Wheel #2 Position ---------- (1) Neutral Density 0.494



************************************************************
HS scan start time = 04:02:06
Dark Count =  4.5 


Time (GMT)  Wavelength (Ang)  Step Number  Raw Counts  Counts/Second

  242.45        2950.00           1233           5.00         2.18
  242.52        2950.25           1236           0.00         2.00
  242.54        2950.50           1239           7.00        10.90
  242.57        2950.75           1242           8.00        15.26
  242.60        2951.00           1246           8.00        15.26
  242.63        2951.25           1249           1.00         2.00
  242.65        2951.50           1252           8.00        15.26
  242.68        2951.75           1256           3.00         2.00
  242.71        2952.00           1259           0.00         2.00
  242.73        2952.25           1262           8.00        15.26
  242.76        2952.50           1266           8.00        15.26
  242.79        2952.75           1269           1.00         2.00
  242.82        2953.00           1272           0.00         2.00
  242.84        2953.25           1276           8.00        15.26
  242.87        2953.50           1279           8.00        15.26
  242.90        2953.75           1282           2.00         2.00
  242.93        2954.00           1286           0.00         2.00
  242.95        2954.25           1289           7.00        10.90
  242.98        2954.50           1292           8.00        15.26
  243.01        2954.75           1295           8.00        15.26
  243.03        2955.00           1299           8.00        15.26
  243.06        2955.25           1302           2.00         2.00
  243.09        2955.50           1305           0.00         2.00
  243.12        2955.75           1309           8.00        15.26
  243.14        2956.00           1312           0.00         2.00
  243.17        2956.25           1315           8.00        15.26
  243.20        2956.50           1319           8.00        15.26
  243.23        2956.75           1322           8.00        15.26
  243.25        2957.00           1325           6.00         6.54
  243.28        2957.25           1329           3.00         2.00
  243.31        2957.50           1332           8.00        15.26
  243.33        2957.75           1335           3.00         2.00
  243.36        2958.00           1339           5.00         2.18
  243.39        2958.25           1342           0.00         2.00
  243.42        2958.50           1345           0.00         2.00
  243.44        2958.75           1348           0.00         2.00
  243.47        2959.00           1352           1.00         2.00
  243.50        2959.25           1355           8.00        15.26
  243.53        2959.50           1358           8.00        15.26
  243.55        2959.75           1362           0.00         2.00
  243.58        2960.00           1365           8.00        15.26
  243.61        2960.25           1368           8.00        15.26
  243.63        2960.50           1372           8.00        15.26
  243.66        2960.75           1375           0.00         2.00
  243.69        2961.00           1378           4.00         2.00
  243.72        2961.25           1382           0.00         2.00
  243.74        2961.50           1385           4.00         2.00
  243.77        2961.75           1388           0.00         2.00
  243.80        2962.00           1392           6.00         6.54
  243.82        2962.25           1395           8.00        15.26
  243.85        2962.50           1398           8.00        15.26
  243.88        2962.75           1402           3.00         2.00
  243.91        2963.00           1405           0.00         2.00
  243.93        2963.25           1408           0.00         2.00
  243.96        2963.50           1412           5.00         2.18
  243.99        2963.75           1415           8.00        15.26
  244.02        2964.00           1418           2.00         2.00
  244.04        2964.25           1422           1.00         2.00
  244.07        2964.50           1425           0.00         2.00
  244.10        2964.75           1428           3.00         2.00
  244.12        2965.00           1431           0.00         2.00
  244.15        2965.25           1435           8.00        15.26
  244.18        2965.50           1438           0.00         2.00
  244.21        2965.75           1441           2.00         2.00
  244.23        2966.00           1445           8.00        15.26
  244.26        2966.25           1448           8.00        15.26
  244.29        2966.50           1451           2.00         2.00
  244.31        2966.75           1455           3.00         2.00
  244.34        2967.00           1458           6.00         6.54
  244.37        2967.25           1461           8.00        15.26
  244.40        2967.50           1465           8.00        15.26
  244.42        2967.75           1468           8.00        15.26
  244.45        2968.00           1471           3.00         2.00
  244.48        2968.25           1475           5.00         2.18
  244.50        2968.50           1478           1.00         2.00
  244.53        2968.75           1481           5.00         2.18
  244.56        2969.00           1485           8.00        15.26
  244.59        2969.25           1488           5.00         2.18
  244.61        2969.50           1491           8.00        15.26
  244.64        2969.75           1495           2.00         2.00
  244.67        2970.00           1498           8.00        15.26
  244.70        2970.25           1501           1.00         2.00
  244.72        2970.50           1505           8.00        15.26
  244.75        2970.75           1508           1.00         2.00
  244.78        2971.00           1511           3.00         2.00
  244.80        2971.25           1515           3.00         2.00
  244.83        2971.50           1518           0.00         2.00
  244.86        2971.75           1521           4.00         2.00
  244.89        2972.00           1525           0.00         2.00
  244.91        2972.25           1528           0.00         2.00
  244.94        2972.50           1531           0.00         2.00
  244.97        2972.75           1535           4.00         2.00
  245.00        2973.00           1538           8.00        15.26
  245.02        2973.25           1541           8.00        15.26
  245.05        2973.50           1545           1.00         2.00
  245.08        2973.75           1548           0.00         2.00
  245.10        2974.00           1551           1.00         2.00
  245.13        2974.25           1555           2.00         2.00
  245.16        2974.50           1558           1.00         2.00
  245.19        2974.75           1561           8.00        15.26
  245.21        2975.00           1565           7.00        10.90
  245.24        2975.25           1568           0.00         2.00
  245.27        2975.50           1571           0.00         2.00
  245.29        2975.75           1575           0.00         2.00
  245.32        2976.00           1578           6.00         6.54
  245.35        2976.25           1581           0.00         2.00
  245.38        2976.50           1585           0.00         2.00
  245.40        2976.75           1588           0.00         2.00
  245.43        2977.00           1591           0.00         2.00
  245.46        2977.25           1595           8.00        15.26
  245.49        2977.50           1598           3.00         2.00
  245.51        2977.75           1601           8.00        15.26
  245.54        2978.00           1605           1.00         2.00
  245.57        2978.25           1608           8.00        15.26
  245.59        2978.50           1611           5.00         2.18
  245.62        2978.75           1615           5.00         2.18
  245.65        2979.00           1618           8.00        15.26
  245.68        2979.25           1621           4.00         2.00
  245.70        2979.50           1625           8.00        15.26
  245.73        2979.75           1628           1.00         2.00
  245.76        2980.00           1631           0.00         2.00
  245.78        2980.25           1635           8.00        15.26
  245.81        2980.50           1638           6.00         6.54
  245.84        2980.75           1641           0.00         2.00
  245.87        2981.00           1645           0.00         2.00
  245.89        2981.25           1648           0.00         2.00
  245.92        2981.50           1651           1.00         2.00
  245.95        2981.75           1655           4.00         2.00
  245.98        2982.00           1658           0.00         2.00
  246.00        2982.25           1661           0.00         2.00
  246.03        2982.50           1665           0.00         2.00
  246.06        2982.75           1668           8.00        15.26
  246.08        2983.00           1671           8.00        15.26
  246.11        2983.25           1675           8.00        15.26
  246.14        2983.50           1678           8.00        15.26
  246.17        2983.75           1681           0.00         2.00
  246.19        2984.00           1685           2.00         2.00
HS scan finished at 04:06:23
end
