************************************************************
  HS Scan of (1) Internal mercury lamp
************************************************************
Integration time is 0.2294 seconds per sample
dh090117Tamanrasset 22.79-5.529 2.649534pr865
************************************************************
Dead Time -------------------------  2.8E-08 
Number of Cycles Used -------------  4 
Starting Wavelength (Angstroms) ---  2950 
Final Wavelength (Angstoms) -------  2984 
Wavelength Increment (Angstroms) --  .25 
Filter Wheel #1 Position ---------- (1) Ground quartz diffuser (ND=2.32)
Filter Wheel #2 Position ---------- (1) Neutral Density 0.494



************************************************************
HS scan start time = 04:03:04
Dark Count =  4.3 


Time (GMT)  Wavelength (Ang)  Step Number  Raw Counts  Counts/Second

  243.42        2950.00           1233           8.00        16.13
  243.49        2950.25           1236           8.00        16.13
  243.51        2950.50           1239           8.00        16.13
  243.54        2950.75           1242           8.00        16.13
  243.57        2951.00           1246           0.00         2.00
  243.60        2951.25           1249           8.00        16.13
  243.62        2951.50           1252           8.00        16.13
  243.65        2951.75           1256           3.00         2.00
  243.68        2952.00           1259           8.00        16.13
  243.70        2952.25           1262           0.00         2.00
  243.73        2952.50           1266           0.00         2.00
  243.76        2952.75           1269           8.00        16.13
  243.79        2953.00           1272           4.00         2.00
  243.81        2953.25           1276           8.00        16.13
  243.84        2953.50           1279           8.00        16.13
  243.87        2953.75           1282           0.00         2.00
  243.90        2954.00           1286           6.00         7.41
  243.92        2954.25           1289           8.00        16.13
  243.95        2954.50           1292           8.00        16.13
  243.98        2954.75           1295           1.00         2.00
  244.00        2955.00           1299           5.00         3.05
  244.03        2955.25           1302           8.00        16.13
  244.06        2955.50           1305           3.00         2.00
  244.09        2955.75           1309           0.00         2.00
  244.11        2956.00           1312           8.00        16.13
  244.14        2956.25           1315           1.00         2.00
  244.17        2956.50           1319           6.00         7.41
  244.20        2956.75           1322           8.00        16.13
  244.22        2957.00           1325           2.00         2.00
  244.25        2957.25           1329           8.00        16.13
  244.28        2957.50           1332           8.00        16.13
  244.30        2957.75           1335           0.00         2.00
  244.33        2958.00           1339           2.00         2.00
  244.36        2958.25           1342           5.00         3.05
  244.39        2958.50           1345           0.00         2.00
  244.41        2958.75           1348           0.00         2.00
  244.44        2959.00           1352           8.00        16.13
  244.47        2959.25           1355           2.00         2.00
  244.50        2959.50           1358           1.00         2.00
  244.52        2959.75           1362           2.00         2.00
  244.55        2960.00           1365           8.00        16.13
  244.58        2960.25           1368           5.00         3.05
  244.60        2960.50           1372           0.00         2.00
  244.63        2960.75           1375           8.00        16.13
  244.66        2961.00           1378           5.00         3.05
  244.69        2961.25           1382           7.00        11.77
  244.71        2961.50           1385           8.00        16.13
  244.74        2961.75           1388           8.00        16.13
  244.77        2962.00           1392           1.00         2.00
  244.80        2962.25           1395           0.00         2.00
  244.82        2962.50           1398           7.00        11.77
  244.85        2962.75           1402           8.00        16.13
  244.88        2963.00           1405           1.00         2.00
  244.90        2963.25           1408           0.00         2.00
  244.93        2963.50           1412           0.00         2.00
  244.96        2963.75           1415           7.00        11.77
  244.99        2964.00           1418           1.00         2.00
  245.01        2964.25           1422           4.00         2.00
  245.04        2964.50           1425           0.00         2.00
  245.07        2964.75           1428           8.00        16.13
  245.10        2965.00           1431           8.00        16.13
  245.12        2965.25           1435           8.00        16.13
  245.15        2965.50           1438           4.00         2.00
  245.18        2965.75           1441           3.00         2.00
  245.20        2966.00           1445           0.00         2.00
  245.23        2966.25           1448           8.00        16.13
  245.26        2966.50           1451           7.00        11.77
  245.29        2966.75           1455           0.00         2.00
  245.31        2967.00           1458           2.00         2.00
  245.34        2967.25           1461           5.00         3.05
  245.37        2967.50           1465           5.00         3.05
  245.39        2967.75           1468           8.00        16.13
  245.42        2968.00           1471           7.00        11.77
  245.45        2968.25           1475           0.00         2.00
  245.48        2968.50           1478           6.00         7.41
  245.50        2968.75           1481           8.00        16.13
  245.53        2969.00           1485           8.00        16.13
  245.56        2969.25           1488           3.00         2.00
  245.59        2969.50           1491           5.00         3.05
  245.61        2969.75           1495           0.00         2.00
  245.64        2970.00           1498           0.00         2.00
  245.67        2970.25           1501           1.00         2.00
  245.69        2970.50           1505           3.00         2.00
  245.72        2970.75           1508           8.00        16.13
  245.75        2971.00           1511           0.00         2.00
  245.78        2971.25           1515           8.00        16.13
  245.80        2971.50           1518           8.00        16.13
  245.83        2971.75           1521           4.00         2.00
  245.86        2972.00           1525           5.00         3.05
  245.88        2972.25           1528           2.00         2.00
  245.91        2972.50           1531           0.00         2.00
  245.94        2972.75           1535           8.00        16.13
  245.97        2973.00           1538           3.00         2.00
  245.99        2973.25           1541           0.00         2.00
  246.02        2973.50           1545           7.00        11.77
  246.05        2973.75           1548           8.00        16.13
  246.08        2974.00           1551           3.00         2.00
  246.10        2974.25           1555           0.00         2.00
  246.13        2974.50           1558           8.00        16.13
  246.16        2974.75           1561           3.00         2.00
  246.18        2975.00           1565           5.00         3.05
  246.21        2975.25           1568           5.00         3.05
  246.24        2975.50           1571           8.00        16.13
  246.27        2975.75           1575           2.00         2.00
  246.29        2976.00           1578           6.00         7.41
  246.32        2976.25           1581           8.00        16.13
  246.35        2976.50           1585           3.00         2.00
  246.38        2976.75           1588           8.00        16.13
  246.40        2977.00           1591           7.00        11.77
  246.43        2977.25           1595           8.00        16.13
  246.46        2977.50           1598           3.00         2.00
  246.48        2977.75           1601           0.00         2.00
  246.51        2978.00           1605           4.00         2.00
  246.54        2978.25           1608           4.00         2.00
  246.57        2978.50           1611           6.00         7.41
  246.59        2978.75           1615           0.00         2.00
  246.62        2979.00           1618           8.00        16.13
  246.65        2979.25           1621           0.00         2.00
  246.68        2979.50           1625           0.00         2.00
  246.70        2979.75           1628           4.00         2.00
  246.73        2980.00           1631           7.00        11.77
  246.76        2980.25           1635           0.00         2.00
  246.78        2980.50           1638           0.00         2.00
  246.81        2980.75           1641           0.00         2.00
  246.84        2981.00           1645           8.00        16.13
  246.87        2981.25           1648           6.00         7.41
  246.89        2981.50           1651           6.00         7.41
  246.92        2981.75           1655           0.00         2.00
  246.95        2982.00           1658           0.00         2.00
  246.98        2982.25           1661           6.00         7.41
  247.00        2982.50           1665           8.00        16.13
  247.03        2982.75           1668           8.00        16.13
  247.06        2983.00           1671           8.00        16.13
  247.08        2983.25           1675           8.00        16.13
  247.11        2983.50           1678           3.00         2.00
  247.14        2983.75           1681           0.00         2.00
  247.17        2984.00           1685           8.00        16.13
HS scan finished at 04:07:21
end
