************************************************************
  HS Scan of (1) Internal mercury lamp
************************************************************
Integration time is 0.2294 seconds per sample
dh130117Tamanrasset 22.79-5.529 2.624042pr865
************************************************************
Dead Time -------------------------  2.8E-08 
Number of Cycles Used -------------  4 
Starting Wavelength (Angstroms) ---  2950 
Final Wavelength (Angstoms) -------  2984 
Wavelength Increment (Angstroms) --  .25 
Filter Wheel #1 Position ---------- (1) Ground quartz diffuser (ND=2.32)
Filter Wheel #2 Position ---------- (1) Neutral Density 0.494



************************************************************
HS scan start time = 04:02:56
Dark Count =  3.8 


Time (GMT)  Wavelength (Ang)  Step Number  Raw Counts  Counts/Second

  243.30        2950.00           1233           0.00         2.00
  243.36        2950.25           1236           8.00        18.31
  243.39        2950.50           1239           8.00        18.31
  243.41        2950.75           1242           7.00        13.95
  243.44        2951.00           1246           0.00         2.00
  243.47        2951.25           1249           0.00         2.00
  243.50        2951.50           1252           8.00        18.31
  243.52        2951.75           1256           8.00        18.31
  243.55        2952.00           1259           8.00        18.31
  243.58        2952.25           1262           4.00         2.00
  243.61        2952.50           1266           7.00        13.95
  243.63        2952.75           1269           0.00         2.00
  243.66        2953.00           1272           8.00        18.31
  243.69        2953.25           1276           8.00        18.31
  243.71        2953.50           1279           0.00         2.00
  243.74        2953.75           1282           8.00        18.31
  243.77        2954.00           1286           8.00        18.31
  243.80        2954.25           1289           0.00         2.00
  243.82        2954.50           1292           0.00         2.00
  243.85        2954.75           1295           8.00        18.31
  243.88        2955.00           1299           8.00        18.31
  243.90        2955.25           1302           1.00         2.00
  243.93        2955.50           1305           2.00         2.00
  243.96        2955.75           1309           1.00         2.00
  243.99        2956.00           1312           0.00         2.00
  244.01        2956.25           1315           8.00        18.31
  244.04        2956.50           1319           0.00         2.00
  244.07        2956.75           1322           8.00        18.31
  244.10        2957.00           1325           8.00        18.31
  244.12        2957.25           1329           6.00         9.59
  244.15        2957.50           1332           1.00         2.00
  244.18        2957.75           1335           0.00         2.00
  244.20        2958.00           1339           0.00         2.00
  244.23        2958.25           1342           8.00        18.31
  244.26        2958.50           1345           1.00         2.00
  244.29        2958.75           1348           8.00        18.31
  244.31        2959.00           1352           8.00        18.31
  244.34        2959.25           1355           4.00         2.00
  244.37        2959.50           1358           7.00        13.95
  244.40        2959.75           1362           0.00         2.00
  244.42        2960.00           1365           4.00         2.00
  244.45        2960.25           1368           8.00        18.31
  244.48        2960.50           1372           0.00         2.00
  244.50        2960.75           1375           8.00        18.31
  244.53        2961.00           1378           8.00        18.31
  244.56        2961.25           1382           0.00         2.00
  244.59        2961.50           1385           0.00         2.00
  244.61        2961.75           1388           8.00        18.31
  244.64        2962.00           1392           1.00         2.00
  244.67        2962.25           1395           8.00        18.31
  244.70        2962.50           1398           1.00         2.00
  244.72        2962.75           1402           0.00         2.00
  244.75        2963.00           1405           8.00        18.31
  244.78        2963.25           1408           0.00         2.00
  244.80        2963.50           1412           2.00         2.00
  244.83        2963.75           1415           0.00         2.00
  244.86        2964.00           1418           0.00         2.00
  244.89        2964.25           1422           4.00         2.00
  244.91        2964.50           1425           8.00        18.31
  244.94        2964.75           1428           2.00         2.00
  244.97        2965.00           1431           8.00        18.31
  245.00        2965.25           1435           0.00         2.00
  245.02        2965.50           1438           0.00         2.00
  245.05        2965.75           1441           0.00         2.00
  245.08        2966.00           1445           8.00        18.31
  245.10        2966.25           1448           8.00        18.31
  245.13        2966.50           1451           7.00        13.95
  245.16        2966.75           1455           8.00        18.31
  245.19        2967.00           1458           2.00         2.00
  245.21        2967.25           1461           0.00         2.00
  245.24        2967.50           1465           8.00        18.31
  245.27        2967.75           1468           8.00        18.31
  245.30        2968.00           1471           0.00         2.00
  245.32        2968.25           1475           0.00         2.00
  245.35        2968.50           1478           8.00        18.31
  245.38        2968.75           1481           0.00         2.00
  245.40        2969.00           1485           0.00         2.00
  245.43        2969.25           1488           0.00         2.00
  245.46        2969.50           1491           3.00         2.00
  245.49        2969.75           1495           8.00        18.31
  245.51        2970.00           1498           8.00        18.31
  245.54        2970.25           1501           8.00        18.31
  245.57        2970.50           1505           7.00        13.95
  245.60        2970.75           1508           4.00         2.00
  245.62        2971.00           1511           0.00         2.00
  245.65        2971.25           1515           8.00        18.31
  245.68        2971.50           1518           0.00         2.00
  245.70        2971.75           1521           5.00         5.23
  245.73        2972.00           1525           0.00         2.00
  245.76        2972.25           1528           0.00         2.00
  245.79        2972.50           1531           0.00         2.00
  245.81        2972.75           1535           8.00        18.31
  245.84        2973.00           1538           0.00         2.00
  245.87        2973.25           1541           1.00         2.00
  245.90        2973.50           1545           1.00         2.00
  245.92        2973.75           1548           0.00         2.00
  245.95        2974.00           1551           0.00         2.00
  245.98        2974.25           1555           0.00         2.00
  246.00        2974.50           1558           1.00         2.00
  246.03        2974.75           1561           0.00         2.00
  246.06        2975.00           1565           0.00         2.00
  246.09        2975.25           1568           0.00         2.00
  246.11        2975.50           1571           4.00         2.00
  246.14        2975.75           1575           0.00         2.00
  246.17        2976.00           1578           8.00        18.31
  246.19        2976.25           1581           8.00        18.31
  246.22        2976.50           1585           8.00        18.31
  246.25        2976.75           1588           5.00         5.23
  246.28        2977.00           1591           3.00         2.00
  246.30        2977.25           1595           0.00         2.00
  246.33        2977.50           1598           6.00         9.59
  246.36        2977.75           1601           0.00         2.00
  246.39        2978.00           1605           4.00         2.00
  246.41        2978.25           1608           8.00        18.31
  246.44        2978.50           1611           1.00         2.00
  246.47        2978.75           1615           6.00         9.59
  246.49        2979.00           1618           8.00        18.31
  246.52        2979.25           1621           8.00        18.31
  246.55        2979.50           1625           8.00        18.31
  246.58        2979.75           1628           0.00         2.00
  246.60        2980.00           1631           8.00        18.31
  246.63        2980.25           1635           0.00         2.00
  246.66        2980.50           1638           8.00        18.31
  246.69        2980.75           1641           8.00        18.31
  246.71        2981.00           1645           0.00         2.00
  246.74        2981.25           1648           0.00         2.00
  246.77        2981.50           1651           6.00         9.59
  246.79        2981.75           1655           6.00         9.59
  246.82        2982.00           1658           8.00        18.31
  246.85        2982.25           1661           8.00        18.31
  246.88        2982.50           1665           3.00         2.00
  246.90        2982.75           1668           0.00         2.00
  246.93        2983.00           1671           0.00         2.00
  246.96        2983.25           1675           4.00         2.00
  246.98        2983.50           1678           8.00        18.31
  247.01        2983.75           1681           1.00         2.00
  247.04        2984.00           1685           0.00         2.00
HS scan finished at 04:07:14
end
