************************************************************
  HS Scan of (1) Internal mercury lamp
************************************************************
Integration time is 0.2294 seconds per sample
dh160117Tamanrasset 22.79-5.529 2.649534pr865
************************************************************
Dead Time -------------------------  2.8E-08 
Number of Cycles Used -------------  4 
Starting Wavelength (Angstroms) ---  2950 
Final Wavelength (Angstoms) -------  2984 
Wavelength Increment (Angstroms) --  .25 
Filter Wheel #1 Position ---------- (1) Ground quartz diffuser (ND=2.32)
Filter Wheel #2 Position ---------- (1) Neutral Density 0.494



************************************************************
HS scan start time = 04:03:07
Dark Count =  2.4 


Time (GMT)  Wavelength (Ang)  Step Number  Raw Counts  Counts/Second

  243.48        2950.00           1233           0.00         2.00
  243.54        2950.25           1236           8.00        24.41
  243.57        2950.50           1239           3.00         2.62
  243.60        2950.75           1242           6.00        15.69
  243.63        2951.00           1246           8.00        24.41
  243.65        2951.25           1249           0.00         2.00
  243.68        2951.50           1252           7.00        20.05
  243.71        2951.75           1256           8.00        24.41
  243.73        2952.00           1259           8.00        24.41
  243.76        2952.25           1262           6.00        15.69
  243.79        2952.50           1266           4.00         6.97
  243.82        2952.75           1269           7.00        20.05
  243.84        2953.00           1272           8.00        24.41
  243.87        2953.25           1276           0.00         2.00
  243.90        2953.50           1279           0.00         2.00
  243.93        2953.75           1282           0.00         2.00
  243.95        2954.00           1286           0.00         2.00
  243.98        2954.25           1289           5.00        11.33
  244.01        2954.50           1292           8.00        24.41
  244.03        2954.75           1295           5.00        11.33
  244.06        2955.00           1299           0.00         2.00
  244.09        2955.25           1302           0.00         2.00
  244.12        2955.50           1305           1.00         2.00
  244.14        2955.75           1309           7.00        20.05
  244.17        2956.00           1312           0.00         2.00
  244.20        2956.25           1315           0.00         2.00
  244.23        2956.50           1319           0.00         2.00
  244.25        2956.75           1322           0.00         2.00
  244.28        2957.00           1325           0.00         2.00
  244.31        2957.25           1329           6.00        15.69
  244.33        2957.50           1332           8.00        24.41
  244.36        2957.75           1335           3.00         2.62
  244.39        2958.00           1339           0.00         2.00
  244.42        2958.25           1342           2.00         2.00
  244.44        2958.50           1345           8.00        24.41
  244.47        2958.75           1348           8.00        24.41
  244.50        2959.00           1352           3.00         2.62
  244.53        2959.25           1355           0.00         2.00
  244.55        2959.50           1358           1.00         2.00
  244.58        2959.75           1362           0.00         2.00
  244.61        2960.00           1365           8.00        24.41
  244.63        2960.25           1368           8.00        24.41
  244.66        2960.50           1372           4.00         6.97
  244.69        2960.75           1375           0.00         2.00
  244.72        2961.00           1378           0.00         2.00
  244.74        2961.25           1382           0.00         2.00
  244.77        2961.50           1385           8.00        24.41
  244.80        2961.75           1388           8.00        24.41
  244.82        2962.00           1392           8.00        24.41
  244.85        2962.25           1395           8.00        24.41
  244.88        2962.50           1398           8.00        24.41
  244.91        2962.75           1402           2.00         2.00
  244.93        2963.00           1405           8.00        24.41
  244.96        2963.25           1408           8.00        24.41
  244.99        2963.50           1412           0.00         2.00
  245.02        2963.75           1415           8.00        24.41
  245.04        2964.00           1418           8.00        24.41
  245.07        2964.25           1422           0.00         2.00
  245.10        2964.50           1425           4.00         6.97
  245.13        2964.75           1428           8.00        24.41
  245.15        2965.00           1431           3.00         2.62
  245.18        2965.25           1435           0.00         2.00
  245.21        2965.50           1438           0.00         2.00
  245.23        2965.75           1441           4.00         6.97
  245.26        2966.00           1445           0.00         2.00
  245.29        2966.25           1448           8.00        24.41
  245.32        2966.50           1451           8.00        24.41
  245.34        2966.75           1455           8.00        24.41
  245.37        2967.00           1458           0.00         2.00
  245.40        2967.25           1461           8.00        24.41
  245.42        2967.50           1465           0.00         2.00
  245.45        2967.75           1468           0.00         2.00
  245.48        2968.00           1471           8.00        24.41
  245.51        2968.25           1475           8.00        24.41
  245.53        2968.50           1478           0.00         2.00
  245.56        2968.75           1481           4.00         6.97
  245.59        2969.00           1485           0.00         2.00
  245.62        2969.25           1488           0.00         2.00
  245.64        2969.50           1491           8.00        24.41
  245.67        2969.75           1495           6.00        15.69
  245.70        2970.00           1498           0.00         2.00
  245.72        2970.25           1501           0.00         2.00
  245.75        2970.50           1505           1.00         2.00
  245.78        2970.75           1508           8.00        24.41
  245.81        2971.00           1511           8.00        24.41
  245.83        2971.25           1515           8.00        24.41
  245.86        2971.50           1518           8.00        24.41
  245.89        2971.75           1521           0.00         2.00
  245.91        2972.00           1525           8.00        24.41
  245.94        2972.25           1528           8.00        24.41
  245.97        2972.50           1531           8.00        24.41
  246.00        2972.75           1535           8.00        24.41
  246.02        2973.00           1538           3.00         2.62
  246.05        2973.25           1541           0.00         2.00
  246.08        2973.50           1545           0.00         2.00
  246.11        2973.75           1548           0.00         2.00
  246.13        2974.00           1551           2.00         2.00
  246.16        2974.25           1555           0.00         2.00
  246.19        2974.50           1558           8.00        24.41
  246.22        2974.75           1561           3.00         2.62
  246.24        2975.00           1565           8.00        24.41
  246.27        2975.25           1568           8.00        24.41
  246.30        2975.50           1571           8.00        24.41
  246.32        2975.75           1575           8.00        24.41
  246.35        2976.00           1578           3.00         2.62
  246.38        2976.25           1581           4.00         6.97
  246.41        2976.50           1585           8.00        24.41
  246.43        2976.75           1588           1.00         2.00
  246.46        2977.00           1591           0.00         2.00
  246.49        2977.25           1595           2.00         2.00
  246.52        2977.50           1598           6.00        15.69
  246.54        2977.75           1601           8.00        24.41
  246.57        2978.00           1605           8.00        24.41
  246.60        2978.25           1608           8.00        24.41
  246.62        2978.50           1611           0.00         2.00
  246.65        2978.75           1615           0.00         2.00
  246.68        2979.00           1618           5.00        11.33
  246.71        2979.25           1621           8.00        24.41
  246.73        2979.50           1625           2.00         2.00
  246.76        2979.75           1628           3.00         2.62
  246.79        2980.00           1631           5.00        11.33
  246.82        2980.25           1635           0.00         2.00
  246.84        2980.50           1638           7.00        20.05
  246.87        2980.75           1641           6.00        15.69
  246.90        2981.00           1645           8.00        24.41
  246.92        2981.25           1648           7.00        20.05
  246.95        2981.50           1651           0.00         2.00
  246.98        2981.75           1655           0.00         2.00
  247.01        2982.00           1658           0.00         2.00
  247.03        2982.25           1661           5.00        11.33
  247.06        2982.50           1665           2.00         2.00
  247.09        2982.75           1668           1.00         2.00
  247.11        2983.00           1671           1.00         2.00
  247.14        2983.25           1675           8.00        24.41
  247.17        2983.50           1678           8.00        24.41
  247.20        2983.75           1681           0.00         2.00
  247.22        2984.00           1685           5.00        11.33
HS scan finished at 04:07:25
end
