************************************************************
  HS Scan of (1) Internal mercury lamp
************************************************************
Integration time is 0.2294 seconds per sample
dh180117Tamanrasset 22.79-5.529 2.654632pr865
************************************************************
Dead Time -------------------------  2.8E-08 
Number of Cycles Used -------------  4 
Starting Wavelength (Angstroms) ---  2950 
Final Wavelength (Angstoms) -------  2984 
Wavelength Increment (Angstroms) --  .25 
Filter Wheel #1 Position ---------- (1) Ground quartz diffuser (ND=2.32)
Filter Wheel #2 Position ---------- (1) Neutral Density 0.494



************************************************************
HS scan start time = 04:03:09
Dark Count =  4.9 


Time (GMT)  Wavelength (Ang)  Step Number  Raw Counts  Counts/Second

  243.50        2950.00           1233           5.00         2.00
  243.57        2950.25           1236           0.00         2.00
  243.59        2950.50           1239           8.00        13.51
  243.62        2950.75           1242           8.00        13.51
  243.65        2951.00           1246           0.00         2.00
  243.67        2951.25           1249           0.00         2.00
  243.70        2951.50           1252           3.00         2.00
  243.73        2951.75           1256           8.00        13.51
  243.76        2952.00           1259           8.00        13.51
  243.78        2952.25           1262           1.00         2.00
  243.81        2952.50           1266           1.00         2.00
  243.84        2952.75           1269           8.00        13.51
  243.87        2953.00           1272           8.00        13.51
  243.89        2953.25           1276           0.00         2.00
  243.92        2953.50           1279           0.00         2.00
  243.95        2953.75           1282           5.00         2.00
  243.97        2954.00           1286           8.00        13.51
  244.00        2954.25           1289           8.00        13.51
  244.03        2954.50           1292           8.00        13.51
  244.06        2954.75           1295           0.00         2.00
  244.08        2955.00           1299           5.00         2.00
  244.11        2955.25           1302           0.00         2.00
  244.14        2955.50           1305           8.00        13.51
  244.16        2955.75           1309           8.00        13.51
  244.19        2956.00           1312           5.00         2.00
  244.22        2956.25           1315           0.00         2.00
  244.25        2956.50           1319           3.00         2.00
  244.27        2956.75           1322           0.00         2.00
  244.30        2957.00           1325           0.00         2.00
  244.33        2957.25           1329           1.00         2.00
  244.36        2957.50           1332           5.00         2.00
  244.38        2957.75           1335           0.00         2.00
  244.41        2958.00           1339           2.00         2.00
  244.44        2958.25           1342           4.00         2.00
  244.46        2958.50           1345           0.00         2.00
  244.49        2958.75           1348           8.00        13.51
  244.52        2959.00           1352           8.00        13.51
  244.55        2959.25           1355           8.00        13.51
  244.57        2959.50           1358           8.00        13.51
  244.60        2959.75           1362           7.00         9.15
  244.63        2960.00           1365           8.00        13.51
  244.66        2960.25           1368           5.00         2.00
  244.68        2960.50           1372           1.00         2.00
  244.71        2960.75           1375           8.00        13.51
  244.74        2961.00           1378           2.00         2.00
  244.76        2961.25           1382           0.00         2.00
  244.79        2961.50           1385           0.00         2.00
  244.82        2961.75           1388           6.00         4.80
  244.85        2962.00           1392           8.00        13.51
  244.87        2962.25           1395           8.00        13.51
  244.90        2962.50           1398           8.00        13.51
  244.93        2962.75           1402           8.00        13.51
  244.95        2963.00           1405           8.00        13.51
  244.98        2963.25           1408           4.00         2.00
  245.01        2963.50           1412           0.00         2.00
  245.04        2963.75           1415           8.00        13.51
  245.06        2964.00           1418           2.00         2.00
  245.09        2964.25           1422           0.00         2.00
  245.12        2964.50           1425           0.00         2.00
  245.14        2964.75           1428           3.00         2.00
  245.17        2965.00           1431           3.00         2.00
  245.20        2965.25           1435           3.00         2.00
  245.23        2965.50           1438           8.00        13.51
  245.25        2965.75           1441           8.00        13.51
  245.28        2966.00           1445           3.00         2.00
  245.31        2966.25           1448           1.00         2.00
  245.34        2966.50           1451           8.00        13.51
  245.36        2966.75           1455           4.00         2.00
  245.39        2967.00           1458           0.00         2.00
  245.42        2967.25           1461           0.00         2.00
  245.44        2967.50           1465           1.00         2.00
  245.47        2967.75           1468           7.00         9.15
  245.50        2968.00           1471           4.00         2.00
  245.53        2968.25           1475           8.00        13.51
  245.55        2968.50           1478           2.00         2.00
  245.58        2968.75           1481           5.00         2.00
  245.61        2969.00           1485           8.00        13.51
  245.64        2969.25           1488           3.00         2.00
  245.66        2969.50           1491           0.00         2.00
  245.69        2969.75           1495           6.00         4.80
  245.72        2970.00           1498           0.00         2.00
  245.74        2970.25           1501           1.00         2.00
  245.77        2970.50           1505           8.00        13.51
  245.80        2970.75           1508           0.00         2.00
  245.83        2971.00           1511           8.00        13.51
  245.85        2971.25           1515           8.00        13.51
  245.88        2971.50           1518           8.00        13.51
  245.91        2971.75           1521           6.00         4.80
  245.93        2972.00           1525           0.00         2.00
  245.96        2972.25           1528           0.00         2.00
  245.99        2972.50           1531           1.00         2.00
  246.02        2972.75           1535           8.00        13.51
  246.04        2973.00           1538           4.00         2.00
  246.07        2973.25           1541           0.00         2.00
  246.10        2973.50           1545           5.00         2.00
  246.13        2973.75           1548           6.00         4.80
  246.15        2974.00           1551           8.00        13.51
  246.18        2974.25           1555           8.00        13.51
  246.21        2974.50           1558           4.00         2.00
  246.23        2974.75           1561           7.00         9.15
  246.26        2975.00           1565           7.00         9.15
  246.29        2975.25           1568           4.00         2.00
  246.32        2975.50           1571           0.00         2.00
  246.34        2975.75           1575           5.00         2.00
  246.37        2976.00           1578           0.00         2.00
  246.40        2976.25           1581           8.00        13.51
  246.42        2976.50           1585           0.00         2.00
  246.45        2976.75           1588           0.00         2.00
  246.48        2977.00           1591           6.00         4.80
  246.51        2977.25           1595           0.00         2.00
  246.53        2977.50           1598           0.00         2.00
  246.56        2977.75           1601           2.00         2.00
  246.59        2978.00           1605           0.00         2.00
  246.61        2978.25           1608           8.00        13.51
  246.64        2978.50           1611           1.00         2.00
  246.67        2978.75           1615           7.00         9.15
  246.70        2979.00           1618           7.00         9.15
  246.72        2979.25           1621           8.00        13.51
  246.75        2979.50           1625           8.00        13.51
  246.78        2979.75           1628           8.00        13.51
  246.81        2980.00           1631           4.00         2.00
  246.83        2980.25           1635           6.00         4.80
  246.86        2980.50           1638           3.00         2.00
  246.89        2980.75           1641           8.00        13.51
  246.91        2981.00           1645           0.00         2.00
  246.94        2981.25           1648           8.00        13.51
  246.97        2981.50           1651           4.00         2.00
  247.00        2981.75           1655           1.00         2.00
  247.02        2982.00           1658           2.00         2.00
  247.05        2982.25           1661           0.00         2.00
  247.08        2982.50           1665           8.00        13.51
  247.10        2982.75           1668           0.00         2.00
  247.13        2983.00           1671           0.00         2.00
  247.16        2983.25           1675           0.00         2.00
  247.19        2983.50           1678           7.00         9.15
  247.21        2983.75           1681           8.00        13.51
  247.24        2984.00           1685           8.00        13.51
HS scan finished at 04:07:26
end
