************************************************************
  HS Scan of (1) Internal mercury lamp
************************************************************
Integration time is 0.2294 seconds per sample
dh110117Tamanrasset 22.79-5.529 2.639337pr865
************************************************************
Dead Time -------------------------  2.8E-08 
Number of Cycles Used -------------  4 
Starting Wavelength (Angstroms) ---  2950 
Final Wavelength (Angstoms) -------  2984 
Wavelength Increment (Angstroms) --  .25 
Filter Wheel #1 Position ---------- (1) Ground quartz diffuser (ND=2.32)
Filter Wheel #2 Position ---------- (1) Neutral Density 0.494



************************************************************
HS scan start time = 04:03:07
Dark Count =  3 


Time (GMT)  Wavelength (Ang)  Step Number  Raw Counts  Counts/Second

  243.48        2950.00           1233           7.00        17.44
  243.54        2950.25           1236           0.00         2.00
  243.57        2950.50           1239           4.00         4.36
  243.59        2950.75           1242           0.00         2.00
  243.62        2951.00           1246           7.00        17.44
  243.65        2951.25           1249           8.00        21.80
  243.68        2951.50           1252           8.00        21.80
  243.70        2951.75           1256           8.00        21.80
  243.73        2952.00           1259           8.00        21.80
  243.76        2952.25           1262           0.00         2.00
  243.79        2952.50           1266           3.00         2.00
  243.81        2952.75           1269           3.00         2.00
  243.84        2953.00           1272           8.00        21.80
  243.87        2953.25           1276           7.00        17.44
  243.89        2953.50           1279           0.00         2.00
  243.92        2953.75           1282           0.00         2.00
  243.95        2954.00           1286           0.00         2.00
  243.98        2954.25           1289           0.00         2.00
  244.00        2954.50           1292           2.00         2.00
  244.03        2954.75           1295           8.00        21.80
  244.06        2955.00           1299           2.00         2.00
  244.09        2955.25           1302           8.00        21.80
  244.11        2955.50           1305           2.00         2.00
  244.14        2955.75           1309           0.00         2.00
  244.17        2956.00           1312           0.00         2.00
  244.19        2956.25           1315           0.00         2.00
  244.22        2956.50           1319           4.00         4.36
  244.25        2956.75           1322           8.00        21.80
  244.28        2957.00           1325           0.00         2.00
  244.30        2957.25           1329           3.00         2.00
  244.33        2957.50           1332           8.00        21.80
  244.36        2957.75           1335           8.00        21.80
  244.39        2958.00           1339           3.00         2.00
  244.41        2958.25           1342           7.00        17.44
  244.44        2958.50           1345           0.00         2.00
  244.47        2958.75           1348           8.00        21.80
  244.49        2959.00           1352           1.00         2.00
  244.52        2959.25           1355           8.00        21.80
  244.55        2959.50           1358           1.00         2.00
  244.58        2959.75           1362           1.00         2.00
  244.60        2960.00           1365           0.00         2.00
  244.63        2960.25           1368           8.00        21.80
  244.66        2960.50           1372           0.00         2.00
  244.68        2960.75           1375           0.00         2.00
  244.71        2961.00           1378           5.00         8.72
  244.74        2961.25           1382           7.00        17.44
  244.77        2961.50           1385           2.00         2.00
  244.79        2961.75           1388           3.00         2.00
  244.82        2962.00           1392           8.00        21.80
  244.85        2962.25           1395           6.00        13.08
  244.87        2962.50           1398           3.00         2.00
  244.90        2962.75           1402           8.00        21.80
  244.93        2963.00           1405           8.00        21.80
  244.96        2963.25           1408           0.00         2.00
  244.98        2963.50           1412           8.00        21.80
  245.01        2963.75           1415           4.00         4.36
  245.04        2964.00           1418           3.00         2.00
  245.07        2964.25           1422           8.00        21.80
  245.09        2964.50           1425           9.00        26.16
  245.12        2964.75           1428           4.00         4.36
  245.15        2965.00           1431           0.00         2.00
  245.17        2965.25           1435           6.00        13.08
  245.20        2965.50           1438           8.00        21.80
  245.23        2965.75           1441           8.00        21.80
  245.26        2966.00           1445           2.00         2.00
  245.28        2966.25           1448           8.00        21.80
  245.31        2966.50           1451           0.00         2.00
  245.34        2966.75           1455           0.00         2.00
  245.36        2967.00           1458           2.00         2.00
  245.39        2967.25           1461           0.00         2.00
  245.42        2967.50           1465           8.00        21.80
  245.45        2967.75           1468           8.00        21.80
  245.47        2968.00           1471           8.00        21.80
  245.50        2968.25           1475           8.00        21.80
  245.53        2968.50           1478           8.00        21.80
  245.56        2968.75           1481           0.00         2.00
  245.58        2969.00           1485           0.00         2.00
  245.61        2969.25           1488           8.00        21.80
  245.64        2969.50           1491           8.00        21.80
  245.66        2969.75           1495           7.00        17.44
  245.69        2970.00           1498           0.00         2.00
  245.72        2970.25           1501           2.00         2.00
  245.75        2970.50           1505           6.00        13.08
  245.77        2970.75           1508           0.00         2.00
  245.80        2971.00           1511           3.00         2.00
  245.83        2971.25           1515           8.00        21.80
  245.86        2971.50           1518           1.00         2.00
  245.88        2971.75           1521           5.00         8.72
  245.91        2972.00           1525           8.00        21.80
  245.94        2972.25           1528           8.00        21.80
  245.96        2972.50           1531           0.00         2.00
  245.99        2972.75           1535           6.00        13.08
  246.02        2973.00           1538           8.00        21.80
  246.05        2973.25           1541           1.00         2.00
  246.07        2973.50           1545           3.00         2.00
  246.10        2973.75           1548           0.00         2.00
  246.13        2974.00           1551           8.00        21.80
  246.15        2974.25           1555           8.00        21.80
  246.18        2974.50           1558           2.00         2.00
  246.21        2974.75           1561           8.00        21.80
  246.24        2975.00           1565           0.00         2.00
  246.26        2975.25           1568           0.00         2.00
  246.29        2975.50           1571           8.00        21.80
  246.32        2975.75           1575           8.00        21.80
  246.35        2976.00           1578           0.00         2.00
  246.37        2976.25           1581           0.00         2.00
  246.40        2976.50           1585           1.00         2.00
  246.43        2976.75           1588           0.00         2.00
  246.45        2977.00           1591           8.00        21.80
  246.48        2977.25           1595           8.00        21.80
  246.51        2977.50           1598           6.00        13.08
  246.54        2977.75           1601           8.00        21.80
  246.56        2978.00           1605           8.00        21.80
  246.59        2978.25           1608           8.00        21.80
  246.62        2978.50           1611           8.00        21.80
  246.65        2978.75           1615           0.00         2.00
  246.67        2979.00           1618           0.00         2.00
  246.70        2979.25           1621           0.00         2.00
  246.73        2979.50           1625           0.00         2.00
  246.75        2979.75           1628           8.00        21.80
  246.78        2980.00           1631           1.00         2.00
  246.81        2980.25           1635           0.00         2.00
  246.84        2980.50           1638           6.00        13.08
  246.86        2980.75           1641           0.00         2.00
  246.89        2981.00           1645           8.00        21.80
  246.92        2981.25           1648           8.00        21.80
  246.94        2981.50           1651           1.00         2.00
  246.97        2981.75           1655           0.00         2.00
  247.00        2982.00           1658           0.00         2.00
  247.03        2982.25           1661           0.00         2.00
  247.05        2982.50           1665           8.00        21.80
  247.08        2982.75           1668           8.00        21.80
  247.11        2983.00           1671           8.00        21.80
  247.14        2983.25           1675           3.00         2.00
  247.16        2983.50           1678           8.00        21.80
  247.19        2983.75           1681           8.00        21.80
  247.22        2984.00           1685           1.00         2.00
HS scan finished at 04:07:24
end
