************************************************************
  HS Scan of (1) Internal mercury lamp
************************************************************
Integration time is 0.2294 seconds per sample
dh120117Tamanrasset 22.79-5.529 2.649534pr865
************************************************************
Dead Time -------------------------  2.8E-08 
Number of Cycles Used -------------  4 
Starting Wavelength (Angstroms) ---  2950 
Final Wavelength (Angstoms) -------  2984 
Wavelength Increment (Angstroms) --  .25 
Filter Wheel #1 Position ---------- (1) Ground quartz diffuser (ND=2.32)
Filter Wheel #2 Position ---------- (1) Neutral Density 0.494



************************************************************
HS scan start time = 04:03:07
Dark Count =  3.1 


Time (GMT)  Wavelength (Ang)  Step Number  Raw Counts  Counts/Second

  243.48        2950.00           1233           4.00         3.92
  243.54        2950.25           1236           8.00        21.36
  243.57        2950.50           1239           8.00        21.36
  243.59        2950.75           1242           8.00        21.36
  243.62        2951.00           1246           4.00         3.92
  243.65        2951.25           1249           0.00         2.00
  243.68        2951.50           1252           8.00        21.36
  243.70        2951.75           1256           8.00        21.36
  243.73        2952.00           1259           8.00        21.36
  243.76        2952.25           1262           8.00        21.36
  243.79        2952.50           1266           0.00         2.00
  243.81        2952.75           1269           3.00         2.00
  243.84        2953.00           1272           8.00        21.36
  243.87        2953.25           1276           0.00         2.00
  243.89        2953.50           1279           7.00        17.00
  243.92        2953.75           1282           8.00        21.36
  243.95        2954.00           1286           8.00        21.36
  243.98        2954.25           1289           2.00         2.00
  244.00        2954.50           1292           8.00        21.36
  244.03        2954.75           1295           0.00         2.00
  244.06        2955.00           1299           8.00        21.36
  244.09        2955.25           1302           8.00        21.36
  244.11        2955.50           1305           3.00         2.00
  244.14        2955.75           1309           2.00         2.00
  244.17        2956.00           1312           8.00        21.36
  244.19        2956.25           1315           0.00         2.00
  244.22        2956.50           1319           1.00         2.00
  244.25        2956.75           1322           8.00        21.36
  244.28        2957.00           1325           0.00         2.00
  244.30        2957.25           1329           6.00        12.64
  244.33        2957.50           1332           8.00        21.36
  244.36        2957.75           1335           8.00        21.36
  244.39        2958.00           1339           8.00        21.36
  244.41        2958.25           1342           4.00         3.92
  244.44        2958.50           1345           0.00         2.00
  244.47        2958.75           1348           0.00         2.00
  244.49        2959.00           1352           4.00         3.92
  244.52        2959.25           1355           1.00         2.00
  244.55        2959.50           1358           8.00        21.36
  244.58        2959.75           1362           8.00        21.36
  244.60        2960.00           1365           0.00         2.00
  244.63        2960.25           1368           0.00         2.00
  244.66        2960.50           1372           4.00         3.92
  244.69        2960.75           1375           0.00         2.00
  244.71        2961.00           1378           0.00         2.00
  244.74        2961.25           1382           7.00        17.00
  244.77        2961.50           1385           0.00         2.00
  244.80        2961.75           1388           8.00        21.36
  244.82        2962.00           1392           8.00        21.36
  244.85        2962.25           1395           5.00         8.28
  244.88        2962.50           1398           8.00        21.36
  244.90        2962.75           1402           8.00        21.36
  244.93        2963.00           1405           0.00         2.00
  244.96        2963.25           1408           0.00         2.00
  244.99        2963.50           1412           8.00        21.36
  245.01        2963.75           1415           2.00         2.00
  245.04        2964.00           1418           8.00        21.36
  245.07        2964.25           1422           7.00        17.00
  245.09        2964.50           1425           3.00         2.00
  245.12        2964.75           1428           8.00        21.36
  245.15        2965.00           1431           8.00        21.36
  245.18        2965.25           1435           1.00         2.00
  245.20        2965.50           1438           0.00         2.00
  245.23        2965.75           1441           0.00         2.00
  245.26        2966.00           1445           0.00         2.00
  245.28        2966.25           1448           8.00        21.36
  245.31        2966.50           1451           3.00         2.00
  245.34        2966.75           1455           0.00         2.00
  245.37        2967.00           1458           0.00         2.00
  245.39        2967.25           1461           0.00         2.00
  245.42        2967.50           1465           0.00         2.00
  245.45        2967.75           1468           2.00         2.00
  245.48        2968.00           1471           8.00        21.36
  245.50        2968.25           1475           8.00        21.36
  245.53        2968.50           1478           1.00         2.00
  245.56        2968.75           1481           8.00        21.36
  245.58        2969.00           1485           8.00        21.36
  245.61        2969.25           1488           6.00        12.64
  245.64        2969.50           1491           0.00         2.00
  245.67        2969.75           1495           8.00        21.36
  245.69        2970.00           1498           3.00         2.00
  245.72        2970.25           1501           2.00         2.00
  245.75        2970.50           1505           4.00         3.92
  245.78        2970.75           1508           0.00         2.00
  245.80        2971.00           1511           4.00         3.92
  245.83        2971.25           1515           8.00        21.36
  245.86        2971.50           1518           8.00        21.36
  245.88        2971.75           1521           0.00         2.00
  245.91        2972.00           1525           8.00        21.36
  245.94        2972.25           1528           1.00         2.00
  245.97        2972.50           1531           0.00         2.00
  245.99        2972.75           1535           0.00         2.00
  246.02        2973.00           1538           8.00        21.36
  246.05        2973.25           1541           8.00        21.36
  246.07        2973.50           1545           0.00         2.00
  246.10        2973.75           1548           8.00        21.36
  246.13        2974.00           1551           5.00         8.28
  246.16        2974.25           1555           0.00         2.00
  246.18        2974.50           1558           0.00         2.00
  246.21        2974.75           1561           8.00        21.36
  246.24        2975.00           1565           0.00         2.00
  246.27        2975.25           1568           0.00         2.00
  246.29        2975.50           1571           0.00         2.00
  246.32        2975.75           1575           0.00         2.00
  246.35        2976.00           1578           8.00        21.36
  246.38        2976.25           1581           1.00         2.00
  246.40        2976.50           1585           0.00         2.00
  246.43        2976.75           1588           0.00         2.00
  246.46        2977.00           1591           8.00        21.36
  246.48        2977.25           1595           4.00         3.92
  246.51        2977.50           1598           0.00         2.00
  246.54        2977.75           1601           5.00         8.28
  246.57        2978.00           1605           6.00        12.64
  246.59        2978.25           1608           3.00         2.00
  246.62        2978.50           1611           6.00        12.64
  246.65        2978.75           1615           1.00         2.00
  246.68        2979.00           1618           8.00        21.36
  246.70        2979.25           1621           8.00        21.36
  246.73        2979.50           1625           8.00        21.36
  246.76        2979.75           1628           7.00        17.00
  246.78        2980.00           1631           8.00        21.36
  246.81        2980.25           1635           2.00         2.00
  246.84        2980.50           1638           6.00        12.64
  246.87        2980.75           1641           0.00         2.00
  246.89        2981.00           1645           0.00         2.00
  246.92        2981.25           1648           8.00        21.36
  246.95        2981.50           1651           8.00        21.36
  246.98        2981.75           1655           8.00        21.36
  247.00        2982.00           1658           4.00         3.92
  247.03        2982.25           1661           0.00         2.00
  247.06        2982.50           1665           6.00        12.64
  247.08        2982.75           1668           8.00        21.36
  247.11        2983.00           1671           8.00        21.36
  247.14        2983.25           1675           0.00         2.00
  247.17        2983.50           1678           0.00         2.00
  247.19        2983.75           1681           8.00        21.36
  247.22        2984.00           1685           8.00        21.36
HS scan finished at 04:07:24
end
