************************************************************
  HS Scan of (1) Internal mercury lamp
************************************************************
Integration time is 0.2294 seconds per sample
dh140117Tamanrasset 22.79-5.529 2.629141pr865
************************************************************
Dead Time -------------------------  2.8E-08 
Number of Cycles Used -------------  4 
Starting Wavelength (Angstroms) ---  2950 
Final Wavelength (Angstoms) -------  2984 
Wavelength Increment (Angstroms) --  .25 
Filter Wheel #1 Position ---------- (1) Ground quartz diffuser (ND=2.32)
Filter Wheel #2 Position ---------- (1) Neutral Density 0.494



************************************************************
HS scan start time = 04:03:08
Dark Count =  4.9 


Time (GMT)  Wavelength (Ang)  Step Number  Raw Counts  Counts/Second

  243.48        2950.00           1233           0.00         2.00
  243.55        2950.25           1236           4.00         2.00
  243.57        2950.50           1239           4.00         2.00
  243.60        2950.75           1242           2.00         2.00
  243.63        2951.00           1246           8.00        13.51
  243.66        2951.25           1249           0.00         2.00
  243.68        2951.50           1252           0.00         2.00
  243.71        2951.75           1256           8.00        13.51
  243.74        2952.00           1259           8.00        13.51
  243.76        2952.25           1262           1.00         2.00
  243.79        2952.50           1266           7.00         9.15
  243.82        2952.75           1269           0.00         2.00
  243.85        2953.00           1272           0.00         2.00
  243.87        2953.25           1276           4.00         2.00
  243.90        2953.50           1279           8.00        13.51
  243.93        2953.75           1282           8.00        13.51
  243.96        2954.00           1286           7.00         9.15
  243.98        2954.25           1289           0.00         2.00
  244.01        2954.50           1292           0.00         2.00
  244.04        2954.75           1295           8.00        13.51
  244.06        2955.00           1299           0.00         2.00
  244.09        2955.25           1302           0.00         2.00
  244.12        2955.50           1305           8.00        13.51
  244.15        2955.75           1309           2.00         2.00
  244.17        2956.00           1312           6.00         4.80
  244.20        2956.25           1315           5.00         2.00
  244.23        2956.50           1319           8.00        13.51
  244.26        2956.75           1322           1.00         2.00
  244.28        2957.00           1325           7.00         9.15
  244.31        2957.25           1329           0.00         2.00
  244.34        2957.50           1332           1.00         2.00
  244.37        2957.75           1335           3.00         2.00
  244.39        2958.00           1339           0.00         2.00
  244.42        2958.25           1342           8.00        13.51
  244.45        2958.50           1345           6.00         4.80
  244.47        2958.75           1348           8.00        13.51
  244.50        2959.00           1352           8.00        13.51
  244.53        2959.25           1355           0.00         2.00
  244.56        2959.50           1358           2.00         2.00
  244.58        2959.75           1362           0.00         2.00
  244.61        2960.00           1365           8.00        13.51
  244.64        2960.25           1368           0.00         2.00
  244.67        2960.50           1372           0.00         2.00
  244.69        2960.75           1375           5.00         2.00
  244.72        2961.00           1378           4.00         2.00
  244.75        2961.25           1382           8.00        13.51
  244.77        2961.50           1385           8.00        13.51
  244.80        2961.75           1388           4.00         2.00
  244.83        2962.00           1392           0.00         2.00
  244.86        2962.25           1395           0.00         2.00
  244.88        2962.50           1398           8.00        13.51
  244.91        2962.75           1402           0.00         2.00
  244.94        2963.00           1405           8.00        13.51
  244.96        2963.25           1408           8.00        13.51
  244.99        2963.50           1412           7.00         9.15
  245.02        2963.75           1415           6.00         4.80
  245.05        2964.00           1418           0.00         2.00
  245.07        2964.25           1422           0.00         2.00
  245.10        2964.50           1425           8.00        13.51
  245.13        2964.75           1428           0.00         2.00
  245.16        2965.00           1431           4.00         2.00
  245.18        2965.25           1435           8.00        13.51
  245.21        2965.50           1438           2.00         2.00
  245.24        2965.75           1441           2.00         2.00
  245.26        2966.00           1445           0.00         2.00
  245.29        2966.25           1448           2.00         2.00
  245.32        2966.50           1451           8.00        13.51
  245.35        2966.75           1455           8.00        13.51
  245.37        2967.00           1458           8.00        13.51
  245.40        2967.25           1461           0.00         2.00
  245.43        2967.50           1465           1.00         2.00
  245.46        2967.75           1468           0.00         2.00
  245.48        2968.00           1471           0.00         2.00
  245.51        2968.25           1475           0.00         2.00
  245.54        2968.50           1478           8.00        13.51
  245.56        2968.75           1481           0.00         2.00
  245.59        2969.00           1485           5.00         2.00
  245.62        2969.25           1488           0.00         2.00
  245.65        2969.50           1491           0.00         2.00
  245.67        2969.75           1495           0.00         2.00
  245.70        2970.00           1498           8.00        13.51
  245.73        2970.25           1501           3.00         2.00
  245.75        2970.50           1505           3.00         2.00
  245.78        2970.75           1508           8.00        13.51
  245.81        2971.00           1511           8.00        13.51
  245.84        2971.25           1515           4.00         2.00
  245.86        2971.50           1518           8.00        13.51
  245.89        2971.75           1521           1.00         2.00
  245.92        2972.00           1525           0.00         2.00
  245.95        2972.25           1528           8.00        13.51
  245.97        2972.50           1531           8.00        13.51
  246.00        2972.75           1535           8.00        13.51
  246.03        2973.00           1538           8.00        13.51
  246.05        2973.25           1541           3.00         2.00
  246.08        2973.50           1545           6.00         4.80
  246.11        2973.75           1548           1.00         2.00
  246.14        2974.00           1551           0.00         2.00
  246.16        2974.25           1555           4.00         2.00
  246.19        2974.50           1558           2.00         2.00
  246.22        2974.75           1561           8.00        13.51
  246.25        2975.00           1565           8.00        13.51
  246.27        2975.25           1568           8.00        13.51
  246.30        2975.50           1571           0.00         2.00
  246.33        2975.75           1575           8.00        13.51
  246.35        2976.00           1578           3.00         2.00
  246.38        2976.25           1581           0.00         2.00
  246.41        2976.50           1585           8.00        13.51
  246.44        2976.75           1588           4.00         2.00
  246.46        2977.00           1591           8.00        13.51
  246.49        2977.25           1595           8.00        13.51
  246.52        2977.50           1598           8.00        13.51
  246.54        2977.75           1601           1.00         2.00
  246.57        2978.00           1605           8.00        13.51
  246.60        2978.25           1608           8.00        13.51
  246.63        2978.50           1611           3.00         2.00
  246.65        2978.75           1615           5.00         2.00
  246.68        2979.00           1618           5.00         2.00
  246.71        2979.25           1621           8.00        13.51
  246.73        2979.50           1625           2.00         2.00
  246.76        2979.75           1628           8.00        13.51
  246.79        2980.00           1631           8.00        13.51
  246.82        2980.25           1635           7.00         9.15
  246.84        2980.50           1638           0.00         2.00
  246.87        2980.75           1641           0.00         2.00
  246.90        2981.00           1645           5.00         2.00
  246.93        2981.25           1648           8.00        13.51
  246.95        2981.50           1651           8.00        13.51
  246.98        2981.75           1655           8.00        13.51
  247.01        2982.00           1658           1.00         2.00
  247.03        2982.25           1661           0.00         2.00
  247.06        2982.50           1665           5.00         2.00
  247.09        2982.75           1668           3.00         2.00
  247.12        2983.00           1671           8.00        13.51
  247.14        2983.25           1675           0.00         2.00
  247.17        2983.50           1678           0.00         2.00
  247.20        2983.75           1681           4.00         2.00
  247.23        2984.00           1685           8.00        13.51
HS scan finished at 04:07:25
end
