************************************************************
  HS Scan of (1) Internal mercury lamp
************************************************************
Integration time is 0.2294 seconds per sample
dh190117Tamanrasset 22.79-5.529 2.705615pr865
************************************************************
Dead Time -------------------------  2.8E-08 
Number of Cycles Used -------------  4 
Starting Wavelength (Angstroms) ---  2950 
Final Wavelength (Angstoms) -------  2984 
Wavelength Increment (Angstroms) --  .25 
Filter Wheel #1 Position ---------- (1) Ground quartz diffuser (ND=2.32)
Filter Wheel #2 Position ---------- (1) Neutral Density 0.494



************************************************************
HS scan start time = 04:03:09
Dark Count =  4.8 


Time (GMT)  Wavelength (Ang)  Step Number  Raw Counts  Counts/Second

  243.50        2950.00           1233           0.00         2.00
  243.56        2950.25           1236           5.00         2.00
  243.59        2950.50           1239           8.00        13.95
  243.62        2950.75           1242           8.00        13.95
  243.65        2951.00           1246           8.00        13.95
  243.67        2951.25           1249           8.00        13.95
  243.70        2951.50           1252           0.00         2.00
  243.73        2951.75           1256           8.00        13.95
  243.76        2952.00           1259           7.00         9.59
  243.78        2952.25           1262           0.00         2.00
  243.81        2952.50           1266           4.00         2.00
  243.84        2952.75           1269           0.00         2.00
  243.86        2953.00           1272           3.00         2.00
  243.89        2953.25           1276           8.00        13.95
  243.92        2953.50           1279           0.00         2.00
  243.95        2953.75           1282           0.00         2.00
  243.97        2954.00           1286           0.00         2.00
  244.00        2954.25           1289           8.00        13.95
  244.03        2954.50           1292           6.00         5.23
  244.05        2954.75           1295           3.00         2.00
  244.08        2955.00           1299           8.00        13.95
  244.11        2955.25           1302           5.00         2.00
  244.14        2955.50           1305           7.00         9.59
  244.16        2955.75           1309           8.00        13.95
  244.19        2956.00           1312           0.00         2.00
  244.22        2956.25           1315           0.00         2.00
  244.24        2956.50           1319           0.00         2.00
  244.27        2956.75           1322           5.00         2.00
  244.30        2957.00           1325           2.00         2.00
  244.33        2957.25           1329           8.00        13.95
  244.35        2957.50           1332           0.00         2.00
  244.38        2957.75           1335           8.00        13.95
  244.41        2958.00           1339           2.00         2.00
  244.44        2958.25           1342           4.00         2.00
  244.46        2958.50           1345           0.00         2.00
  244.49        2958.75           1348           4.00         2.00
  244.52        2959.00           1352           5.00         2.00
  244.54        2959.25           1355           0.00         2.00
  244.57        2959.50           1358           8.00        13.95
  244.60        2959.75           1362           8.00        13.95
  244.63        2960.00           1365           3.00         2.00
  244.65        2960.25           1368           6.00         5.23
  244.68        2960.50           1372           6.00         5.23
  244.71        2960.75           1375           8.00        13.95
  244.73        2961.00           1378           8.00        13.95
  244.76        2961.25           1382           0.00         2.00
  244.79        2961.50           1385           8.00        13.95
  244.82        2961.75           1388           0.00         2.00
  244.84        2962.00           1392           8.00        13.95
  244.87        2962.25           1395           6.00         5.23
  244.90        2962.50           1398           0.00         2.00
  244.93        2962.75           1402           0.00         2.00
  244.95        2963.00           1405           0.00         2.00
  244.98        2963.25           1408           8.00        13.95
  245.01        2963.50           1412           0.00         2.00
  245.03        2963.75           1415           9.00        18.31
  245.06        2964.00           1418           8.00        13.95
  245.09        2964.25           1422           8.00        13.95
  245.12        2964.50           1425           8.00        13.95
  245.14        2964.75           1428           8.00        13.95
  245.17        2965.00           1431           4.00         2.00
  245.20        2965.25           1435           8.00        13.95
  245.23        2965.50           1438           2.00         2.00
  245.25        2965.75           1441           3.00         2.00
  245.28        2966.00           1445           2.00         2.00
  245.31        2966.25           1448           7.00         9.59
  245.33        2966.50           1451           0.00         2.00
  245.36        2966.75           1455           0.00         2.00
  245.39        2967.00           1458           6.00         5.23
  245.42        2967.25           1461           2.00         2.00
  245.44        2967.50           1465           8.00        13.95
  245.47        2967.75           1468           8.00        13.95
  245.50        2968.00           1471           0.00         2.00
  245.52        2968.25           1475           5.00         2.00
  245.55        2968.50           1478           0.00         2.00
  245.58        2968.75           1481           6.00         5.23
  245.61        2969.00           1485           4.00         2.00
  245.63        2969.25           1488           8.00        13.95
  245.66        2969.50           1491           8.00        13.95
  245.69        2969.75           1495           2.00         2.00
  245.72        2970.00           1498           0.00         2.00
  245.74        2970.25           1501           4.00         2.00
  245.77        2970.50           1505           2.00         2.00
  245.80        2970.75           1508           0.00         2.00
  245.83        2971.00           1511           8.00        13.95
  245.85        2971.25           1515           5.00         2.00
  245.88        2971.50           1518           5.00         2.00
  245.91        2971.75           1521           0.00         2.00
  245.93        2972.00           1525           5.00         2.00
  245.96        2972.25           1528           4.00         2.00
  245.99        2972.50           1531           6.00         5.23
  246.02        2972.75           1535           0.00         2.00
  246.04        2973.00           1538           8.00        13.95
  246.07        2973.25           1541           0.00         2.00
  246.10        2973.50           1545           8.00        13.95
  246.13        2973.75           1548           0.00         2.00
  246.15        2974.00           1551           7.00         9.59
  246.18        2974.25           1555           8.00        13.95
  246.21        2974.50           1558           5.00         2.00
  246.23        2974.75           1561           8.00        13.95
  246.26        2975.00           1565           8.00        13.95
  246.29        2975.25           1568           0.00         2.00
  246.32        2975.50           1571           8.00        13.95
  246.34        2975.75           1575           8.00        13.95
  246.37        2976.00           1578           0.00         2.00
  246.40        2976.25           1581           6.00         5.23
  246.42        2976.50           1585           0.00         2.00
  246.45        2976.75           1588           4.00         2.00
  246.48        2977.00           1591           0.00         2.00
  246.51        2977.25           1595           2.00         2.00
  246.53        2977.50           1598           7.00         9.59
  246.56        2977.75           1601           0.00         2.00
  246.59        2978.00           1605           3.00         2.00
  246.62        2978.25           1608           3.00         2.00
  246.64        2978.50           1611           8.00        13.95
  246.67        2978.75           1615           5.00         2.00
  246.70        2979.00           1618           0.00         2.00
  246.72        2979.25           1621           2.00         2.00
  246.75        2979.50           1625           8.00        13.95
  246.78        2979.75           1628           3.00         2.00
  246.81        2980.00           1631           8.00        13.95
  246.83        2980.25           1635           2.00         2.00
  246.86        2980.50           1638           8.00        13.95
  246.89        2980.75           1641           1.00         2.00
  246.92        2981.00           1645           0.00         2.00
  246.94        2981.25           1648           0.00         2.00
  246.97        2981.50           1651           4.00         2.00
  247.00        2981.75           1655           0.00         2.00
  247.02        2982.00           1658           2.00         2.00
  247.05        2982.25           1661           3.00         2.00
  247.08        2982.50           1665           8.00        13.95
  247.11        2982.75           1668           8.00        13.95
  247.13        2983.00           1671           0.00         2.00
  247.16        2983.25           1675           0.00         2.00
  247.19        2983.50           1678           5.00         2.00
  247.21        2983.75           1681           0.00         2.00
  247.24        2984.00           1685           4.00         2.00
HS scan finished at 04:07:26
end
