************************************************************
  HS Scan of (1) Internal mercury lamp
************************************************************
Integration time is 0.2294 seconds per sample
dh170117Tamanrasset 22.79-5.529 2.644435pr865
************************************************************
Dead Time -------------------------  2.8E-08 
Number of Cycles Used -------------  4 
Starting Wavelength (Angstroms) ---  2950 
Final Wavelength (Angstoms) -------  2984 
Wavelength Increment (Angstroms) --  .25 
Filter Wheel #1 Position ---------- (1) Ground quartz diffuser (ND=2.32)
Filter Wheel #2 Position ---------- (1) Neutral Density 0.494



************************************************************
HS scan start time = 04:03:31
Dark Count =  4.2 


Time (GMT)  Wavelength (Ang)  Step Number  Raw Counts  Counts/Second

  243.87        2950.00           1233           8.00        16.56
  243.94        2950.25           1236           8.00        16.56
  243.96        2950.50           1239           7.00        12.21
  243.99        2950.75           1242           7.00        12.21
  244.02        2951.00           1246           7.00        12.21
  244.04        2951.25           1249           0.00         2.00
  244.07        2951.50           1252           2.00         2.00
  244.10        2951.75           1256           8.00        16.56
  244.13        2952.00           1259           8.00        16.56
  244.15        2952.25           1262           4.00         2.00
  244.18        2952.50           1266           5.00         3.49
  244.21        2952.75           1269           0.00         2.00
  244.23        2953.00           1272           8.00        16.56
  244.26        2953.25           1276           8.00        16.56
  244.29        2953.50           1279           8.00        16.56
  244.32        2953.75           1282           0.00         2.00
  244.34        2954.00           1286           0.00         2.00
  244.37        2954.25           1289           4.00         2.00
  244.40        2954.50           1292           8.00        16.56
  244.43        2954.75           1295           2.00         2.00
  244.45        2955.00           1299           3.00         2.00
  244.48        2955.25           1302           2.00         2.00
  244.51        2955.50           1305           0.00         2.00
  244.53        2955.75           1309           0.00         2.00
  244.56        2956.00           1312           8.00        16.56
  244.59        2956.25           1315           8.00        16.56
  244.62        2956.50           1319           8.00        16.56
  244.64        2956.75           1322           8.00        16.56
  244.67        2957.00           1325           0.00         2.00
  244.70        2957.25           1329           0.00         2.00
  244.72        2957.50           1332           8.00        16.56
  244.75        2957.75           1335           0.00         2.00
  244.78        2958.00           1339           7.00        12.21
  244.81        2958.25           1342           0.00         2.00
  244.83        2958.50           1345           0.00         2.00
  244.86        2958.75           1348           8.00        16.56
  244.89        2959.00           1352           8.00        16.56
  244.92        2959.25           1355           8.00        16.56
  244.94        2959.50           1358           0.00         2.00
  244.97        2959.75           1362           0.00         2.00
  245.00        2960.00           1365           0.00         2.00
  245.02        2960.25           1368           8.00        16.56
  245.05        2960.50           1372           0.00         2.00
  245.08        2960.75           1375           8.00        16.56
  245.11        2961.00           1378           0.00         2.00
  245.13        2961.25           1382           8.00        16.56
  245.16        2961.50           1385           8.00        16.56
  245.19        2961.75           1388           3.00         2.00
  245.22        2962.00           1392           1.00         2.00
  245.24        2962.25           1395           8.00        16.56
  245.27        2962.50           1398           0.00         2.00
  245.30        2962.75           1402           8.00        16.56
  245.32        2963.00           1405           4.00         2.00
  245.35        2963.25           1408           8.00        16.56
  245.38        2963.50           1412           3.00         2.00
  245.41        2963.75           1415           6.00         7.85
  245.43        2964.00           1418           0.00         2.00
  245.46        2964.25           1422           0.00         2.00
  245.49        2964.50           1425           0.00         2.00
  245.52        2964.75           1428           1.00         2.00
  245.54        2965.00           1431           8.00        16.56
  245.57        2965.25           1435           8.00        16.56
  245.60        2965.50           1438           8.00        16.56
  245.62        2965.75           1441           2.00         2.00
  245.65        2966.00           1445           6.00         7.85
  245.68        2966.25           1448           0.00         2.00
  245.71        2966.50           1451           0.00         2.00
  245.73        2966.75           1455           8.00        16.56
  245.76        2967.00           1458           8.00        16.56
  245.79        2967.25           1461           8.00        16.56
  245.81        2967.50           1465           0.00         2.00
  245.84        2967.75           1468           0.00         2.00
  245.87        2968.00           1471           6.00         7.85
  245.90        2968.25           1475           4.00         2.00
  245.92        2968.50           1478           8.00        16.56
  245.95        2968.75           1481           3.00         2.00
  245.98        2969.00           1485           3.00         2.00
  246.01        2969.25           1488           0.00         2.00
  246.03        2969.50           1491           7.00        12.21
  246.06        2969.75           1495           3.00         2.00
  246.09        2970.00           1498           4.00         2.00
  246.12        2970.25           1501           8.00        16.56
  246.14        2970.50           1505           8.00        16.56
  246.17        2970.75           1508           0.00         2.00
  246.20        2971.00           1511           1.00         2.00
  246.22        2971.25           1515           8.00        16.56
  246.25        2971.50           1518           0.00         2.00
  246.28        2971.75           1521           0.00         2.00
  246.31        2972.00           1525           0.00         2.00
  246.33        2972.25           1528           4.00         2.00
  246.36        2972.50           1531           0.00         2.00
  246.39        2972.75           1535           0.00         2.00
  246.41        2973.00           1538           8.00        16.56
  246.44        2973.25           1541           0.00         2.00
  246.47        2973.50           1545           5.00         3.49
  246.50        2973.75           1548           3.00         2.00
  246.52        2974.00           1551           0.00         2.00
  246.55        2974.25           1555           7.00        12.21
  246.58        2974.50           1558           4.00         2.00
  246.61        2974.75           1561           2.00         2.00
  246.63        2975.00           1565           8.00        16.56
  246.66        2975.25           1568           8.00        16.56
  246.69        2975.50           1571           4.00         2.00
  246.71        2975.75           1575           0.00         2.00
  246.74        2976.00           1578           0.00         2.00
  246.77        2976.25           1581           0.00         2.00
  246.80        2976.50           1585           1.00         2.00
  246.82        2976.75           1588           0.00         2.00
  246.85        2977.00           1591           0.00         2.00
  246.88        2977.25           1595           2.00         2.00
  246.91        2977.50           1598           0.00         2.00
  246.93        2977.75           1601           8.00        16.56
  246.96        2978.00           1605           4.00         2.00
  246.99        2978.25           1608           8.00        16.56
  247.01        2978.50           1611           4.00         2.00
  247.04        2978.75           1615           0.00         2.00
  247.07        2979.00           1618           0.00         2.00
  247.10        2979.25           1621           4.00         2.00
  247.12        2979.50           1625           8.00        16.56
  247.15        2979.75           1628           5.00         3.49
  247.18        2980.00           1631           8.00        16.56
  247.21        2980.25           1635           7.00        12.21
  247.23        2980.50           1638           7.00        12.21
  247.26        2980.75           1641           8.00        16.56
  247.29        2981.00           1645           0.00         2.00
  247.31        2981.25           1648           2.00         2.00
  247.34        2981.50           1651           8.00        16.56
  247.37        2981.75           1655           6.00         7.85
  247.40        2982.00           1658           7.00        12.21
  247.42        2982.25           1661           4.00         2.00
  247.45        2982.50           1665           8.00        16.56
  247.48        2982.75           1668           0.00         2.00
  247.50        2983.00           1671           7.00        12.21
  247.53        2983.25           1675           8.00        16.56
  247.56        2983.50           1678           8.00        16.56
  247.59        2983.75           1681           7.00        12.21
  247.61        2984.00           1685           1.00         2.00
HS scan finished at 04:07:48
end
