************************************************************
  HS Scan of (1) Internal mercury lamp
************************************************************
Integration time is 0.2294 seconds per sample
dh270117Tamanrasset 22.79-5.529 2.675025pr865
************************************************************
Dead Time -------------------------  2.8E-08 
Number of Cycles Used -------------  4 
Starting Wavelength (Angstroms) ---  2950 
Final Wavelength (Angstoms) -------  2984 
Wavelength Increment (Angstroms) --  .25 
Filter Wheel #1 Position ---------- (1) Ground quartz diffuser (ND=2.32)
Filter Wheel #2 Position ---------- (1) Neutral Density 0.494



************************************************************
HS scan start time = 04:02:13
Dark Count =  4.4 


Time (GMT)  Wavelength (Ang)  Step Number  Raw Counts  Counts/Second

  242.57        2950.00           1233           0.00         2.00
  242.64        2950.25           1236           5.00         2.62
  242.66        2950.50           1239           0.00         2.00
  242.69        2950.75           1242           3.00         2.00
  242.72        2951.00           1246           0.00         2.00
  242.75        2951.25           1249           0.00         2.00
  242.77        2951.50           1252           4.00         2.00
  242.80        2951.75           1256           8.00        15.69
  242.83        2952.00           1259           4.00         2.00
  242.86        2952.25           1262           0.00         2.00
  242.88        2952.50           1266           3.00         2.00
  242.91        2952.75           1269           8.00        15.69
  242.94        2953.00           1272           8.00        15.69
  242.97        2953.25           1276           8.00        15.69
  242.99        2953.50           1279           8.00        15.69
  243.02        2953.75           1282           1.00         2.00
  243.05        2954.00           1286           2.00         2.00
  243.07        2954.25           1289           6.00         6.97
  243.10        2954.50           1292           5.00         2.62
  243.13        2954.75           1295           2.00         2.00
  243.16        2955.00           1299           8.00        15.69
  243.18        2955.25           1302           8.00        15.69
  243.21        2955.50           1305           0.00         2.00
  243.24        2955.75           1309           0.00         2.00
  243.27        2956.00           1312           2.00         2.00
  243.29        2956.25           1315           7.00        11.33
  243.32        2956.50           1319           8.00        15.69
  243.35        2956.75           1322           1.00         2.00
  243.37        2957.00           1325           8.00        15.69
  243.40        2957.25           1329           6.00         6.97
  243.43        2957.50           1332           0.00         2.00
  243.46        2957.75           1335           4.00         2.00
  243.48        2958.00           1339           8.00        15.69
  243.51        2958.25           1342           8.00        15.69
  243.54        2958.50           1345           0.00         2.00
  243.56        2958.75           1348           0.00         2.00
  243.59        2959.00           1352           4.00         2.00
  243.62        2959.25           1355           5.00         2.62
  243.65        2959.50           1358           0.00         2.00
  243.67        2959.75           1362           6.00         6.97
  243.70        2960.00           1365           5.00         2.62
  243.73        2960.25           1368           7.00        11.33
  243.76        2960.50           1372           1.00         2.00
  243.78        2960.75           1375           3.00         2.00
  243.81        2961.00           1378           1.00         2.00
  243.84        2961.25           1382           8.00        15.69
  243.86        2961.50           1385           8.00        15.69
  243.89        2961.75           1388           8.00        15.69
  243.92        2962.00           1392           3.00         2.00
  243.95        2962.25           1395           2.00         2.00
  243.97        2962.50           1398           0.00         2.00
  244.00        2962.75           1402           8.00        15.69
  244.03        2963.00           1405           1.00         2.00
  244.06        2963.25           1408           2.00         2.00
  244.08        2963.50           1412           8.00        15.69
  244.11        2963.75           1415           4.00         2.00
  244.14        2964.00           1418           8.00        15.69
  244.16        2964.25           1422           8.00        15.69
  244.19        2964.50           1425           5.00         2.62
  244.22        2964.75           1428           0.00         2.00
  244.25        2965.00           1431           1.00         2.00
  244.27        2965.25           1435           3.00         2.00
  244.30        2965.50           1438           0.00         2.00
  244.33        2965.75           1441           8.00        15.69
  244.35        2966.00           1445           3.00         2.00
  244.38        2966.25           1448           8.00        15.69
  244.41        2966.50           1451           8.00        15.69
  244.44        2966.75           1455           3.00         2.00
  244.46        2967.00           1458           0.00         2.00
  244.49        2967.25           1461           0.00         2.00
  244.52        2967.50           1465           8.00        15.69
  244.55        2967.75           1468           0.00         2.00
  244.57        2968.00           1471           5.00         2.62
  244.60        2968.25           1475           8.00        15.69
  244.63        2968.50           1478           0.00         2.00
  244.65        2968.75           1481           3.00         2.00
  244.68        2969.00           1485           2.00         2.00
  244.71        2969.25           1488           0.00         2.00
  244.74        2969.50           1491           8.00        15.69
  244.76        2969.75           1495           8.00        15.69
  244.79        2970.00           1498           0.00         2.00
  244.82        2970.25           1501           8.00        15.69
  244.84        2970.50           1505           7.00        11.33
  244.87        2970.75           1508           5.00         2.62
  244.90        2971.00           1511           8.00        15.69
  244.93        2971.25           1515           3.00         2.00
  244.95        2971.50           1518           0.00         2.00
  244.98        2971.75           1521           8.00        15.69
  245.01        2972.00           1525           5.00         2.62
  245.04        2972.25           1528           0.00         2.00
  245.06        2972.50           1531           7.00        11.33
  245.09        2972.75           1535           2.00         2.00
  245.12        2973.00           1538           8.00        15.69
  245.14        2973.25           1541           1.00         2.00
  245.17        2973.50           1545           7.00        11.33
  245.20        2973.75           1548           8.00        15.69
  245.23        2974.00           1551           1.00         2.00
  245.25        2974.25           1555           8.00        15.69
  245.28        2974.50           1558           0.00         2.00
  245.31        2974.75           1561           8.00        15.69
  245.33        2975.00           1565           8.00        15.69
  245.36        2975.25           1568           2.00         2.00
  245.39        2975.50           1571           8.00        15.69
  245.42        2975.75           1575           2.00         2.00
  245.44        2976.00           1578           8.00        15.69
  245.47        2976.25           1581           0.00         2.00
  245.50        2976.50           1585           0.00         2.00
  245.53        2976.75           1588           1.00         2.00
  245.55        2977.00           1591           8.00        15.69
  245.58        2977.25           1595           6.00         6.97
  245.61        2977.50           1598           0.00         2.00
  245.63        2977.75           1601           7.00        11.33
  245.66        2978.00           1605           2.00         2.00
  245.69        2978.25           1608           0.00         2.00
  245.72        2978.50           1611           0.00         2.00
  245.74        2978.75           1615           0.00         2.00
  245.77        2979.00           1618           1.00         2.00
  245.80        2979.25           1621           8.00        15.69
  245.82        2979.50           1625           0.00         2.00
  245.85        2979.75           1628           0.00         2.00
  245.88        2980.00           1631           6.00         6.97
  245.91        2980.25           1635           3.00         2.00
  245.93        2980.50           1638           0.00         2.00
  245.96        2980.75           1641           5.00         2.62
  245.99        2981.00           1645           0.00         2.00
  246.02        2981.25           1648           7.00        11.33
  246.04        2981.50           1651           7.00        11.33
  246.07        2981.75           1655           8.00        15.69
  246.10        2982.00           1658           3.00         2.00
  246.12        2982.25           1661           0.00         2.00
  246.15        2982.50           1665           8.00        15.69
  246.18        2982.75           1668           0.00         2.00
  246.21        2983.00           1671           8.00        15.69
  246.23        2983.25           1675           0.00         2.00
  246.26        2983.50           1678           0.00         2.00
  246.29        2983.75           1681           8.00        15.69
  246.32        2984.00           1685           8.00        15.69
HS scan finished at 04:06:30
end
