************************************************************
  HS Scan of (1) Internal mercury lamp
************************************************************
Integration time is 0.2294 seconds per sample
dh200117Tamanrasset 22.79-5.529 2.69032pr865
************************************************************
Dead Time -------------------------  2.8E-08 
Number of Cycles Used -------------  4 
Starting Wavelength (Angstroms) ---  2950 
Final Wavelength (Angstoms) -------  2984 
Wavelength Increment (Angstroms) --  .25 
Filter Wheel #1 Position ---------- (1) Ground quartz diffuser (ND=2.32)
Filter Wheel #2 Position ---------- (1) Neutral Density 0.494



************************************************************
HS scan start time = 04:03:10
Dark Count =  5.5 


Time (GMT)  Wavelength (Ang)  Step Number  Raw Counts  Counts/Second

  243.52        2950.00           1233           8.00        10.90
  243.58        2950.25           1236           0.00         2.00
  243.61        2950.50           1239           4.00         2.00
  243.64        2950.75           1242           3.00         2.00
  243.67        2951.00           1246           0.00         2.00
  243.69        2951.25           1249           0.00         2.00
  243.72        2951.50           1252           0.00         2.00
  243.75        2951.75           1256           8.00        10.90
  243.78        2952.00           1259           7.00         6.54
  243.80        2952.25           1262           0.00         2.00
  243.83        2952.50           1266           1.00         2.00
  243.86        2952.75           1269           8.00        10.90
  243.88        2953.00           1272           8.00        10.90
  243.91        2953.25           1276           8.00        10.90
  243.94        2953.50           1279           8.00        10.90
  243.97        2953.75           1282           5.00         2.00
  243.99        2954.00           1286           0.00         2.00
  244.02        2954.25           1289           5.00         2.00
  244.05        2954.50           1292           4.00         2.00
  244.07        2954.75           1295           8.00        10.90
  244.10        2955.00           1299           0.00         2.00
  244.13        2955.25           1302           0.00         2.00
  244.16        2955.50           1305           4.00         2.00
  244.18        2955.75           1309           8.00        10.90
  244.21        2956.00           1312           3.00         2.00
  244.24        2956.25           1315           0.00         2.00
  244.27        2956.50           1319           0.00         2.00
  244.29        2956.75           1322           3.00         2.00
  244.32        2957.00           1325           0.00         2.00
  244.35        2957.25           1329           8.00        10.90
  244.37        2957.50           1332           1.00         2.00
  244.40        2957.75           1335           8.00        10.90
  244.43        2958.00           1339           0.00         2.00
  244.46        2958.25           1342           0.00         2.00
  244.48        2958.50           1345           7.00         6.54
  244.51        2958.75           1348           4.00         2.00
  244.54        2959.00           1352           8.00        10.90
  244.56        2959.25           1355           6.00         2.18
  244.59        2959.50           1358           0.00         2.00
  244.62        2959.75           1362           0.00         2.00
  244.65        2960.00           1365           2.00         2.00
  244.67        2960.25           1368           8.00        10.90
  244.70        2960.50           1372           0.00         2.00
  244.73        2960.75           1375           8.00        10.90
  244.76        2961.00           1378           8.00        10.90
  244.78        2961.25           1382           3.00         2.00
  244.81        2961.50           1385           0.00         2.00
  244.84        2961.75           1388           2.00         2.00
  244.86        2962.00           1392           8.00        10.90
  244.89        2962.25           1395           8.00        10.90
  244.92        2962.50           1398           5.00         2.00
  244.95        2962.75           1402           0.00         2.00
  244.97        2963.00           1405           8.00        10.90
  245.00        2963.25           1408           2.00         2.00
  245.03        2963.50           1412           8.00        10.90
  245.06        2963.75           1415           3.00         2.00
  245.08        2964.00           1418           7.00         6.54
  245.11        2964.25           1422           7.00         6.54
  245.14        2964.50           1425           4.00         2.00
  245.16        2964.75           1428           8.00        10.90
  245.19        2965.00           1431           8.00        10.90
  245.22        2965.25           1435           8.00        10.90
  245.25        2965.50           1438           8.00        10.90
  245.27        2965.75           1441           3.00         2.00
  245.30        2966.00           1445           0.00         2.00
  245.33        2966.25           1448           8.00        10.90
  245.36        2966.50           1451           0.00         2.00
  245.38        2966.75           1455           0.00         2.00
  245.41        2967.00           1458           0.00         2.00
  245.44        2967.25           1461           8.00        10.90
  245.46        2967.50           1465           2.00         2.00
  245.49        2967.75           1468           8.00        10.90
  245.52        2968.00           1471           8.00        10.90
  245.55        2968.25           1475           5.00         2.00
  245.57        2968.50           1478           7.00         6.54
  245.60        2968.75           1481           0.00         2.00
  245.63        2969.00           1485           0.00         2.00
  245.66        2969.25           1488           8.00        10.90
  245.68        2969.50           1491           0.00         2.00
  245.71        2969.75           1495           5.00         2.00
  245.74        2970.00           1498           8.00        10.90
  245.76        2970.25           1501           8.00        10.90
  245.79        2970.50           1505           8.00        10.90
  245.82        2970.75           1508           0.00         2.00
  245.85        2971.00           1511           0.00         2.00
  245.87        2971.25           1515           7.00         6.54
  245.90        2971.50           1518           8.00        10.90
  245.93        2971.75           1521           0.00         2.00
  245.95        2972.00           1525           3.00         2.00
  245.98        2972.25           1528           8.00        10.90
  246.01        2972.50           1531           0.00         2.00
  246.04        2972.75           1535           3.00         2.00
  246.06        2973.00           1538           8.00        10.90
  246.09        2973.25           1541           8.00        10.90
  246.12        2973.50           1545           8.00        10.90
  246.15        2973.75           1548           8.00        10.90
  246.17        2974.00           1551           4.00         2.00
  246.20        2974.25           1555           4.00         2.00
  246.23        2974.50           1558           6.00         2.18
  246.25        2974.75           1561           7.00         6.54
  246.28        2975.00           1565           8.00        10.90
  246.31        2975.25           1568           8.00        10.90
  246.34        2975.50           1571           8.00        10.90
  246.36        2975.75           1575           0.00         2.00
  246.39        2976.00           1578           8.00        10.90
  246.42        2976.25           1581           3.00         2.00
  246.44        2976.50           1585           7.00         6.54
  246.47        2976.75           1588           0.00         2.00
  246.50        2977.00           1591           8.00        10.90
  246.53        2977.25           1595           4.00         2.00
  246.55        2977.50           1598           5.00         2.00
  246.58        2977.75           1601           7.00         6.54
  246.61        2978.00           1605           8.00        10.90
  246.64        2978.25           1608           8.00        10.90
  246.66        2978.50           1611           3.00         2.00
  246.69        2978.75           1615           5.00         2.00
  246.72        2979.00           1618           8.00        10.90
  246.74        2979.25           1621           8.00        10.90
  246.77        2979.50           1625           0.00         2.00
  246.80        2979.75           1628           8.00        10.90
  246.83        2980.00           1631           8.00        10.90
  246.85        2980.25           1635           7.00         6.54
  246.88        2980.50           1638           0.00         2.00
  246.91        2980.75           1641           8.00        10.90
  246.94        2981.00           1645           3.00         2.00
  246.96        2981.25           1648           8.00        10.90
  246.99        2981.50           1651           8.00        10.90
  247.02        2981.75           1655           6.00         2.18
  247.04        2982.00           1658           7.00         6.54
  247.07        2982.25           1661           8.00        10.90
  247.10        2982.50           1665           8.00        10.90
  247.13        2982.75           1668           8.00        10.90
  247.15        2983.00           1671           0.00         2.00
  247.18        2983.25           1675           0.00         2.00
  247.21        2983.50           1678           8.00        10.90
  247.23        2983.75           1681           8.00        10.90
  247.26        2984.00           1685           0.00         2.00
HS scan finished at 04:07:27
end
