************************************************************
  HS Scan of (1) Internal mercury lamp
************************************************************
Integration time is 0.2294 seconds per sample
dh280117Tamanrasset 22.79-5.529 2.65973pr865
************************************************************
Dead Time -------------------------  2.8E-08 
Number of Cycles Used -------------  4 
Starting Wavelength (Angstroms) ---  2950 
Final Wavelength (Angstoms) -------  2984 
Wavelength Increment (Angstroms) --  .25 
Filter Wheel #1 Position ---------- (1) Ground quartz diffuser (ND=2.32)
Filter Wheel #2 Position ---------- (1) Neutral Density 0.494



************************************************************
HS scan start time = 04:00:57
Dark Count =  4.4 


Time (GMT)  Wavelength (Ang)  Step Number  Raw Counts  Counts/Second

  241.31        2950.00           1233           5.00         2.62
  241.37        2950.25           1236           8.00        15.69
  241.40        2950.50           1239           3.00         2.00
  241.43        2950.75           1242           3.00         2.00
  241.45        2951.00           1246           8.00        15.69
  241.48        2951.25           1249           1.00         2.00
  241.51        2951.50           1252           0.00         2.00
  241.54        2951.75           1256           2.00         2.00
  241.56        2952.00           1259           3.00         2.00
  241.59        2952.25           1262           0.00         2.00
  241.62        2952.50           1266           0.00         2.00
  241.65        2952.75           1269           0.00         2.00
  241.67        2953.00           1272           8.00        15.69
  241.70        2953.25           1276           2.00         2.00
  241.73        2953.50           1279           0.00         2.00
  241.75        2953.75           1282           8.00        15.69
  241.78        2954.00           1286           8.00        15.69
  241.81        2954.25           1289           3.00         2.00
  241.84        2954.50           1292           0.00         2.00
  241.86        2954.75           1295           0.00         2.00
  241.89        2955.00           1299           0.00         2.00
  241.92        2955.25           1302           0.00         2.00
  241.95        2955.50           1305           8.00        15.69
  241.97        2955.75           1309           8.00        15.69
  242.00        2956.00           1312           0.00         2.00
  242.03        2956.25           1315           0.00         2.00
  242.05        2956.50           1319           8.00        15.69
  242.08        2956.75           1322           0.00         2.00
  242.11        2957.00           1325           8.00        15.69
  242.14        2957.25           1329           6.00         6.97
  242.16        2957.50           1332           3.00         2.00
  242.19        2957.75           1335           8.00        15.69
  242.22        2958.00           1339           3.00         2.00
  242.24        2958.25           1342           0.00         2.00
  242.27        2958.50           1345           0.00         2.00
  242.30        2958.75           1348           4.00         2.00
  242.33        2959.00           1352           0.00         2.00
  242.35        2959.25           1355           0.00         2.00
  242.38        2959.50           1358           0.00         2.00
  242.41        2959.75           1362           8.00        15.69
  242.44        2960.00           1365           8.00        15.69
  242.46        2960.25           1368           5.00         2.62
  242.49        2960.50           1372           7.00        11.33
  242.52        2960.75           1375           4.00         2.00
  242.55        2961.00           1378           8.00        15.69
  242.57        2961.25           1382           2.00         2.00
  242.60        2961.50           1385           0.00         2.00
  242.63        2961.75           1388           0.00         2.00
  242.65        2962.00           1392           8.00        15.69
  242.68        2962.25           1395           8.00        15.69
  242.71        2962.50           1398           0.00         2.00
  242.74        2962.75           1402           0.00         2.00
  242.76        2963.00           1405           5.00         2.62
  242.79        2963.25           1408           8.00        15.69
  242.82        2963.50           1412           2.00         2.00
  242.85        2963.75           1415           0.00         2.00
  242.87        2964.00           1418           8.00        15.69
  242.90        2964.25           1422           8.00        15.69
  242.93        2964.50           1425           2.00         2.00
  242.95        2964.75           1428           0.00         2.00
  242.98        2965.00           1431           0.00         2.00
  243.01        2965.25           1435           0.00         2.00
  243.04        2965.50           1438           3.00         2.00
  243.06        2965.75           1441           6.00         6.97
  243.09        2966.00           1445           0.00         2.00
  243.12        2966.25           1448           8.00        15.69
  243.14        2966.50           1451           8.00        15.69
  243.17        2966.75           1455           2.00         2.00
  243.20        2967.00           1458           8.00        15.69
  243.23        2967.25           1461           7.00        11.33
  243.25        2967.50           1465           7.00        11.33
  243.28        2967.75           1468           4.00         2.00
  243.31        2968.00           1471           0.00         2.00
  243.34        2968.25           1475           0.00         2.00
  243.36        2968.50           1478           0.00         2.00
  243.39        2968.75           1481           0.00         2.00
  243.42        2969.00           1485           3.00         2.00
  243.44        2969.25           1488           8.00        15.69
  243.47        2969.50           1491           8.00        15.69
  243.50        2969.75           1495           0.00         2.00
  243.53        2970.00           1498           7.00        11.33
  243.55        2970.25           1501           8.00        15.69
  243.58        2970.50           1505           8.00        15.69
  243.61        2970.75           1508           2.00         2.00
  243.63        2971.00           1511           3.00         2.00
  243.66        2971.25           1515           8.00        15.69
  243.69        2971.50           1518           8.00        15.69
  243.72        2971.75           1521           0.00         2.00
  243.74        2972.00           1525           0.00         2.00
  243.77        2972.25           1528           0.00         2.00
  243.80        2972.50           1531           7.00        11.33
  243.83        2972.75           1535           0.00         2.00
  243.85        2973.00           1538           0.00         2.00
  243.88        2973.25           1541           2.00         2.00
  243.91        2973.50           1545           8.00        15.69
  243.93        2973.75           1548           8.00        15.69
  243.96        2974.00           1551           2.00         2.00
  243.99        2974.25           1555           0.00         2.00
  244.02        2974.50           1558           7.00        11.33
  244.04        2974.75           1561           0.00         2.00
  244.07        2975.00           1565           8.00        15.69
  244.10        2975.25           1568           8.00        15.69
  244.13        2975.50           1571           8.00        15.69
  244.15        2975.75           1575           8.00        15.69
  244.18        2976.00           1578           0.00         2.00
  244.21        2976.25           1581           0.00         2.00
  244.23        2976.50           1585           8.00        15.69
  244.26        2976.75           1588           0.00         2.00
  244.29        2977.00           1591           0.00         2.00
  244.32        2977.25           1595           4.00         2.00
  244.34        2977.50           1598           3.00         2.00
  244.37        2977.75           1601           8.00        15.69
  244.40        2978.00           1605           8.00        15.69
  244.43        2978.25           1608           5.00         2.62
  244.45        2978.50           1611           8.00        15.69
  244.48        2978.75           1615           0.00         2.00
  244.51        2979.00           1618           0.00         2.00
  244.53        2979.25           1621           3.00         2.00
  244.56        2979.50           1625           1.00         2.00
  244.59        2979.75           1628           8.00        15.69
  244.62        2980.00           1631           8.00        15.69
  244.64        2980.25           1635           0.00         2.00
  244.67        2980.50           1638           4.00         2.00
  244.70        2980.75           1641           4.00         2.00
  244.73        2981.00           1645           8.00        15.69
  244.75        2981.25           1648           8.00        15.69
  244.78        2981.50           1651           1.00         2.00
  244.81        2981.75           1655           8.00        15.69
  244.83        2982.00           1658           0.00         2.00
  244.86        2982.25           1661           8.00        15.69
  244.89        2982.50           1665           8.00        15.69
  244.92        2982.75           1668           0.00         2.00
  244.94        2983.00           1671           4.00         2.00
  244.97        2983.25           1675           5.00         2.62
  245.00        2983.50           1678           4.00         2.00
  245.02        2983.75           1681           8.00        15.69
  245.05        2984.00           1685           8.00        15.69
HS scan finished at 04:05:14
end
