************************************************************
  HS Scan of (1) Internal mercury lamp
************************************************************
Integration time is 0.2294 seconds per sample
dh230117Tamanrasset 22.79-5.529 2.644435pr865
************************************************************
Dead Time -------------------------  2.8E-08 
Number of Cycles Used -------------  4 
Starting Wavelength (Angstroms) ---  2950 
Final Wavelength (Angstoms) -------  2984 
Wavelength Increment (Angstroms) --  .25 
Filter Wheel #1 Position ---------- (1) Ground quartz diffuser (ND=2.32)
Filter Wheel #2 Position ---------- (1) Neutral Density 0.494



************************************************************
HS scan start time = 04:03:11
Dark Count =  4.3 


Time (GMT)  Wavelength (Ang)  Step Number  Raw Counts  Counts/Second

  243.54        2950.00           1233           8.00        16.13
  243.61        2950.25           1236           8.00        16.13
  243.63        2950.50           1239           8.00        16.13
  243.66        2950.75           1242           0.00         2.00
  243.69        2951.00           1246           0.00         2.00
  243.71        2951.25           1249           0.00         2.00
  243.74        2951.50           1252           8.00        16.13
  243.77        2951.75           1256           1.00         2.00
  243.80        2952.00           1259           6.00         7.41
  243.82        2952.25           1262           8.00        16.13
  243.85        2952.50           1266           7.00        11.77
  243.88        2952.75           1269           0.00         2.00
  243.91        2953.00           1272           0.00         2.00
  243.93        2953.25           1276           0.00         2.00
  243.96        2953.50           1279           4.00         2.00
  243.99        2953.75           1282           8.00        16.13
  244.02        2954.00           1286           8.00        16.13
  244.04        2954.25           1289           8.00        16.13
  244.07        2954.50           1292           0.00         2.00
  244.10        2954.75           1295           6.00         7.41
  244.12        2955.00           1299           5.00         3.05
  244.15        2955.25           1302           8.00        16.13
  244.18        2955.50           1305           0.00         2.00
  244.21        2955.75           1309           0.00         2.00
  244.23        2956.00           1312           0.00         2.00
  244.26        2956.25           1315           0.00         2.00
  244.29        2956.50           1319           8.00        16.13
  244.31        2956.75           1322           8.00        16.13
  244.34        2957.00           1325           2.00         2.00
  244.37        2957.25           1329           8.00        16.13
  244.40        2957.50           1332           8.00        16.13
  244.42        2957.75           1335           2.00         2.00
  244.45        2958.00           1339           7.00        11.77
  244.48        2958.25           1342           0.00         2.00
  244.51        2958.50           1345           8.00        16.13
  244.53        2958.75           1348           5.00         3.05
  244.56        2959.00           1352           0.00         2.00
  244.59        2959.25           1355           8.00        16.13
  244.61        2959.50           1358           8.00        16.13
  244.64        2959.75           1362           8.00        16.13
  244.67        2960.00           1365           4.00         2.00
  244.70        2960.25           1368           0.00         2.00
  244.72        2960.50           1372           6.00         7.41
  244.75        2960.75           1375           8.00        16.13
  244.78        2961.00           1378           8.00        16.13
  244.81        2961.25           1382           8.00        16.13
  244.83        2961.50           1385           0.00         2.00
  244.86        2961.75           1388           0.00         2.00
  244.89        2962.00           1392           0.00         2.00
  244.91        2962.25           1395           5.00         3.05
  244.94        2962.50           1398           4.00         2.00
  244.97        2962.75           1402           4.00         2.00
  245.00        2963.00           1405           8.00        16.13
  245.02        2963.25           1408           1.00         2.00
  245.05        2963.50           1412           8.00        16.13
  245.08        2963.75           1415           0.00         2.00
  245.10        2964.00           1418           8.00        16.13
  245.13        2964.25           1422           8.00        16.13
  245.16        2964.50           1425           0.00         2.00
  245.19        2964.75           1428           8.00        16.13
  245.21        2965.00           1431           7.00        11.77
  245.24        2965.25           1435           2.00         2.00
  245.27        2965.50           1438           0.00         2.00
  245.29        2965.75           1441           0.00         2.00
  245.32        2966.00           1445           0.00         2.00
  245.35        2966.25           1448           8.00        16.13
  245.38        2966.50           1451           1.00         2.00
  245.40        2966.75           1455           8.00        16.13
  245.43        2967.00           1458           6.00         7.41
  245.46        2967.25           1461           0.00         2.00
  245.49        2967.50           1465           5.00         3.05
  245.51        2967.75           1468           4.00         2.00
  245.54        2968.00           1471           0.00         2.00
  245.57        2968.25           1475           0.00         2.00
  245.59        2968.50           1478           8.00        16.13
  245.62        2968.75           1481           6.00         7.41
  245.65        2969.00           1485           0.00         2.00
  245.68        2969.25           1488           8.00        16.13
  245.70        2969.50           1491           8.00        16.13
  245.73        2969.75           1495           8.00        16.13
  245.76        2970.00           1498           4.00         2.00
  245.79        2970.25           1501           2.00         2.00
  245.81        2970.50           1505           2.00         2.00
  245.84        2970.75           1508           8.00        16.13
  245.87        2971.00           1511           8.00        16.13
  245.90        2971.25           1515           1.00         2.00
  245.92        2971.50           1518           8.00        16.13
  245.95        2971.75           1521           0.00         2.00
  245.98        2972.00           1525           0.00         2.00
  246.00        2972.25           1528           8.00        16.13
  246.03        2972.50           1531           8.00        16.13
  246.06        2972.75           1535           1.00         2.00
  246.09        2973.00           1538           7.00        11.77
  246.11        2973.25           1541           6.00         7.41
  246.14        2973.50           1545           0.00         2.00
  246.17        2973.75           1548           0.00         2.00
  246.19        2974.00           1551           0.00         2.00
  246.22        2974.25           1555           4.00         2.00
  246.25        2974.50           1558           3.00         2.00
  246.28        2974.75           1561           8.00        16.13
  246.30        2975.00           1565           2.00         2.00
  246.33        2975.25           1568           5.00         3.05
  246.36        2975.50           1571           0.00         2.00
  246.39        2975.75           1575           1.00         2.00
  246.41        2976.00           1578           5.00         3.05
  246.44        2976.25           1581           2.00         2.00
  246.47        2976.50           1585           8.00        16.13
  246.50        2976.75           1588           8.00        16.13
  246.52        2977.00           1591           2.00         2.00
  246.55        2977.25           1595           2.00         2.00
  246.58        2977.50           1598           7.00        11.77
  246.60        2977.75           1601           8.00        16.13
  246.63        2978.00           1605           2.00         2.00
  246.66        2978.25           1608           7.00        11.77
  246.69        2978.50           1611           8.00        16.13
  246.71        2978.75           1615           1.00         2.00
  246.74        2979.00           1618           6.00         7.41
  246.77        2979.25           1621           4.00         2.00
  246.79        2979.50           1625           0.00         2.00
  246.82        2979.75           1628           8.00        16.13
  246.85        2980.00           1631           8.00        16.13
  246.88        2980.25           1635           0.00         2.00
  246.90        2980.50           1638           6.00         7.41
  246.93        2980.75           1641           0.00         2.00
  246.96        2981.00           1645           0.00         2.00
  246.98        2981.25           1648           2.00         2.00
  247.01        2981.50           1651           8.00        16.13
  247.04        2981.75           1655           8.00        16.13
  247.07        2982.00           1658           8.00        16.13
  247.09        2982.25           1661           3.00         2.00
  247.12        2982.50           1665           8.00        16.13
  247.15        2982.75           1668           8.00        16.13
  247.18        2983.00           1671           6.00         7.41
  247.20        2983.25           1675           0.00         2.00
  247.23        2983.50           1678           7.00        11.77
  247.26        2983.75           1681           8.00        16.13
  247.29        2984.00           1685           0.00         2.00
HS scan finished at 04:07:28
end
