************************************************************
  HS Scan of (1) Internal mercury lamp
************************************************************
Integration time is 0.2294 seconds per sample
dh260117Tamanrasset 22.79-5.529 2.669927pr865
************************************************************
Dead Time -------------------------  2.8E-08 
Number of Cycles Used -------------  4 
Starting Wavelength (Angstroms) ---  2950 
Final Wavelength (Angstoms) -------  2984 
Wavelength Increment (Angstroms) --  .25 
Filter Wheel #1 Position ---------- (1) Ground quartz diffuser (ND=2.32)
Filter Wheel #2 Position ---------- (1) Neutral Density 0.494



************************************************************
HS scan start time = 04:02:38
Dark Count =  3.3 


Time (GMT)  Wavelength (Ang)  Step Number  Raw Counts  Counts/Second

  242.99        2950.00           1233           0.00         2.00
  243.06        2950.25           1236           7.00        16.13
  243.08        2950.50           1239           0.00         2.00
  243.11        2950.75           1242           5.00         7.41
  243.14        2951.00           1246           6.00        11.77
  243.16        2951.25           1249           0.00         2.00
  243.19        2951.50           1252           3.00         2.00
  243.22        2951.75           1256           8.00        20.49
  243.25        2952.00           1259           8.00        20.49
  243.27        2952.25           1262           8.00        20.49
  243.30        2952.50           1266           8.00        20.49
  243.33        2952.75           1269           8.00        20.49
  243.36        2953.00           1272           8.00        20.49
  243.38        2953.25           1276           8.00        20.49
  243.41        2953.50           1279           8.00        20.49
  243.44        2953.75           1282           8.00        20.49
  243.47        2954.00           1286           8.00        20.49
  243.49        2954.25           1289           0.00         2.00
  243.52        2954.50           1292           0.00         2.00
  243.55        2954.75           1295           4.00         3.05
  243.57        2955.00           1299           0.00         2.00
  243.60        2955.25           1302           1.00         2.00
  243.63        2955.50           1305           0.00         2.00
  243.66        2955.75           1309           6.00        11.77
  243.68        2956.00           1312           1.00         2.00
  243.71        2956.25           1315           7.00        16.13
  243.74        2956.50           1319           0.00         2.00
  243.77        2956.75           1322           7.00        16.13
  243.79        2957.00           1325           3.00         2.00
  243.82        2957.25           1329           6.00        11.77
  243.85        2957.50           1332           0.00         2.00
  243.88        2957.75           1335           5.00         7.41
  243.90        2958.00           1339           8.00        20.49
  243.93        2958.25           1342           8.00        20.49
  243.96        2958.50           1345           3.00         2.00
  243.98        2958.75           1348           8.00        20.49
  244.01        2959.00           1352           1.00         2.00
  244.04        2959.25           1355           8.00        20.49
  244.07        2959.50           1358           7.00        16.13
  244.09        2959.75           1362           7.00        16.13
  244.12        2960.00           1365           5.00         7.41
  244.15        2960.25           1368           8.00        20.49
  244.18        2960.50           1372           0.00         2.00
  244.20        2960.75           1375           8.00        20.49
  244.23        2961.00           1378           7.00        16.13
  244.26        2961.25           1382           7.00        16.13
  244.28        2961.50           1385           6.00        11.77
  244.31        2961.75           1388           0.00         2.00
  244.34        2962.00           1392           1.00         2.00
  244.37        2962.25           1395           6.00        11.77
  244.39        2962.50           1398           8.00        20.49
  244.42        2962.75           1402           2.00         2.00
  244.45        2963.00           1405           2.00         2.00
  244.47        2963.25           1408           1.00         2.00
  244.50        2963.50           1412           0.00         2.00
  244.53        2963.75           1415           0.00         2.00
  244.56        2964.00           1418           0.00         2.00
  244.58        2964.25           1422           5.00         7.41
  244.61        2964.50           1425           3.00         2.00
  244.64        2964.75           1428           8.00        20.49
  244.67        2965.00           1431           8.00        20.49
  244.69        2965.25           1435           5.00         7.41
  244.72        2965.50           1438           8.00        20.49
  244.75        2965.75           1441           0.00         2.00
  244.77        2966.00           1445           0.00         2.00
  244.80        2966.25           1448           0.00         2.00
  244.83        2966.50           1451           0.00         2.00
  244.86        2966.75           1455           0.00         2.00
  244.88        2967.00           1458           2.00         2.00
  244.91        2967.25           1461           1.00         2.00
  244.94        2967.50           1465           1.00         2.00
  244.97        2967.75           1468           8.00        20.49
  244.99        2968.00           1471           8.00        20.49
  245.02        2968.25           1475           1.00         2.00
  245.05        2968.50           1478           0.00         2.00
  245.07        2968.75           1481           0.00         2.00
  245.10        2969.00           1485           0.00         2.00
  245.13        2969.25           1488           5.00         7.41
  245.16        2969.50           1491           4.00         3.05
  245.18        2969.75           1495           0.00         2.00
  245.21        2970.00           1498           3.00         2.00
  245.24        2970.25           1501           6.00        11.77
  245.27        2970.50           1505           4.00         3.05
  245.29        2970.75           1508           0.00         2.00
  245.32        2971.00           1511           5.00         7.41
  245.35        2971.25           1515           8.00        20.49
  245.37        2971.50           1518           6.00        11.77
  245.40        2971.75           1521           0.00         2.00
  245.43        2972.00           1525           3.00         2.00
  245.46        2972.25           1528           6.00        11.77
  245.48        2972.50           1531           8.00        20.49
  245.51        2972.75           1535           0.00         2.00
  245.54        2973.00           1538           5.00         7.41
  245.56        2973.25           1541           8.00        20.49
  245.59        2973.50           1545           2.00         2.00
  245.62        2973.75           1548           5.00         7.41
  245.65        2974.00           1551           0.00         2.00
  245.67        2974.25           1555           8.00        20.49
  245.70        2974.50           1558           0.00         2.00
  245.73        2974.75           1561           1.00         2.00
  245.76        2975.00           1565           8.00        20.49
  245.78        2975.25           1568           8.00        20.49
  245.81        2975.50           1571           5.00         7.41
  245.84        2975.75           1575           0.00         2.00
  245.86        2976.00           1578           3.00         2.00
  245.89        2976.25           1581           6.00        11.77
  245.92        2976.50           1585           0.00         2.00
  245.95        2976.75           1588           0.00         2.00
  245.97        2977.00           1591           0.00         2.00
  246.00        2977.25           1595           6.00        11.77
  246.03        2977.50           1598           8.00        20.49
  246.06        2977.75           1601           8.00        20.49
  246.08        2978.00           1605           0.00         2.00
  246.11        2978.25           1608           0.00         2.00
  246.14        2978.50           1611           3.00         2.00
  246.16        2978.75           1615           8.00        20.49
  246.19        2979.00           1618           5.00         7.41
  246.22        2979.25           1621           0.00         2.00
  246.25        2979.50           1625           3.00         2.00
  246.27        2979.75           1628           2.00         2.00
  246.30        2980.00           1631           0.00         2.00
  246.33        2980.25           1635           2.00         2.00
  246.35        2980.50           1638           5.00         7.41
  246.38        2980.75           1641           8.00        20.49
  246.41        2981.00           1645           8.00        20.49
  246.44        2981.25           1648           8.00        20.49
  246.46        2981.50           1651           2.00         2.00
  246.49        2981.75           1655           0.00         2.00
  246.52        2982.00           1658           8.00        20.49
  246.54        2982.25           1661           8.00        20.49
  246.57        2982.50           1665           6.00        11.77
  246.60        2982.75           1668           0.00         2.00
  246.63        2983.00           1671           0.00         2.00
  246.65        2983.25           1675           2.00         2.00
  246.68        2983.50           1678           3.00         2.00
  246.71        2983.75           1681           2.00         2.00
  246.74        2984.00           1685           4.00         3.05
HS scan finished at 04:06:55
end
