************************************************************
  HS Scan of (1) Internal mercury lamp
************************************************************
Integration time is 0.2294 seconds per sample
dh290117Tamanrasset 22.79-5.529 2.669927pr865
************************************************************
Dead Time -------------------------  2.8E-08 
Number of Cycles Used -------------  4 
Starting Wavelength (Angstroms) ---  2950 
Final Wavelength (Angstoms) -------  2984 
Wavelength Increment (Angstroms) --  .25 
Filter Wheel #1 Position ---------- (1) Ground quartz diffuser (ND=2.32)
Filter Wheel #2 Position ---------- (1) Neutral Density 0.494



************************************************************
HS scan start time = 04:00:47
Dark Count =  4.8 


Time (GMT)  Wavelength (Ang)  Step Number  Raw Counts  Counts/Second

  241.15        2950.00           1233           1.00         2.00
  241.21        2950.25           1236           8.00        13.95
  241.24        2950.50           1239           8.00        13.95
  241.27        2950.75           1242           0.00         2.00
  241.29        2951.00           1246           4.00         2.00
  241.32        2951.25           1249           8.00        13.95
  241.35        2951.50           1252           0.00         2.00
  241.38        2951.75           1256           8.00        13.95
  241.40        2952.00           1259           8.00        13.95
  241.43        2952.25           1262           0.00         2.00
  241.46        2952.50           1266           8.00        13.95
  241.48        2952.75           1269           2.00         2.00
  241.51        2953.00           1272           0.00         2.00
  241.54        2953.25           1276           0.00         2.00
  241.57        2953.50           1279           3.00         2.00
  241.59        2953.75           1282           8.00        13.95
  241.62        2954.00           1286           8.00        13.95
  241.65        2954.25           1289           1.00         2.00
  241.68        2954.50           1292           8.00        13.95
  241.70        2954.75           1295           8.00        13.95
  241.73        2955.00           1299           3.00         2.00
  241.76        2955.25           1302           0.00         2.00
  241.78        2955.50           1305           0.00         2.00
  241.81        2955.75           1309           5.00         2.00
  241.84        2956.00           1312           8.00        13.95
  241.87        2956.25           1315           0.00         2.00
  241.89        2956.50           1319           8.00        13.95
  241.92        2956.75           1322           8.00        13.95
  241.95        2957.00           1325           8.00        13.95
  241.97        2957.25           1329           0.00         2.00
  242.00        2957.50           1332           8.00        13.95
  242.03        2957.75           1335           8.00        13.95
  242.06        2958.00           1339           7.00         9.59
  242.08        2958.25           1342           0.00         2.00
  242.11        2958.50           1345           5.00         2.00
  242.14        2958.75           1348           0.00         2.00
  242.17        2959.00           1352           3.00         2.00
  242.19        2959.25           1355           8.00        13.95
  242.22        2959.50           1358           2.00         2.00
  242.25        2959.75           1362           0.00         2.00
  242.27        2960.00           1365           5.00         2.00
  242.30        2960.25           1368           0.00         2.00
  242.33        2960.50           1372           6.00         5.23
  242.36        2960.75           1375           6.00         5.23
  242.38        2961.00           1378           5.00         2.00
  242.41        2961.25           1382           7.00         9.59
  242.44        2961.50           1385           0.00         2.00
  242.47        2961.75           1388           8.00        13.95
  242.49        2962.00           1392           6.00         5.23
  242.52        2962.25           1395           6.00         5.23
  242.55        2962.50           1398           8.00        13.95
  242.57        2962.75           1402           5.00         2.00
  242.60        2963.00           1405           8.00        13.95
  242.63        2963.25           1408           0.00         2.00
  242.66        2963.50           1412           8.00        13.95
  242.68        2963.75           1415           3.00         2.00
  242.71        2964.00           1418           3.00         2.00
  242.74        2964.25           1422           8.00        13.95
  242.76        2964.50           1425           2.00         2.00
  242.79        2964.75           1428           0.00         2.00
  242.82        2965.00           1431           0.00         2.00
  242.85        2965.25           1435           8.00        13.95
  242.87        2965.50           1438           6.00         5.23
  242.90        2965.75           1441           0.00         2.00
  242.93        2966.00           1445           0.00         2.00
  242.96        2966.25           1448           8.00        13.95
  242.98        2966.50           1451           7.00         9.59
  243.01        2966.75           1455           0.00         2.00
  243.04        2967.00           1458           0.00         2.00
  243.06        2967.25           1461           0.00         2.00
  243.09        2967.50           1465           0.00         2.00
  243.12        2967.75           1468           0.00         2.00
  243.15        2968.00           1471           1.00         2.00
  243.17        2968.25           1475           8.00        13.95
  243.20        2968.50           1478           0.00         2.00
  243.23        2968.75           1481           0.00         2.00
  243.26        2969.00           1485           8.00        13.95
  243.28        2969.25           1488           8.00        13.95
  243.31        2969.50           1491           2.00         2.00
  243.34        2969.75           1495           8.00        13.95
  243.36        2970.00           1498           0.00         2.00
  243.39        2970.25           1501           0.00         2.00
  243.42        2970.50           1505           0.00         2.00
  243.45        2970.75           1508           8.00        13.95
  243.47        2971.00           1511           8.00        13.95
  243.50        2971.25           1515           0.00         2.00
  243.53        2971.50           1518           3.00         2.00
  243.56        2971.75           1521           4.00         2.00
  243.58        2972.00           1525           8.00        13.95
  243.61        2972.25           1528           8.00        13.95
  243.64        2972.50           1531           0.00         2.00
  243.66        2972.75           1535           7.00         9.59
  243.69        2973.00           1538           8.00        13.95
  243.72        2973.25           1541           0.00         2.00
  243.75        2973.50           1545           8.00        13.95
  243.77        2973.75           1548           8.00        13.95
  243.80        2974.00           1551           0.00         2.00
  243.83        2974.25           1555           7.00         9.59
  243.85        2974.50           1558           3.00         2.00
  243.88        2974.75           1561           0.00         2.00
  243.91        2975.00           1565           4.00         2.00
  243.94        2975.25           1568           8.00        13.95
  243.96        2975.50           1571           8.00        13.95
  243.99        2975.75           1575           8.00        13.95
  244.02        2976.00           1578           2.00         2.00
  244.05        2976.25           1581           1.00         2.00
  244.07        2976.50           1585           6.00         5.23
  244.10        2976.75           1588           2.00         2.00
  244.13        2977.00           1591           8.00        13.95
  244.15        2977.25           1595           0.00         2.00
  244.18        2977.50           1598           6.00         5.23
  244.21        2977.75           1601           0.00         2.00
  244.24        2978.00           1605           0.00         2.00
  244.26        2978.25           1608           4.00         2.00
  244.29        2978.50           1611           7.00         9.59
  244.32        2978.75           1615           8.00        13.95
  244.35        2979.00           1618           8.00        13.95
  244.37        2979.25           1621           1.00         2.00
  244.40        2979.50           1625           0.00         2.00
  244.43        2979.75           1628           8.00        13.95
  244.45        2980.00           1631           0.00         2.00
  244.48        2980.25           1635           0.00         2.00
  244.51        2980.50           1638           0.00         2.00
  244.54        2980.75           1641           5.00         2.00
  244.56        2981.00           1645           8.00        13.95
  244.59        2981.25           1648           5.00         2.00
  244.62        2981.50           1651           2.00         2.00
  244.64        2981.75           1655           8.00        13.95
  244.67        2982.00           1658           2.00         2.00
  244.70        2982.25           1661           3.00         2.00
  244.73        2982.50           1665           1.00         2.00
  244.75        2982.75           1668           0.00         2.00
  244.78        2983.00           1671           0.00         2.00
  244.81        2983.25           1675           8.00        13.95
  244.84        2983.50           1678           8.00        13.95
  244.86        2983.75           1681           1.00         2.00
  244.89        2984.00           1685           0.00         2.00
HS scan finished at 04:05:05
end
