************************************************************
  HS Scan of (1) Internal mercury lamp
************************************************************
Integration time is 0.2294 seconds per sample
dh220117Tamanrasset 22.79-5.529 2.644435pr865
************************************************************
Dead Time -------------------------  2.8E-08 
Number of Cycles Used -------------  4 
Starting Wavelength (Angstroms) ---  2950 
Final Wavelength (Angstoms) -------  2984 
Wavelength Increment (Angstroms) --  .25 
Filter Wheel #1 Position ---------- (1) Ground quartz diffuser (ND=2.32)
Filter Wheel #2 Position ---------- (1) Neutral Density 0.494



************************************************************
HS scan start time = 04:03:11
Dark Count =  5.9 


Time (GMT)  Wavelength (Ang)  Step Number  Raw Counts  Counts/Second

  243.53        2950.00           1233           0.00         2.00
  243.60        2950.25           1236           5.00         2.00
  243.62        2950.50           1239           8.00         9.15
  243.65        2950.75           1242           0.00         2.00
  243.68        2951.00           1246           0.00         2.00
  243.71        2951.25           1249           5.00         2.00
  243.73        2951.50           1252           0.00         2.00
  243.76        2951.75           1256           0.00         2.00
  243.79        2952.00           1259           0.00         2.00
  243.82        2952.25           1262           8.00         9.15
  243.84        2952.50           1266           5.00         2.00
  243.87        2952.75           1269           5.00         2.00
  243.90        2953.00           1272           8.00         9.15
  243.92        2953.25           1276           6.00         2.00
  243.95        2953.50           1279           1.00         2.00
  243.98        2953.75           1282           8.00         9.15
  244.01        2954.00           1286           8.00         9.15
  244.03        2954.25           1289           4.00         2.00
  244.06        2954.50           1292           8.00         9.15
  244.09        2954.75           1295           8.00         9.15
  244.11        2955.00           1299           8.00         9.15
  244.14        2955.25           1302           5.00         2.00
  244.17        2955.50           1305           8.00         9.15
  244.20        2955.75           1309           8.00         9.15
  244.22        2956.00           1312           8.00         9.15
  244.25        2956.25           1315           8.00         9.15
  244.28        2956.50           1319           0.00         2.00
  244.31        2956.75           1322           0.00         2.00
  244.33        2957.00           1325           0.00         2.00
  244.36        2957.25           1329           8.00         9.15
  244.39        2957.50           1332           4.00         2.00
  244.41        2957.75           1335           0.00         2.00
  244.44        2958.00           1339           8.00         9.15
  244.47        2958.25           1342           5.00         2.00
  244.50        2958.50           1345           6.00         2.00
  244.52        2958.75           1348           0.00         2.00
  244.55        2959.00           1352           4.00         2.00
  244.58        2959.25           1355           0.00         2.00
  244.61        2959.50           1358           0.00         2.00
  244.63        2959.75           1362           6.00         2.00
  244.66        2960.00           1365           8.00         9.15
  244.69        2960.25           1368           1.00         2.00
  244.71        2960.50           1372           0.00         2.00
  244.74        2960.75           1375           0.00         2.00
  244.77        2961.00           1378           8.00         9.15
  244.80        2961.25           1382           8.00         9.15
  244.82        2961.50           1385           4.00         2.00
  244.85        2961.75           1388           8.00         9.15
  244.88        2962.00           1392           4.00         2.00
  244.90        2962.25           1395           0.00         2.00
  244.93        2962.50           1398           8.00         9.15
  244.96        2962.75           1402           5.00         2.00
  244.99        2963.00           1405           3.00         2.00
  245.01        2963.25           1408           6.00         2.00
  245.04        2963.50           1412           6.00         2.00
  245.07        2963.75           1415           0.00         2.00
  245.10        2964.00           1418           7.00         4.80
  245.12        2964.25           1422           6.00         2.00
  245.15        2964.50           1425           0.00         2.00
  245.18        2964.75           1428           5.00         2.00
  245.21        2965.00           1431           8.00         9.15
  245.23        2965.25           1435           8.00         9.15
  245.26        2965.50           1438           0.00         2.00
  245.29        2965.75           1441           1.00         2.00
  245.31        2966.00           1445           0.00         2.00
  245.34        2966.25           1448           7.00         4.80
  245.37        2966.50           1451           8.00         9.15
  245.40        2966.75           1455           8.00         9.15
  245.42        2967.00           1458           2.00         2.00
  245.45        2967.25           1461           8.00         9.15
  245.48        2967.50           1465           8.00         9.15
  245.50        2967.75           1468           1.00         2.00
  245.53        2968.00           1471           6.00         2.00
  245.56        2968.25           1475           0.00         2.00
  245.59        2968.50           1478           0.00         2.00
  245.61        2968.75           1481           8.00         9.15
  245.64        2969.00           1485           8.00         9.15
  245.67        2969.25           1488           8.00         9.15
  245.70        2969.50           1491           8.00         9.15
  245.72        2969.75           1495           8.00         9.15
  245.75        2970.00           1498           8.00         9.15
  245.78        2970.25           1501           6.00         2.00
  245.80        2970.50           1505           8.00         9.15
  245.83        2970.75           1508           8.00         9.15
  245.86        2971.00           1511           6.00         2.00
  245.89        2971.25           1515           0.00         2.00
  245.91        2971.50           1518           8.00         9.15
  245.94        2971.75           1521           3.00         2.00
  245.97        2972.00           1525           2.00         2.00
  246.00        2972.25           1528           8.00         9.15
  246.02        2972.50           1531           0.00         2.00
  246.05        2972.75           1535           1.00         2.00
  246.08        2973.00           1538           8.00         9.15
  246.10        2973.25           1541           0.00         2.00
  246.13        2973.50           1545           3.00         2.00
  246.16        2973.75           1548           7.00         4.80
  246.19        2974.00           1551           4.00         2.00
  246.21        2974.25           1555           0.00         2.00
  246.24        2974.50           1558           5.00         2.00
  246.27        2974.75           1561           0.00         2.00
  246.29        2975.00           1565           0.00         2.00
  246.32        2975.25           1568           8.00         9.15
  246.35        2975.50           1571           8.00         9.15
  246.38        2975.75           1575           2.00         2.00
  246.40        2976.00           1578           0.00         2.00
  246.43        2976.25           1581           8.00         9.15
  246.46        2976.50           1585           3.00         2.00
  246.48        2976.75           1588           6.00         2.00
  246.51        2977.00           1591           2.00         2.00
  246.54        2977.25           1595           0.00         2.00
  246.57        2977.50           1598           5.00         2.00
  246.59        2977.75           1601           0.00         2.00
  246.62        2978.00           1605           1.00         2.00
  246.65        2978.25           1608           4.00         2.00
  246.68        2978.50           1611           0.00         2.00
  246.70        2978.75           1615           5.00         2.00
  246.73        2979.00           1618           6.00         2.00
  246.76        2979.25           1621           0.00         2.00
  246.78        2979.50           1625           3.00         2.00
  246.81        2979.75           1628           8.00         9.15
  246.84        2980.00           1631           0.00         2.00
  246.87        2980.25           1635           8.00         9.15
  246.89        2980.50           1638           5.00         2.00
  246.92        2980.75           1641           0.00         2.00
  246.95        2981.00           1645           8.00         9.15
  246.98        2981.25           1648           5.00         2.00
  247.00        2981.50           1651           8.00         9.15
  247.03        2981.75           1655           8.00         9.15
  247.06        2982.00           1658           8.00         9.15
  247.09        2982.25           1661           1.00         2.00
  247.11        2982.50           1665           2.00         2.00
  247.14        2982.75           1668           0.00         2.00
  247.17        2983.00           1671           0.00         2.00
  247.19        2983.25           1675           4.00         2.00
  247.22        2983.50           1678           6.00         2.00
  247.25        2983.75           1681           3.00         2.00
  247.28        2984.00           1685           0.00         2.00
HS scan finished at 04:07:28
end
