************************************************************
  HS Scan of (1) Internal mercury lamp
************************************************************
Integration time is 0.2294 seconds per sample
dh210119Tamanrasset 22.79-5.529 4.974364pr865
************************************************************
Dead Time -------------------------  2.8E-08 
Number of Cycles Used -------------  4 
Starting Wavelength (Angstroms) ---  2950 
Final Wavelength (Angstoms) -------  2984 
Wavelength Increment (Angstroms) --  .25 
Filter Wheel #1 Position ---------- (1) Ground quartz diffuser (ND=2.32)
Filter Wheel #2 Position ---------- (1) Neutral Density 0.494



************************************************************
HS scan start time = 04:31:45
Dark Count =  6.2 


Time (GMT)  Wavelength (Ang)  Step Number  Raw Counts  Counts/Second

  272.10        2950.00           1233          17.00        47.08
  272.16        2950.25           1236          21.00        64.52
  272.19        2950.50           1239          19.00        55.80
  272.22        2950.75           1242          17.00        47.08
  272.24        2951.00           1246          23.00        73.23
  272.27        2951.25           1249          21.00        64.52
  272.30        2951.50           1252          24.00        77.59
  272.33        2951.75           1256          19.00        55.80
  272.35        2952.00           1259          21.00        64.52
  272.38        2952.25           1262          20.00        60.16
  272.41        2952.50           1266          17.00        47.08
  272.43        2952.75           1269          18.00        51.44
  272.46        2953.00           1272          15.00        38.36
  272.49        2953.25           1276          23.00        73.23
  272.52        2953.50           1279          18.00        51.44
  272.54        2953.75           1282          17.00        47.08
  272.57        2954.00           1286          18.00        51.44
  272.60        2954.25           1289          21.00        64.52
  272.62        2954.50           1292          20.00        60.16
  272.65        2954.75           1295          20.00        60.16
  272.68        2955.00           1299          16.00        42.72
  272.71        2955.25           1302          18.00        51.44
  272.73        2955.50           1305          24.00        77.59
  272.76        2955.75           1309          15.00        38.36
  272.79        2956.00           1312          25.00        81.95
  272.81        2956.25           1315          15.00        38.36
  272.84        2956.50           1319          18.00        51.44
  272.87        2956.75           1322          21.00        64.52
  272.90        2957.00           1325          20.00        60.16
  272.92        2957.25           1329          19.00        55.80
  272.95        2957.50           1332          18.00        51.44
  272.98        2957.75           1335          12.00        25.28
  273.01        2958.00           1339          18.00        51.44
  273.03        2958.25           1342          15.00        38.36
  273.06        2958.50           1345          19.00        55.80
  273.09        2958.75           1348          19.00        55.80
  273.11        2959.00           1352          20.00        60.16
  273.14        2959.25           1355          20.00        60.16
  273.17        2959.50           1358          16.00        42.72
  273.19        2959.75           1362          20.00        60.16
  273.22        2960.00           1365          23.00        73.23
  273.25        2960.25           1368          26.00        86.31
  273.28        2960.50           1372          24.00        77.59
  273.30        2960.75           1375          36.00       129.90
  273.33        2961.00           1378         110.00       452.49
  273.36        2961.25           1382         455.00      1956.52
  273.38        2961.50           1385        1104.00      4786.17
  273.41        2961.75           1388        2230.00      9696.62
  273.44        2962.00           1392        4534.00     19748.49
  273.47        2962.25           1395        6418.00     27972.21
  273.49        2962.50           1398        8547.00     37269.92
  273.52        2962.75           1402       11237.00     49024.53
  273.55        2963.00           1405       13437.00     58643.74
  273.58        2963.25           1408       15340.00     66968.53
  273.60        2963.50           1412       18147.00     79255.03
  273.63        2963.75           1415       20207.00     88277.22
  273.66        2964.00           1418       22209.00     97049.77
  273.69        2964.25           1422       25111.00    109773.70
  273.71        2964.50           1425       26937.00    117784.50
  273.74        2964.75           1428       29054.00    127076.50
  273.77        2965.00           1431       31263.00    136777.40
  273.79        2965.25           1435       34280.00    150035.30
  273.82        2965.50           1438       36308.00    158952.60
  273.85        2965.75           1441       38265.00    167562.00
  273.88        2966.00           1445       41040.00    179777.20
  273.90        2966.25           1448       42966.00    188260.00
  273.93        2966.50           1451       44162.00    193529.80
  273.96        2966.75           1455       45007.00    197253.90
  273.99        2967.00           1458       45648.00    200079.40
  274.01        2967.25           1461       45692.00    200273.40
  274.04        2967.50           1465       45508.00    199462.20
  274.07        2967.75           1468       45078.00    197566.80
  274.10        2968.00           1471       44183.00    193622.30
  274.12        2968.25           1475       42636.00    186806.30
  274.15        2968.50           1478       40470.00    177267.40
  274.18        2968.75           1481       38404.00    168173.70
  274.20        2969.00           1485       35540.00    155575.10
  274.23        2969.25           1488       33465.00    146452.90
  274.26        2969.50           1491       31229.00    136628.10
  274.29        2969.75           1495       28262.00    123599.70
  274.31        2970.00           1498       25883.00    113160.10
  274.34        2970.25           1501       23877.00    104362.10
  274.37        2970.50           1505       20953.00     91545.61
  274.40        2970.75           1508       18966.00     82841.46
  274.42        2971.00           1511       16659.00     72740.87
  274.45        2971.25           1515       13940.00     60843.76
  274.48        2971.50           1518       11667.00     50904.24
  274.51        2971.75           1521        9797.00     42731.14
  274.53        2972.00           1525        6869.00     29941.40
  274.56        2972.25           1528        4948.00     21555.29
  274.59        2972.50           1531        3155.00     13731.52
  274.61        2972.75           1535        1438.00      6242.59
  274.64        2973.00           1538         587.00      2532.00
  274.67        2973.25           1541         184.00       775.08
  274.70        2973.50           1545          47.00       177.86
  274.72        2973.75           1548          27.00        90.67
  274.75        2974.00           1551          28.00        95.03
  274.78        2974.25           1555          25.00        81.95
  274.80        2974.50           1558          24.00        77.59
  274.83        2974.75           1561          25.00        81.95
  274.86        2975.00           1565          29.00        99.39
  274.89        2975.25           1568          20.00        60.16
  274.91        2975.50           1571          19.00        55.80
  274.94        2975.75           1575          20.00        60.16
  274.97        2976.00           1578          18.00        51.44
  274.99        2976.25           1581          24.00        77.59
  275.02        2976.50           1585          25.00        81.95
  275.05        2976.75           1588          20.00        60.16
  275.08        2977.00           1591          15.00        38.36
  275.10        2977.25           1595          19.00        55.80
  275.13        2977.50           1598          19.00        55.80
  275.16        2977.75           1601          27.00        90.67
  275.18        2978.00           1605          17.00        47.08
  275.21        2978.25           1608          16.00        42.72
  275.24        2978.50           1611          17.00        47.08
  275.27        2978.75           1615          17.00        47.08
  275.29        2979.00           1618          24.00        77.59
  275.32        2979.25           1621          21.00        64.52
  275.35        2979.50           1625          19.00        55.80
  275.38        2979.75           1628          17.00        47.08
  275.40        2980.00           1631          17.00        47.08
  275.43        2980.25           1635          18.00        51.44
  275.46        2980.50           1638          21.00        64.52
  275.48        2980.75           1641          19.00        55.80
  275.51        2981.00           1645          21.00        64.52
  275.54        2981.25           1648          20.00        60.16
  275.57        2981.50           1651          19.00        55.80
  275.59        2981.75           1655          19.00        55.80
  275.62        2982.00           1658          22.00        68.88
  275.65        2982.25           1661          15.00        38.36
  275.67        2982.50           1665          23.00        73.23
  275.70        2982.75           1668          17.00        47.08
  275.73        2983.00           1671          18.00        51.44
  275.76        2983.25           1675          19.00        55.80
  275.78        2983.50           1678          23.00        73.23
  275.81        2983.75           1681          21.00        64.52
  275.84        2984.00           1685          23.00        73.23
HS scan finished at 04:36:01
end
