************************************************************
  HS Scan of (1) Internal mercury lamp
************************************************************
Integration time is 0.2294 seconds per sample
dh210117Tamanrasset 22.79-5.529 2.705615pr865
************************************************************
Dead Time -------------------------  2.8E-08 
Number of Cycles Used -------------  4 
Starting Wavelength (Angstroms) ---  2950 
Final Wavelength (Angstoms) -------  2984 
Wavelength Increment (Angstroms) --  .25 
Filter Wheel #1 Position ---------- (1) Ground quartz diffuser (ND=2.32)
Filter Wheel #2 Position ---------- (1) Neutral Density 0.494



************************************************************
HS scan start time = 04:03:10
Dark Count =  2.9 


Time (GMT)  Wavelength (Ang)  Step Number  Raw Counts  Counts/Second

  243.53        2950.00           1233           8.00        22.23
  243.59        2950.25           1236           6.00        13.51
  243.62        2950.50           1239           1.00         2.00
  243.65        2950.75           1242           6.00        13.51
  243.68        2951.00           1246           0.00         2.00
  243.70        2951.25           1249           1.00         2.00
  243.73        2951.50           1252           8.00        22.23
  243.76        2951.75           1256           8.00        22.23
  243.78        2952.00           1259           8.00        22.23
  243.81        2952.25           1262           0.00         2.00
  243.84        2952.50           1266           8.00        22.23
  243.87        2952.75           1269           8.00        22.23
  243.89        2953.00           1272           1.00         2.00
  243.92        2953.25           1276           7.00        17.87
  243.95        2953.50           1279           8.00        22.23
  243.98        2953.75           1282           0.00         2.00
  244.00        2954.00           1286           0.00         2.00
  244.03        2954.25           1289           8.00        22.23
  244.06        2954.50           1292           3.00         2.00
  244.08        2954.75           1295           0.00         2.00
  244.11        2955.00           1299           3.00         2.00
  244.14        2955.25           1302           8.00        22.23
  244.17        2955.50           1305           4.00         4.80
  244.19        2955.75           1309           8.00        22.23
  244.22        2956.00           1312           3.00         2.00
  244.25        2956.25           1315           2.00         2.00
  244.27        2956.50           1319           1.00         2.00
  244.30        2956.75           1322           0.00         2.00
  244.33        2957.00           1325           0.00         2.00
  244.36        2957.25           1329           3.00         2.00
  244.38        2957.50           1332           8.00        22.23
  244.41        2957.75           1335           5.00         9.15
  244.44        2958.00           1339           0.00         2.00
  244.47        2958.25           1342           7.00        17.87
  244.49        2958.50           1345           1.00         2.00
  244.52        2958.75           1348           0.00         2.00
  244.55        2959.00           1352           8.00        22.23
  244.57        2959.25           1355           7.00        17.87
  244.60        2959.50           1358           0.00         2.00
  244.63        2959.75           1362           0.00         2.00
  244.66        2960.00           1365           8.00        22.23
  244.68        2960.25           1368           3.00         2.00
  244.71        2960.50           1372           6.00        13.51
  244.74        2960.75           1375           0.00         2.00
  244.76        2961.00           1378           8.00        22.23
  244.79        2961.25           1382           8.00        22.23
  244.82        2961.50           1385           0.00         2.00
  244.85        2961.75           1388           2.00         2.00
  244.87        2962.00           1392           5.00         9.15
  244.90        2962.25           1395           2.00         2.00
  244.93        2962.50           1398           0.00         2.00
  244.96        2962.75           1402           8.00        22.23
  244.98        2963.00           1405           8.00        22.23
  245.01        2963.25           1408           4.00         4.80
  245.04        2963.50           1412           8.00        22.23
  245.06        2963.75           1415           0.00         2.00
  245.09        2964.00           1418           5.00         9.15
  245.12        2964.25           1422           8.00        22.23
  245.15        2964.50           1425           8.00        22.23
  245.17        2964.75           1428           7.00        17.87
  245.20        2965.00           1431           7.00        17.87
  245.23        2965.25           1435           3.00         2.00
  245.26        2965.50           1438           0.00         2.00
  245.28        2965.75           1441           8.00        22.23
  245.31        2966.00           1445           0.00         2.00
  245.34        2966.25           1448           0.00         2.00
  245.36        2966.50           1451           5.00         9.15
  245.39        2966.75           1455           8.00        22.23
  245.42        2967.00           1458           0.00         2.00
  245.45        2967.25           1461           2.00         2.00
  245.47        2967.50           1465           6.00        13.51
  245.50        2967.75           1468           0.00         2.00
  245.53        2968.00           1471           4.00         4.80
  245.55        2968.25           1475           6.00        13.51
  245.58        2968.50           1478           2.00         2.00
  245.61        2968.75           1481           2.00         2.00
  245.64        2969.00           1485           4.00         4.80
  245.66        2969.25           1488           4.00         4.80
  245.69        2969.50           1491           8.00        22.23
  245.72        2969.75           1495           1.00         2.00
  245.75        2970.00           1498           4.00         4.80
  245.77        2970.25           1501           8.00        22.23
  245.80        2970.50           1505           2.00         2.00
  245.83        2970.75           1508           0.00         2.00
  245.85        2971.00           1511           3.00         2.00
  245.88        2971.25           1515           6.00        13.51
  245.91        2971.50           1518           0.00         2.00
  245.94        2971.75           1521           5.00         9.15
  245.96        2972.00           1525           1.00         2.00
  245.99        2972.25           1528           8.00        22.23
  246.02        2972.50           1531           2.00         2.00
  246.05        2972.75           1535           4.00         4.80
  246.07        2973.00           1538           0.00         2.00
  246.10        2973.25           1541           0.00         2.00
  246.13        2973.50           1545           1.00         2.00
  246.16        2973.75           1548           4.00         4.80
  246.18        2974.00           1551           3.00         2.00
  246.21        2974.25           1555           4.00         4.80
  246.24        2974.50           1558           0.00         2.00
  246.26        2974.75           1561           8.00        22.23
  246.29        2975.00           1565           3.00         2.00
  246.32        2975.25           1568           0.00         2.00
  246.35        2975.50           1571           8.00        22.23
  246.37        2975.75           1575           0.00         2.00
  246.40        2976.00           1578           0.00         2.00
  246.43        2976.25           1581           8.00        22.23
  246.45        2976.50           1585           3.00         2.00
  246.48        2976.75           1588           8.00        22.23
  246.51        2977.00           1591           4.00         4.80
  246.54        2977.25           1595           3.00         2.00
  246.56        2977.50           1598           8.00        22.23
  246.59        2977.75           1601           0.00         2.00
  246.62        2978.00           1605           8.00        22.23
  246.65        2978.25           1608           0.00         2.00
  246.67        2978.50           1611           8.00        22.23
  246.70        2978.75           1615           0.00         2.00
  246.73        2979.00           1618           8.00        22.23
  246.76        2979.25           1621           8.00        22.23
  246.78        2979.50           1625           0.00         2.00
  246.81        2979.75           1628           3.00         2.00
  246.84        2980.00           1631           1.00         2.00
  246.86        2980.25           1635           0.00         2.00
  246.89        2980.50           1638           8.00        22.23
  246.92        2980.75           1641           8.00        22.23
  246.95        2981.00           1645           7.00        17.87
  246.97        2981.25           1648           8.00        22.23
  247.00        2981.50           1651           8.00        22.23
  247.03        2981.75           1655           0.00         2.00
  247.05        2982.00           1658           8.00        22.23
  247.08        2982.25           1661           8.00        22.23
  247.11        2982.50           1665           0.00         2.00
  247.14        2982.75           1668           8.00        22.23
  247.16        2983.00           1671           8.00        22.23
  247.19        2983.25           1675           6.00        13.51
  247.22        2983.50           1678           0.00         2.00
  247.25        2983.75           1681           6.00        13.51
  247.27        2984.00           1685           8.00        22.23
HS scan finished at 04:07:28
end
