************************************************************
  HS Scan of (1) Internal mercury lamp
************************************************************
Integration time is 0.2294 seconds per sample
dh250117Tamanrasset 22.79-5.529 2.649534pr865
************************************************************
Dead Time -------------------------  2.8E-08 
Number of Cycles Used -------------  4 
Starting Wavelength (Angstroms) ---  2950 
Final Wavelength (Angstoms) -------  2984 
Wavelength Increment (Angstroms) --  .25 
Filter Wheel #1 Position ---------- (1) Ground quartz diffuser (ND=2.32)
Filter Wheel #2 Position ---------- (1) Neutral Density 0.494



************************************************************
HS scan start time = 04:02:09
Dark Count =  5.6 


Time (GMT)  Wavelength (Ang)  Step Number  Raw Counts  Counts/Second

  242.51        2950.00           1233           0.00         2.00
  242.58        2950.25           1236           8.00        10.46
  242.60        2950.50           1239           0.00         2.00
  242.63        2950.75           1242           0.00         2.00
  242.66        2951.00           1246           8.00        10.46
  242.69        2951.25           1249           8.00        10.46
  242.71        2951.50           1252           0.00         2.00
  242.74        2951.75           1256           0.00         2.00
  242.77        2952.00           1259           5.00         2.00
  242.80        2952.25           1262           4.00         2.00
  242.82        2952.50           1266           8.00        10.46
  242.85        2952.75           1269           8.00        10.46
  242.88        2953.00           1272           8.00        10.46
  242.90        2953.25           1276           5.00         2.00
  242.93        2953.50           1279           0.00         2.00
  242.96        2953.75           1282           6.00         2.00
  242.99        2954.00           1286           0.00         2.00
  243.01        2954.25           1289           6.00         2.00
  243.04        2954.50           1292           8.00        10.46
  243.07        2954.75           1295           4.00         2.00
  243.10        2955.00           1299           0.00         2.00
  243.12        2955.25           1302           2.00         2.00
  243.15        2955.50           1305           8.00        10.46
  243.18        2955.75           1309           8.00        10.46
  243.20        2956.00           1312           0.00         2.00
  243.23        2956.25           1315           0.00         2.00
  243.26        2956.50           1319           8.00        10.46
  243.29        2956.75           1322           7.00         6.10
  243.31        2957.00           1325           0.00         2.00
  243.34        2957.25           1329           8.00        10.46
  243.37        2957.50           1332           8.00        10.46
  243.40        2957.75           1335           0.00         2.00
  243.42        2958.00           1339           8.00        10.46
  243.45        2958.25           1342           1.00         2.00
  243.48        2958.50           1345           8.00        10.46
  243.50        2958.75           1348           1.00         2.00
  243.53        2959.00           1352           4.00         2.00
  243.56        2959.25           1355           2.00         2.00
  243.59        2959.50           1358           4.00         2.00
  243.61        2959.75           1362           7.00         6.10
  243.64        2960.00           1365           0.00         2.00
  243.67        2960.25           1368           1.00         2.00
  243.69        2960.50           1372           8.00        10.46
  243.72        2960.75           1375           2.00         2.00
  243.75        2961.00           1378           8.00        10.46
  243.78        2961.25           1382           5.00         2.00
  243.80        2961.50           1385           0.00         2.00
  243.83        2961.75           1388           0.00         2.00
  243.86        2962.00           1392           8.00        10.46
  243.89        2962.25           1395           4.00         2.00
  243.91        2962.50           1398           0.00         2.00
  243.94        2962.75           1402           8.00        10.46
  243.97        2963.00           1405           0.00         2.00
  243.99        2963.25           1408           0.00         2.00
  244.02        2963.50           1412           6.00         2.00
  244.05        2963.75           1415           0.00         2.00
  244.08        2964.00           1418           8.00        10.46
  244.10        2964.25           1422           2.00         2.00
  244.13        2964.50           1425           8.00        10.46
  244.16        2964.75           1428           2.00         2.00
  244.18        2965.00           1431           3.00         2.00
  244.21        2965.25           1435           2.00         2.00
  244.24        2965.50           1438           7.00         6.10
  244.27        2965.75           1441           3.00         2.00
  244.29        2966.00           1445           8.00        10.46
  244.32        2966.25           1448           8.00        10.46
  244.35        2966.50           1451           8.00        10.46
  244.38        2966.75           1455           5.00         2.00
  244.40        2967.00           1458           8.00        10.46
  244.43        2967.25           1461           5.00         2.00
  244.46        2967.50           1465           8.00        10.46
  244.48        2967.75           1468           8.00        10.46
  244.51        2968.00           1471           0.00         2.00
  244.54        2968.25           1475           8.00        10.46
  244.57        2968.50           1478           0.00         2.00
  244.59        2968.75           1481           0.00         2.00
  244.62        2969.00           1485           8.00        10.46
  244.65        2969.25           1488           0.00         2.00
  244.68        2969.50           1491           8.00        10.46
  244.70        2969.75           1495           0.00         2.00
  244.73        2970.00           1498           2.00         2.00
  244.76        2970.25           1501           0.00         2.00
  244.78        2970.50           1505           1.00         2.00
  244.81        2970.75           1508           2.00         2.00
  244.84        2971.00           1511           0.00         2.00
  244.87        2971.25           1515           0.00         2.00
  244.89        2971.50           1518           0.00         2.00
  244.92        2971.75           1521           0.00         2.00
  244.95        2972.00           1525           0.00         2.00
  244.98        2972.25           1528           8.00        10.46
  245.00        2972.50           1531           8.00        10.46
  245.03        2972.75           1535           0.00         2.00
  245.06        2973.00           1538           0.00         2.00
  245.08        2973.25           1541           8.00        10.46
  245.11        2973.50           1545           8.00        10.46
  245.14        2973.75           1548           4.00         2.00
  245.17        2974.00           1551           8.00        10.46
  245.19        2974.25           1555           8.00        10.46
  245.22        2974.50           1558           4.00         2.00
  245.25        2974.75           1561           8.00        10.46
  245.27        2975.00           1565           0.00         2.00
  245.30        2975.25           1568           8.00        10.46
  245.33        2975.50           1571           8.00        10.46
  245.36        2975.75           1575           5.00         2.00
  245.38        2976.00           1578           8.00        10.46
  245.41        2976.25           1581           8.00        10.46
  245.44        2976.50           1585           7.00         6.10
  245.47        2976.75           1588           1.00         2.00
  245.49        2977.00           1591           0.00         2.00
  245.52        2977.25           1595           8.00        10.46
  245.55        2977.50           1598           0.00         2.00
  245.57        2977.75           1601           0.00         2.00
  245.60        2978.00           1605           5.00         2.00
  245.63        2978.25           1608           6.00         2.00
  245.66        2978.50           1611           0.00         2.00
  245.68        2978.75           1615           8.00        10.46
  245.71        2979.00           1618           6.00         2.00
  245.74        2979.25           1621           6.00         2.00
  245.76        2979.50           1625           8.00        10.46
  245.79        2979.75           1628           0.00         2.00
  245.82        2980.00           1631           6.00         2.00
  245.85        2980.25           1635           6.00         2.00
  245.87        2980.50           1638           4.00         2.00
  245.90        2980.75           1641           0.00         2.00
  245.93        2981.00           1645           6.00         2.00
  245.95        2981.25           1648           5.00         2.00
  245.98        2981.50           1651           0.00         2.00
  246.01        2981.75           1655           4.00         2.00
  246.04        2982.00           1658           0.00         2.00
  246.06        2982.25           1661           0.00         2.00
  246.09        2982.50           1665           4.00         2.00
  246.12        2982.75           1668           8.00        10.46
  246.15        2983.00           1671           8.00        10.46
  246.17        2983.25           1675           8.00        10.46
  246.20        2983.50           1678           8.00        10.46
  246.23        2983.75           1681           5.00         2.00
  246.25        2984.00           1685           8.00        10.46
HS scan finished at 04:06:27
end
