************************************************************
  HS Scan of (1) Internal mercury lamp
************************************************************
Integration time is 0.2294 seconds per sample
dh240117Tamanrasset 22.79-5.529 2.644435pr865
************************************************************
Dead Time -------------------------  2.8E-08 
Number of Cycles Used -------------  4 
Starting Wavelength (Angstroms) ---  2950 
Final Wavelength (Angstoms) -------  2984 
Wavelength Increment (Angstroms) --  .25 
Filter Wheel #1 Position ---------- (1) Ground quartz diffuser (ND=2.32)
Filter Wheel #2 Position ---------- (1) Neutral Density 0.494



************************************************************
HS scan start time = 04:03:09
Dark Count =  1.2 


Time (GMT)  Wavelength (Ang)  Step Number  Raw Counts  Counts/Second

  243.50        2950.00           1233           3.00         7.85
  243.57        2950.25           1236           4.00        12.21
  243.60        2950.50           1239           8.00        29.64
  243.62        2950.75           1242           8.00        29.64
  243.65        2951.00           1246           0.00         2.00
  243.68        2951.25           1249           0.00         2.00
  243.70        2951.50           1252           8.00        29.64
  243.73        2951.75           1256           8.00        29.64
  243.76        2952.00           1259           8.00        29.64
  243.79        2952.25           1262           8.00        29.64
  243.81        2952.50           1266           8.00        29.64
  243.84        2952.75           1269           1.00         2.00
  243.87        2953.00           1272           6.00        20.92
  243.90        2953.25           1276           8.00        29.64
  243.92        2953.50           1279           8.00        29.64
  243.95        2953.75           1282           9.00        34.00
  243.98        2954.00           1286           0.00         2.00
  244.01        2954.25           1289           0.00         2.00
  244.03        2954.50           1292           0.00         2.00
  244.06        2954.75           1295           5.00        16.56
  244.09        2955.00           1299           8.00        29.64
  244.11        2955.25           1302           5.00        16.56
  244.14        2955.50           1305           0.00         2.00
  244.17        2955.75           1309           0.00         2.00
  244.20        2956.00           1312           8.00        29.64
  244.22        2956.25           1315           4.00        12.21
  244.25        2956.50           1319           0.00         2.00
  244.28        2956.75           1322           0.00         2.00
  244.31        2957.00           1325           4.00        12.21
  244.33        2957.25           1329           8.00        29.64
  244.36        2957.50           1332           5.00        16.56
  244.39        2957.75           1335           0.00         2.00
  244.41        2958.00           1339           4.00        12.21
  244.44        2958.25           1342           8.00        29.64
  244.47        2958.50           1345           8.00        29.64
  244.50        2958.75           1348           7.00        25.28
  244.52        2959.00           1352           5.00        16.56
  244.55        2959.25           1355           5.00        16.56
  244.58        2959.50           1358           0.00         2.00
  244.61        2959.75           1362           0.00         2.00
  244.63        2960.00           1365           8.00        29.64
  244.66        2960.25           1368           3.00         7.85
  244.69        2960.50           1372           3.00         7.85
  244.71        2960.75           1375           0.00         2.00
  244.74        2961.00           1378           0.00         2.00
  244.77        2961.25           1382           3.00         7.85
  244.80        2961.50           1385           4.00        12.21
  244.82        2961.75           1388           8.00        29.64
  244.85        2962.00           1392           0.00         2.00
  244.88        2962.25           1395           8.00        29.64
  244.91        2962.50           1398           5.00        16.56
  244.93        2962.75           1402           8.00        29.64
  244.96        2963.00           1405           0.00         2.00
  244.99        2963.25           1408           0.00         2.00
  245.01        2963.50           1412           3.00         7.85
  245.04        2963.75           1415           8.00        29.64
  245.07        2964.00           1418           8.00        29.64
  245.10        2964.25           1422           6.00        20.92
  245.12        2964.50           1425           0.00         2.00
  245.15        2964.75           1428           8.00        29.64
  245.18        2965.00           1431           0.00         2.00
  245.21        2965.25           1435           4.00        12.21
  245.23        2965.50           1438           0.00         2.00
  245.26        2965.75           1441           8.00        29.64
  245.29        2966.00           1445           0.00         2.00
  245.31        2966.25           1448           0.00         2.00
  245.34        2966.50           1451           0.00         2.00
  245.37        2966.75           1455           4.00        12.21
  245.40        2967.00           1458           1.00         2.00
  245.42        2967.25           1461           0.00         2.00
  245.45        2967.50           1465           2.00         3.49
  245.48        2967.75           1468           8.00        29.64
  245.50        2968.00           1471           8.00        29.64
  245.53        2968.25           1475           1.00         2.00
  245.56        2968.50           1478           0.00         2.00
  245.59        2968.75           1481           7.00        25.28
  245.61        2969.00           1485           0.00         2.00
  245.64        2969.25           1488           2.00         3.49
  245.67        2969.50           1491           6.00        20.92
  245.69        2969.75           1495           8.00        29.64
  245.72        2970.00           1498           8.00        29.64
  245.75        2970.25           1501           8.00        29.64
  245.78        2970.50           1505           0.00         2.00
  245.80        2970.75           1508           8.00        29.64
  245.83        2971.00           1511           0.00         2.00
  245.86        2971.25           1515           8.00        29.64
  245.89        2971.50           1518           2.00         3.49
  245.91        2971.75           1521           0.00         2.00
  245.94        2972.00           1525           8.00        29.64
  245.97        2972.25           1528           0.00         2.00
  246.00        2972.50           1531           6.00        20.92
  246.02        2972.75           1535           0.00         2.00
  246.05        2973.00           1538           1.00         2.00
  246.08        2973.25           1541           8.00        29.64
  246.10        2973.50           1545           0.00         2.00
  246.13        2973.75           1548           1.00         2.00
  246.16        2974.00           1551           0.00         2.00
  246.19        2974.25           1555           5.00        16.56
  246.21        2974.50           1558           0.00         2.00
  246.24        2974.75           1561           0.00         2.00
  246.27        2975.00           1565           8.00        29.64
  246.29        2975.25           1568           1.00         2.00
  246.32        2975.50           1571           9.00        34.00
  246.35        2975.75           1575           2.00         3.49
  246.38        2976.00           1578           2.00         3.49
  246.40        2976.25           1581           0.00         2.00
  246.43        2976.50           1585           8.00        29.64
  246.46        2976.75           1588           0.00         2.00
  246.49        2977.00           1591           0.00         2.00
  246.51        2977.25           1595           4.00        12.21
  246.54        2977.50           1598           8.00        29.64
  246.57        2977.75           1601           3.00         7.85
  246.59        2978.00           1605           5.00        16.56
  246.62        2978.25           1608           0.00         2.00
  246.65        2978.50           1611           0.00         2.00
  246.68        2978.75           1615           8.00        29.64
  246.70        2979.00           1618           8.00        29.64
  246.73        2979.25           1621           0.00         2.00
  246.76        2979.50           1625           0.00         2.00
  246.79        2979.75           1628           0.00         2.00
  246.81        2980.00           1631           0.00         2.00
  246.84        2980.25           1635           6.00        20.92
  246.87        2980.50           1638           5.00        16.56
  246.89        2980.75           1641           0.00         2.00
  246.92        2981.00           1645           0.00         2.00
  246.95        2981.25           1648           0.00         2.00
  246.98        2981.50           1651           8.00        29.64
  247.00        2981.75           1655           0.00         2.00
  247.03        2982.00           1658           8.00        29.64
  247.06        2982.25           1661           0.00         2.00
  247.09        2982.50           1665           0.00         2.00
  247.11        2982.75           1668           6.00        20.92
  247.14        2983.00           1671           0.00         2.00
  247.17        2983.25           1675           8.00        29.64
  247.19        2983.50           1678           8.00        29.64
  247.22        2983.75           1681           0.00         2.00
  247.25        2984.00           1685           0.00         2.00
HS scan finished at 04:07:26
end
