************************************************************
  HS Scan of (1) Internal mercury lamp
************************************************************
Integration time is 0.2294 seconds per sample
dh040217Tamanrasset 22.79-5.529 2.72091pr865
************************************************************
Dead Time -------------------------  2.8E-08 
Number of Cycles Used -------------  4 
Starting Wavelength (Angstroms) ---  2950 
Final Wavelength (Angstoms) -------  2984 
Wavelength Increment (Angstroms) --  .25 
Filter Wheel #1 Position ---------- (1) Ground quartz diffuser (ND=2.32)
Filter Wheel #2 Position ---------- (1) Neutral Density 0.494



************************************************************
HS scan start time = 03:58:50
Dark Count =  4.6 


Time (GMT)  Wavelength (Ang)  Step Number  Raw Counts  Counts/Second

  239.19        2950.00           1233           0.00         2.00
  239.25        2950.25           1236           5.00         2.00
  239.28        2950.50           1239           0.00         2.00
  239.30        2950.75           1242           7.00        10.46
  239.33        2951.00           1246           2.00         2.00
  239.36        2951.25           1249           0.00         2.00
  239.39        2951.50           1252           0.00         2.00
  239.41        2951.75           1256           0.00         2.00
  239.44        2952.00           1259           6.00         6.10
  239.47        2952.25           1262           8.00        14.82
  239.50        2952.50           1266           5.00         2.00
  239.52        2952.75           1269           0.00         2.00
  239.55        2953.00           1272           8.00        14.82
  239.58        2953.25           1276           4.00         2.00
  239.60        2953.50           1279           0.00         2.00
  239.63        2953.75           1282           8.00        14.82
  239.66        2954.00           1286           4.00         2.00
  239.69        2954.25           1289           4.00         2.00
  239.71        2954.50           1292           0.00         2.00
  239.74        2954.75           1295           0.00         2.00
  239.77        2955.00           1299           8.00        14.82
  239.80        2955.25           1302           0.00         2.00
  239.82        2955.50           1305           0.00         2.00
  239.85        2955.75           1309           8.00        14.82
  239.88        2956.00           1312           8.00        14.82
  239.90        2956.25           1315           1.00         2.00
  239.93        2956.50           1319           8.00        14.82
  239.96        2956.75           1322           8.00        14.82
  239.99        2957.00           1325           2.00         2.00
  240.01        2957.25           1329           0.00         2.00
  240.04        2957.50           1332           8.00        14.82
  240.07        2957.75           1335           7.00        10.46
  240.09        2958.00           1339           8.00        14.82
  240.12        2958.25           1342           5.00         2.00
  240.15        2958.50           1345           5.00         2.00
  240.18        2958.75           1348           8.00        14.82
  240.20        2959.00           1352           4.00         2.00
  240.23        2959.25           1355           0.00         2.00
  240.26        2959.50           1358           0.00         2.00
  240.29        2959.75           1362           8.00        14.82
  240.31        2960.00           1365           2.00         2.00
  240.34        2960.25           1368           8.00        14.82
  240.37        2960.50           1372           0.00         2.00
  240.40        2960.75           1375           0.00         2.00
  240.42        2961.00           1378           4.00         2.00
  240.45        2961.25           1382           8.00        14.82
  240.48        2961.50           1385           3.00         2.00
  240.50        2961.75           1388           0.00         2.00
  240.53        2962.00           1392           3.00         2.00
  240.56        2962.25           1395           8.00        14.82
  240.59        2962.50           1398           0.00         2.00
  240.61        2962.75           1402           4.00         2.00
  240.64        2963.00           1405           8.00        14.82
  240.67        2963.25           1408           8.00        14.82
  240.69        2963.50           1412           8.00        14.82
  240.72        2963.75           1415           8.00        14.82
  240.75        2964.00           1418           3.00         2.00
  240.78        2964.25           1422           2.00         2.00
  240.80        2964.50           1425           1.00         2.00
  240.83        2964.75           1428           2.00         2.00
  240.86        2965.00           1431           1.00         2.00
  240.89        2965.25           1435           8.00        14.82
  240.91        2965.50           1438           0.00         2.00
  240.94        2965.75           1441           8.00        14.82
  240.97        2966.00           1445           0.00         2.00
  241.00        2966.25           1448           0.00         2.00
  241.02        2966.50           1451           3.00         2.00
  241.05        2966.75           1455           5.00         2.00
  241.08        2967.00           1458           0.00         2.00
  241.11        2967.25           1461           0.00         2.00
  241.13        2967.50           1465           5.00         2.00
  241.16        2967.75           1468           0.00         2.00
  241.19        2968.00           1471           8.00        14.82
  241.21        2968.25           1475           8.00        14.82
  241.24        2968.50           1478           0.00         2.00
  241.27        2968.75           1481           8.00        14.82
  241.30        2969.00           1485           2.00         2.00
  241.32        2969.25           1488           8.00        14.82
  241.35        2969.50           1491           0.00         2.00
  241.38        2969.75           1495           7.00        10.46
  241.40        2970.00           1498           1.00         2.00
  241.43        2970.25           1501           8.00        14.82
  241.46        2970.50           1505           8.00        14.82
  241.49        2970.75           1508           0.00         2.00
  241.51        2971.00           1511           3.00         2.00
  241.54        2971.25           1515           8.00        14.82
  241.57        2971.50           1518           3.00         2.00
  241.60        2971.75           1521           8.00        14.82
  241.62        2972.00           1525           2.00         2.00
  241.65        2972.25           1528           3.00         2.00
  241.68        2972.50           1531           7.00        10.46
  241.70        2972.75           1535           0.00         2.00
  241.73        2973.00           1538           8.00        14.82
  241.76        2973.25           1541           2.00         2.00
  241.79        2973.50           1545           6.00         6.10
  241.81        2973.75           1548           3.00         2.00
  241.84        2974.00           1551           0.00         2.00
  241.87        2974.25           1555           8.00        14.82
  241.90        2974.50           1558           8.00        14.82
  241.92        2974.75           1561           0.00         2.00
  241.95        2975.00           1565           8.00        14.82
  241.98        2975.25           1568           1.00         2.00
  242.00        2975.50           1571           7.00        10.46
  242.03        2975.75           1575           2.00         2.00
  242.06        2976.00           1578           6.00         6.10
  242.09        2976.25           1581           1.00         2.00
  242.11        2976.50           1585           8.00        14.82
  242.14        2976.75           1588           1.00         2.00
  242.17        2977.00           1591           8.00        14.82
  242.20        2977.25           1595           0.00         2.00
  242.22        2977.50           1598           8.00        14.82
  242.25        2977.75           1601           0.00         2.00
  242.28        2978.00           1605           7.00        10.46
  242.30        2978.25           1608           4.00         2.00
  242.33        2978.50           1611           0.00         2.00
  242.36        2978.75           1615           8.00        14.82
  242.39        2979.00           1618           8.00        14.82
  242.41        2979.25           1621           0.00         2.00
  242.44        2979.50           1625           0.00         2.00
  242.47        2979.75           1628           0.00         2.00
  242.50        2980.00           1631           0.00         2.00
  242.52        2980.25           1635           6.00         6.10
  242.55        2980.50           1638           0.00         2.00
  242.58        2980.75           1641           7.00        10.46
  242.60        2981.00           1645           8.00        14.82
  242.63        2981.25           1648           8.00        14.82
  242.66        2981.50           1651           0.00         2.00
  242.69        2981.75           1655           8.00        14.82
  242.71        2982.00           1658           0.00         2.00
  242.74        2982.25           1661           7.00        10.46
  242.77        2982.50           1665           0.00         2.00
  242.80        2982.75           1668           8.00        14.82
  242.82        2983.00           1671           3.00         2.00
  242.85        2983.25           1675           1.00         2.00
  242.88        2983.50           1678           0.00         2.00
  242.90        2983.75           1681           2.00         2.00
  242.93        2984.00           1685           0.00         2.00
HS scan finished at 04:03:07
end
