************************************************************
  HS Scan of (1) Internal mercury lamp
************************************************************
Integration time is 0.2294 seconds per sample
dh060217Tamanrasset 22.79-5.529 2.680123pr865
************************************************************
Dead Time -------------------------  2.8E-08 
Number of Cycles Used -------------  4 
Starting Wavelength (Angstroms) ---  2950 
Final Wavelength (Angstoms) -------  2984 
Wavelength Increment (Angstroms) --  .25 
Filter Wheel #1 Position ---------- (1) Ground quartz diffuser (ND=2.32)
Filter Wheel #2 Position ---------- (1) Neutral Density 0.494



************************************************************
HS scan start time = 03:57:48
Dark Count =  5.6 


Time (GMT)  Wavelength (Ang)  Step Number  Raw Counts  Counts/Second

  238.15        2950.00           1233           0.00         2.00
  238.21        2950.25           1236           3.00         2.00
  238.24        2950.50           1239           8.00        10.46
  238.27        2950.75           1242           8.00        10.46
  238.29        2951.00           1246           1.00         2.00
  238.32        2951.25           1249           8.00        10.46
  238.35        2951.50           1252           8.00        10.46
  238.37        2951.75           1256           2.00         2.00
  238.40        2952.00           1259           0.00         2.00
  238.43        2952.25           1262           8.00        10.46
  238.46        2952.50           1266           8.00        10.46
  238.48        2952.75           1269           6.00         2.00
  238.51        2953.00           1272           1.00         2.00
  238.54        2953.25           1276           5.00         2.00
  238.56        2953.50           1279           0.00         2.00
  238.59        2953.75           1282           8.00        10.46
  238.62        2954.00           1286           8.00        10.46
  238.65        2954.25           1289           8.00        10.46
  238.67        2954.50           1292           8.00        10.46
  238.70        2954.75           1295           0.00         2.00
  238.73        2955.00           1299           2.00         2.00
  238.75        2955.25           1302           8.00        10.46
  238.78        2955.50           1305           0.00         2.00
  238.81        2955.75           1309           3.00         2.00
  238.84        2956.00           1312           7.00         6.10
  238.86        2956.25           1315           8.00        10.46
  238.89        2956.50           1319           8.00        10.46
  238.92        2956.75           1322           8.00        10.46
  238.94        2957.00           1325           8.00        10.46
  238.97        2957.25           1329           8.00        10.46
  239.00        2957.50           1332           6.00         2.00
  239.03        2957.75           1335           4.00         2.00
  239.05        2958.00           1339           8.00        10.46
  239.08        2958.25           1342           2.00         2.00
  239.11        2958.50           1345           0.00         2.00
  239.13        2958.75           1348           3.00         2.00
  239.16        2959.00           1352           8.00        10.46
  239.19        2959.25           1355           0.00         2.00
  239.21        2959.50           1358           0.00         2.00
  239.24        2959.75           1362           8.00        10.46
  239.27        2960.00           1365           4.00         2.00
  239.30        2960.25           1368           0.00         2.00
  239.32        2960.50           1372           4.00         2.00
  239.35        2960.75           1375           8.00        10.46
  239.38        2961.00           1378           0.00         2.00
  239.40        2961.25           1382           0.00         2.00
  239.43        2961.50           1385           0.00         2.00
  239.46        2961.75           1388           3.00         2.00
  239.49        2962.00           1392           8.00        10.46
  239.51        2962.25           1395           5.00         2.00
  239.54        2962.50           1398           0.00         2.00
  239.57        2962.75           1402           2.00         2.00
  239.59        2963.00           1405           1.00         2.00
  239.62        2963.25           1408           8.00        10.46
  239.65        2963.50           1412           8.00        10.46
  239.68        2963.75           1415           2.00         2.00
  239.70        2964.00           1418           8.00        10.46
  239.73        2964.25           1422           7.00         6.10
  239.76        2964.50           1425           4.00         2.00
  239.78        2964.75           1428           0.00         2.00
  239.81        2965.00           1431           5.00         2.00
  239.84        2965.25           1435           0.00         2.00
  239.87        2965.50           1438           0.00         2.00
  239.89        2965.75           1441           0.00         2.00
  239.92        2966.00           1445           0.00         2.00
  239.95        2966.25           1448           8.00        10.46
  239.97        2966.50           1451           3.00         2.00
  240.00        2966.75           1455           0.00         2.00
  240.03        2967.00           1458           2.00         2.00
  240.06        2967.25           1461           8.00        10.46
  240.08        2967.50           1465           0.00         2.00
  240.11        2967.75           1468           0.00         2.00
  240.14        2968.00           1471           6.00         2.00
  240.16        2968.25           1475           0.00         2.00
  240.19        2968.50           1478           5.00         2.00
  240.22        2968.75           1481           0.00         2.00
  240.24        2969.00           1485           8.00        10.46
  240.27        2969.25           1488           8.00        10.46
  240.30        2969.50           1491           8.00        10.46
  240.33        2969.75           1495           8.00        10.46
  240.35        2970.00           1498           3.00         2.00
  240.38        2970.25           1501           5.00         2.00
  240.41        2970.50           1505           6.00         2.00
  240.43        2970.75           1508           3.00         2.00
  240.46        2971.00           1511           6.00         2.00
  240.49        2971.25           1515           0.00         2.00
  240.52        2971.50           1518           0.00         2.00
  240.54        2971.75           1521           0.00         2.00
  240.57        2972.00           1525           1.00         2.00
  240.60        2972.25           1528           1.00         2.00
  240.63        2972.50           1531           5.00         2.00
  240.65        2972.75           1535           2.00         2.00
  240.68        2973.00           1538           2.00         2.00
  240.71        2973.25           1541           8.00        10.46
  240.73        2973.50           1545           5.00         2.00
  240.76        2973.75           1548           0.00         2.00
  240.79        2974.00           1551           4.00         2.00
  240.81        2974.25           1555           0.00         2.00
  240.84        2974.50           1558           0.00         2.00
  240.87        2974.75           1561           5.00         2.00
  240.90        2975.00           1565           5.00         2.00
  240.92        2975.25           1568           0.00         2.00
  240.95        2975.50           1571           8.00        10.46
  240.98        2975.75           1575           4.00         2.00
  241.01        2976.00           1578           3.00         2.00
  241.03        2976.25           1581           8.00        10.46
  241.06        2976.50           1585           1.00         2.00
  241.09        2976.75           1588           0.00         2.00
  241.11        2977.00           1591           0.00         2.00
  241.14        2977.25           1595           6.00         2.00
  241.17        2977.50           1598           0.00         2.00
  241.20        2977.75           1601           0.00         2.00
  241.22        2978.00           1605           8.00        10.46
  241.25        2978.25           1608           8.00        10.46
  241.28        2978.50           1611           7.00         6.10
  241.30        2978.75           1615           5.00         2.00
  241.33        2979.00           1618           5.00         2.00
  241.36        2979.25           1621           8.00        10.46
  241.38        2979.50           1625           0.00         2.00
  241.41        2979.75           1628           0.00         2.00
  241.44        2980.00           1631           8.00        10.46
  241.47        2980.25           1635           7.00         6.10
  241.49        2980.50           1638           3.00         2.00
  241.52        2980.75           1641           6.00         2.00
  241.55        2981.00           1645           2.00         2.00
  241.58        2981.25           1648           8.00        10.46
  241.60        2981.50           1651           7.00         6.10
  241.63        2981.75           1655           2.00         2.00
  241.66        2982.00           1658           2.00         2.00
  241.68        2982.25           1661           8.00        10.46
  241.71        2982.50           1665           8.00        10.46
  241.74        2982.75           1668           3.00         2.00
  241.77        2983.00           1671           7.00         6.10
  241.79        2983.25           1675           0.00         2.00
  241.82        2983.50           1678           0.00         2.00
  241.85        2983.75           1681           0.00         2.00
  241.87        2984.00           1685           0.00         2.00
HS scan finished at 04:02:04
end
