************************************************************
  HS Scan of (1) Internal mercury lamp
************************************************************
Integration time is 0.2294 seconds per sample
dh070217Tamanrasset 22.79-5.529 2.680123pr865
************************************************************
Dead Time -------------------------  2.8E-08 
Number of Cycles Used -------------  4 
Starting Wavelength (Angstroms) ---  2950 
Final Wavelength (Angstoms) -------  2984 
Wavelength Increment (Angstroms) --  .25 
Filter Wheel #1 Position ---------- (1) Ground quartz diffuser (ND=2.32)
Filter Wheel #2 Position ---------- (1) Neutral Density 0.494



************************************************************
HS scan start time = 03:57:10
Dark Count =  2.9 


Time (GMT)  Wavelength (Ang)  Step Number  Raw Counts  Counts/Second

  237.53        2950.00           1233           2.00         2.00
  237.59        2950.25           1236           8.00        22.23
  237.62        2950.50           1239           0.00         2.00
  237.64        2950.75           1242           7.00        17.87
  237.67        2951.00           1246           0.00         2.00
  237.70        2951.25           1249           8.00        22.23
  237.72        2951.50           1252           2.00         2.00
  237.75        2951.75           1256           1.00         2.00
  237.78        2952.00           1259           2.00         2.00
  237.81        2952.25           1262           0.00         2.00
  237.83        2952.50           1266           7.00        17.87
  237.86        2952.75           1269           4.00         4.80
  237.89        2953.00           1272           4.00         4.80
  237.91        2953.25           1276           8.00        22.23
  237.94        2953.50           1279           4.00         4.80
  237.97        2953.75           1282           8.00        22.23
  238.00        2954.00           1286           8.00        22.23
  238.02        2954.25           1289           6.00        13.51
  238.05        2954.50           1292           0.00         2.00
  238.08        2954.75           1295           8.00        22.23
  238.10        2955.00           1299           8.00        22.23
  238.13        2955.25           1302           2.00         2.00
  238.16        2955.50           1305           4.00         4.80
  238.19        2955.75           1309           0.00         2.00
  238.21        2956.00           1312           3.00         2.00
  238.24        2956.25           1315           5.00         9.15
  238.27        2956.50           1319           0.00         2.00
  238.29        2956.75           1322           7.00        17.87
  238.32        2957.00           1325           3.00         2.00
  238.35        2957.25           1329           8.00        22.23
  238.37        2957.50           1332           8.00        22.23
  238.40        2957.75           1335           8.00        22.23
  238.43        2958.00           1339           5.00         9.15
  238.46        2958.25           1342           6.00        13.51
  238.48        2958.50           1345           2.00         2.00
  238.51        2958.75           1348           8.00        22.23
  238.54        2959.00           1352           0.00         2.00
  238.56        2959.25           1355           4.00         4.80
  238.59        2959.50           1358           8.00        22.23
  238.62        2959.75           1362           8.00        22.23
  238.65        2960.00           1365           4.00         4.80
  238.67        2960.25           1368           8.00        22.23
  238.70        2960.50           1372           8.00        22.23
  238.73        2960.75           1375           3.00         2.00
  238.75        2961.00           1378           8.00        22.23
  238.78        2961.25           1382           0.00         2.00
  238.81        2961.50           1385           8.00        22.23
  238.84        2961.75           1388           7.00        17.87
  238.86        2962.00           1392           0.00         2.00
  238.89        2962.25           1395           8.00        22.23
  238.92        2962.50           1398           4.00         4.80
  238.94        2962.75           1402           8.00        22.23
  238.97        2963.00           1405           8.00        22.23
  239.00        2963.25           1408           0.00         2.00
  239.03        2963.50           1412           8.00        22.23
  239.05        2963.75           1415           0.00         2.00
  239.08        2964.00           1418           7.00        17.87
  239.11        2964.25           1422           0.00         2.00
  239.13        2964.50           1425           8.00        22.23
  239.16        2964.75           1428           7.00        17.87
  239.19        2965.00           1431           8.00        22.23
  239.22        2965.25           1435           0.00         2.00
  239.24        2965.50           1438           3.00         2.00
  239.27        2965.75           1441           2.00         2.00
  239.30        2966.00           1445           8.00        22.23
  239.32        2966.25           1448           1.00         2.00
  239.35        2966.50           1451           8.00        22.23
  239.38        2966.75           1455           2.00         2.00
  239.40        2967.00           1458           6.00        13.51
  239.43        2967.25           1461           0.00         2.00
  239.46        2967.50           1465           0.00         2.00
  239.49        2967.75           1468           4.00         4.80
  239.51        2968.00           1471           6.00        13.51
  239.54        2968.25           1475           0.00         2.00
  239.57        2968.50           1478           6.00        13.51
  239.60        2968.75           1481           0.00         2.00
  239.62        2969.00           1485           0.00         2.00
  239.65        2969.25           1488           0.00         2.00
  239.68        2969.50           1491           8.00        22.23
  239.71        2969.75           1495           0.00         2.00
  239.73        2970.00           1498           8.00        22.23
  239.76        2970.25           1501           6.00        13.51
  239.79        2970.50           1505           2.00         2.00
  239.81        2970.75           1508           8.00        22.23
  239.84        2971.00           1511           5.00         9.15
  239.87        2971.25           1515           0.00         2.00
  239.89        2971.50           1518           1.00         2.00
  239.92        2971.75           1521           0.00         2.00
  239.95        2972.00           1525           8.00        22.23
  239.98        2972.25           1528           4.00         4.80
  240.00        2972.50           1531           8.00        22.23
  240.03        2972.75           1535           0.00         2.00
  240.06        2973.00           1538           4.00         4.80
  240.09        2973.25           1541           2.00         2.00
  240.11        2973.50           1545           8.00        22.23
  240.14        2973.75           1548           8.00        22.23
  240.17        2974.00           1551           4.00         4.80
  240.19        2974.25           1555           1.00         2.00
  240.22        2974.50           1558           4.00         4.80
  240.25        2974.75           1561           8.00        22.23
  240.28        2975.00           1565           8.00        22.23
  240.30        2975.25           1568           0.00         2.00
  240.33        2975.50           1571           0.00         2.00
  240.36        2975.75           1575           0.00         2.00
  240.38        2976.00           1578           1.00         2.00
  240.41        2976.25           1581           8.00        22.23
  240.44        2976.50           1585           5.00         9.15
  240.47        2976.75           1588           1.00         2.00
  240.49        2977.00           1591           0.00         2.00
  240.52        2977.25           1595           8.00        22.23
  240.55        2977.50           1598           8.00        22.23
  240.57        2977.75           1601           3.00         2.00
  240.60        2978.00           1605           0.00         2.00
  240.63        2978.25           1608           0.00         2.00
  240.66        2978.50           1611           4.00         4.80
  240.68        2978.75           1615           7.00        17.87
  240.71        2979.00           1618           0.00         2.00
  240.74        2979.25           1621           5.00         9.15
  240.76        2979.50           1625           7.00        17.87
  240.79        2979.75           1628           0.00         2.00
  240.82        2980.00           1631           8.00        22.23
  240.85        2980.25           1635           8.00        22.23
  240.87        2980.50           1638           0.00         2.00
  240.90        2980.75           1641           0.00         2.00
  240.93        2981.00           1645           8.00        22.23
  240.95        2981.25           1648           4.00         4.80
  240.98        2981.50           1651           8.00        22.23
  241.01        2981.75           1655           0.00         2.00
  241.04        2982.00           1658           8.00        22.23
  241.06        2982.25           1661           8.00        22.23
  241.09        2982.50           1665           8.00        22.23
  241.12        2982.75           1668           1.00         2.00
  241.14        2983.00           1671           0.00         2.00
  241.17        2983.25           1675           8.00        22.23
  241.20        2983.50           1678           8.00        22.23
  241.22        2983.75           1681           8.00        22.23
  241.25        2984.00           1685           3.00         2.00
HS scan finished at 04:01:26
end
