************************************************************
  HS Scan of (1) Internal mercury lamp
************************************************************
Integration time is 0.2294 seconds per sample
dh050217Tamanrasset 22.79-5.529 2.695419pr865
************************************************************
Dead Time -------------------------  2.8E-08 
Number of Cycles Used -------------  4 
Starting Wavelength (Angstroms) ---  2950 
Final Wavelength (Angstoms) -------  2984 
Wavelength Increment (Angstroms) --  .25 
Filter Wheel #1 Position ---------- (1) Ground quartz diffuser (ND=2.32)
Filter Wheel #2 Position ---------- (1) Neutral Density 0.494



************************************************************
HS scan start time = 03:58:51
Dark Count =  5 


Time (GMT)  Wavelength (Ang)  Step Number  Raw Counts  Counts/Second

  239.20        2950.00           1233           5.00         2.00
  239.26        2950.25           1236           0.00         2.00
  239.29        2950.50           1239           0.00         2.00
  239.32        2950.75           1242           2.00         2.00
  239.34        2951.00           1246           8.00        13.08
  239.37        2951.25           1249           8.00        13.08
  239.40        2951.50           1252           8.00        13.08
  239.43        2951.75           1256           0.00         2.00
  239.45        2952.00           1259           1.00         2.00
  239.48        2952.25           1262           8.00        13.08
  239.51        2952.50           1266           8.00        13.08
  239.53        2952.75           1269           0.00         2.00
  239.56        2953.00           1272           0.00         2.00
  239.59        2953.25           1276           0.00         2.00
  239.61        2953.50           1279           0.00         2.00
  239.64        2953.75           1282           0.00         2.00
  239.67        2954.00           1286           7.00         8.72
  239.70        2954.25           1289           4.00         2.00
  239.72        2954.50           1292           8.00        13.08
  239.75        2954.75           1295           8.00        13.08
  239.78        2955.00           1299           6.00         4.36
  239.80        2955.25           1302           4.00         2.00
  239.83        2955.50           1305           8.00        13.08
  239.86        2955.75           1309           0.00         2.00
  239.89        2956.00           1312           6.00         4.36
  239.91        2956.25           1315           8.00        13.08
  239.94        2956.50           1319           0.00         2.00
  239.97        2956.75           1322           5.00         2.00
  239.99        2957.00           1325           8.00        13.08
  240.02        2957.25           1329           4.00         2.00
  240.05        2957.50           1332           7.00         8.72
  240.08        2957.75           1335           8.00        13.08
  240.10        2958.00           1339           8.00        13.08
  240.13        2958.25           1342           4.00         2.00
  240.16        2958.50           1345           4.00         2.00
  240.18        2958.75           1348           8.00        13.08
  240.21        2959.00           1352           3.00         2.00
  240.24        2959.25           1355           8.00        13.08
  240.27        2959.50           1358           8.00        13.08
  240.29        2959.75           1362           0.00         2.00
  240.32        2960.00           1365           0.00         2.00
  240.35        2960.25           1368           4.00         2.00
  240.37        2960.50           1372           0.00         2.00
  240.40        2960.75           1375           8.00        13.08
  240.43        2961.00           1378           8.00        13.08
  240.46        2961.25           1382           0.00         2.00
  240.48        2961.50           1385           7.00         8.72
  240.51        2961.75           1388           5.00         2.00
  240.54        2962.00           1392           8.00        13.08
  240.56        2962.25           1395           3.00         2.00
  240.59        2962.50           1398           0.00         2.00
  240.62        2962.75           1402           0.00         2.00
  240.65        2963.00           1405           0.00         2.00
  240.67        2963.25           1408           8.00        13.08
  240.70        2963.50           1412           8.00        13.08
  240.73        2963.75           1415           0.00         2.00
  240.75        2964.00           1418           0.00         2.00
  240.78        2964.25           1422           0.00         2.00
  240.81        2964.50           1425           8.00        13.08
  240.84        2964.75           1428           8.00        13.08
  240.86        2965.00           1431           2.00         2.00
  240.89        2965.25           1435           0.00         2.00
  240.92        2965.50           1438           8.00        13.08
  240.94        2965.75           1441           8.00        13.08
  240.97        2966.00           1445           8.00        13.08
  241.00        2966.25           1448           6.00         4.36
  241.02        2966.50           1451           0.00         2.00
  241.05        2966.75           1455           2.00         2.00
  241.08        2967.00           1458           8.00        13.08
  241.11        2967.25           1461           8.00        13.08
  241.13        2967.50           1465           8.00        13.08
  241.16        2967.75           1468           6.00         4.36
  241.19        2968.00           1471           0.00         2.00
  241.21        2968.25           1475           3.00         2.00
  241.24        2968.50           1478           0.00         2.00
  241.27        2968.75           1481           5.00         2.00
  241.30        2969.00           1485           0.00         2.00
  241.32        2969.25           1488           3.00         2.00
  241.35        2969.50           1491           8.00        13.08
  241.38        2969.75           1495           1.00         2.00
  241.40        2970.00           1498           8.00        13.08
  241.43        2970.25           1501           2.00         2.00
  241.46        2970.50           1505           0.00         2.00
  241.48        2970.75           1508           0.00         2.00
  241.51        2971.00           1511           0.00         2.00
  241.54        2971.25           1515           0.00         2.00
  241.57        2971.50           1518           4.00         2.00
  241.59        2971.75           1521           2.00         2.00
  241.62        2972.00           1525           1.00         2.00
  241.65        2972.25           1528           5.00         2.00
  241.67        2972.50           1531           6.00         4.36
  241.70        2972.75           1535           7.00         8.72
  241.73        2973.00           1538           2.00         2.00
  241.76        2973.25           1541           0.00         2.00
  241.78        2973.50           1545           0.00         2.00
  241.81        2973.75           1548           8.00        13.08
  241.84        2974.00           1551           1.00         2.00
  241.86        2974.25           1555           0.00         2.00
  241.89        2974.50           1558           8.00        13.08
  241.92        2974.75           1561           8.00        13.08
  241.95        2975.00           1565           8.00        13.08
  241.97        2975.25           1568           8.00        13.08
  242.00        2975.50           1571           8.00        13.08
  242.03        2975.75           1575           4.00         2.00
  242.05        2976.00           1578           7.00         8.72
  242.08        2976.25           1581           1.00         2.00
  242.11        2976.50           1585           8.00        13.08
  242.14        2976.75           1588           0.00         2.00
  242.16        2977.00           1591           7.00         8.72
  242.19        2977.25           1595           8.00        13.08
  242.22        2977.50           1598           0.00         2.00
  242.24        2977.75           1601           0.00         2.00
  242.27        2978.00           1605           4.00         2.00
  242.30        2978.25           1608           8.00        13.08
  242.32        2978.50           1611           1.00         2.00
  242.35        2978.75           1615           6.00         4.36
  242.38        2979.00           1618           5.00         2.00
  242.41        2979.25           1621           4.00         2.00
  242.43        2979.50           1625           3.00         2.00
  242.46        2979.75           1628           5.00         2.00
  242.49        2980.00           1631           8.00        13.08
  242.51        2980.25           1635           8.00        13.08
  242.54        2980.50           1638           6.00         4.36
  242.57        2980.75           1641           0.00         2.00
  242.60        2981.00           1645           0.00         2.00
  242.62        2981.25           1648           0.00         2.00
  242.65        2981.50           1651           3.00         2.00
  242.68        2981.75           1655           8.00        13.08
  242.70        2982.00           1658           8.00        13.08
  242.73        2982.25           1661           0.00         2.00
  242.76        2982.50           1665           0.00         2.00
  242.79        2982.75           1668           8.00        13.08
  242.81        2983.00           1671           8.00        13.08
  242.84        2983.25           1675           0.00         2.00
  242.87        2983.50           1678           8.00        13.08
  242.89        2983.75           1681           0.00         2.00
  242.92        2984.00           1685           3.00         2.00
HS scan finished at 04:03:06
end
