************************************************************
  HS Scan of (1) Internal mercury lamp
************************************************************
Integration time is 0.2294 seconds per sample
dh020217Tamanrasset 22.79-5.529 2.69032pr865
************************************************************
Dead Time -------------------------  2.8E-08 
Number of Cycles Used -------------  4 
Starting Wavelength (Angstroms) ---  2950 
Final Wavelength (Angstoms) -------  2984 
Wavelength Increment (Angstroms) --  .25 
Filter Wheel #1 Position ---------- (1) Ground quartz diffuser (ND=2.32)
Filter Wheel #2 Position ---------- (1) Neutral Density 0.494



************************************************************
HS scan start time = 03:59:49
Dark Count =  5.7 


Time (GMT)  Wavelength (Ang)  Step Number  Raw Counts  Counts/Second

  240.18        2950.00           1233           0.00         2.00
  240.25        2950.25           1236           0.00         2.00
  240.27        2950.50           1239           7.00         5.67
  240.30        2950.75           1242           8.00        10.03
  240.33        2951.00           1246           4.00         2.00
  240.36        2951.25           1249           8.00        10.03
  240.38        2951.50           1252           8.00        10.03
  240.41        2951.75           1256           8.00        10.03
  240.44        2952.00           1259           8.00        10.03
  240.46        2952.25           1262           6.00         2.00
  240.49        2952.50           1266           8.00        10.03
  240.52        2952.75           1269           3.00         2.00
  240.55        2953.00           1272           8.00        10.03
  240.57        2953.25           1276           8.00        10.03
  240.60        2953.50           1279           8.00        10.03
  240.63        2953.75           1282           8.00        10.03
  240.65        2954.00           1286           0.00         2.00
  240.68        2954.25           1289           0.00         2.00
  240.71        2954.50           1292           1.00         2.00
  240.74        2954.75           1295           6.00         2.00
  240.76        2955.00           1299           5.00         2.00
  240.79        2955.25           1302           0.00         2.00
  240.82        2955.50           1305           8.00        10.03
  240.85        2955.75           1309           7.00         5.67
  240.87        2956.00           1312           8.00        10.03
  240.90        2956.25           1315           2.00         2.00
  240.93        2956.50           1319           8.00        10.03
  240.95        2956.75           1322           8.00        10.03
  240.98        2957.00           1325           3.00         2.00
  241.01        2957.25           1329           0.00         2.00
  241.04        2957.50           1332           8.00        10.03
  241.06        2957.75           1335           0.00         2.00
  241.09        2958.00           1339           6.00         2.00
  241.12        2958.25           1342           0.00         2.00
  241.14        2958.50           1345           8.00        10.03
  241.17        2958.75           1348           0.00         2.00
  241.20        2959.00           1352           8.00        10.03
  241.23        2959.25           1355           0.00         2.00
  241.25        2959.50           1358           0.00         2.00
  241.28        2959.75           1362           0.00         2.00
  241.31        2960.00           1365           0.00         2.00
  241.33        2960.25           1368           6.00         2.00
  241.36        2960.50           1372           8.00        10.03
  241.39        2960.75           1375           8.00        10.03
  241.42        2961.00           1378           4.00         2.00
  241.44        2961.25           1382           4.00         2.00
  241.47        2961.50           1385           0.00         2.00
  241.50        2961.75           1388           8.00        10.03
  241.53        2962.00           1392           0.00         2.00
  241.55        2962.25           1395           5.00         2.00
  241.58        2962.50           1398           8.00        10.03
  241.61        2962.75           1402           0.00         2.00
  241.63        2963.00           1405           7.00         5.67
  241.66        2963.25           1408           8.00        10.03
  241.69        2963.50           1412           6.00         2.00
  241.72        2963.75           1415           8.00        10.03
  241.74        2964.00           1418           0.00         2.00
  241.77        2964.25           1422           8.00        10.03
  241.80        2964.50           1425           2.00         2.00
  241.83        2964.75           1428           6.00         2.00
  241.85        2965.00           1431           7.00         5.67
  241.88        2965.25           1435           1.00         2.00
  241.91        2965.50           1438           8.00        10.03
  241.93        2965.75           1441           8.00        10.03
  241.96        2966.00           1445           0.00         2.00
  241.99        2966.25           1448           6.00         2.00
  242.02        2966.50           1451           6.00         2.00
  242.04        2966.75           1455           8.00        10.03
  242.07        2967.00           1458           8.00        10.03
  242.10        2967.25           1461           8.00        10.03
  242.12        2967.50           1465           5.00         2.00
  242.15        2967.75           1468           8.00        10.03
  242.18        2968.00           1471           7.00         5.67
  242.21        2968.25           1475           5.00         2.00
  242.23        2968.50           1478           8.00        10.03
  242.26        2968.75           1481           8.00        10.03
  242.29        2969.00           1485           8.00        10.03
  242.32        2969.25           1488           2.00         2.00
  242.34        2969.50           1491           8.00        10.03
  242.37        2969.75           1495           0.00         2.00
  242.40        2970.00           1498           8.00        10.03
  242.43        2970.25           1501           7.00         5.67
  242.45        2970.50           1505           0.00         2.00
  242.48        2970.75           1508           8.00        10.03
  242.51        2971.00           1511           4.00         2.00
  242.53        2971.25           1515           8.00        10.03
  242.56        2971.50           1518           1.00         2.00
  242.59        2971.75           1521           0.00         2.00
  242.62        2972.00           1525           0.00         2.00
  242.64        2972.25           1528           3.00         2.00
  242.67        2972.50           1531           5.00         2.00
  242.70        2972.75           1535           5.00         2.00
  242.72        2973.00           1538           0.00         2.00
  242.75        2973.25           1541           8.00        10.03
  242.78        2973.50           1545           0.00         2.00
  242.81        2973.75           1548           8.00        10.03
  242.83        2974.00           1551           8.00        10.03
  242.86        2974.25           1555           0.00         2.00
  242.89        2974.50           1558           8.00        10.03
  242.91        2974.75           1561           3.00         2.00
  242.94        2975.00           1565           9.00        14.39
  242.97        2975.25           1568           8.00        10.03
  243.00        2975.50           1571           0.00         2.00
  243.02        2975.75           1575           5.00         2.00
  243.05        2976.00           1578           0.00         2.00
  243.08        2976.25           1581           2.00         2.00
  243.11        2976.50           1585           8.00        10.03
  243.13        2976.75           1588           8.00        10.03
  243.16        2977.00           1591           9.00        14.39
  243.19        2977.25           1595           0.00         2.00
  243.22        2977.50           1598           0.00         2.00
  243.24        2977.75           1601           7.00         5.67
  243.27        2978.00           1605           0.00         2.00
  243.30        2978.25           1608           3.00         2.00
  243.32        2978.50           1611           0.00         2.00
  243.35        2978.75           1615           4.00         2.00
  243.38        2979.00           1618           6.00         2.00
  243.41        2979.25           1621           0.00         2.00
  243.43        2979.50           1625           0.00         2.00
  243.46        2979.75           1628           0.00         2.00
  243.49        2980.00           1631           0.00         2.00
  243.51        2980.25           1635           4.00         2.00
  243.54        2980.50           1638           1.00         2.00
  243.57        2980.75           1641           8.00        10.03
  243.60        2981.00           1645           1.00         2.00
  243.62        2981.25           1648           8.00        10.03
  243.65        2981.50           1651           8.00        10.03
  243.68        2981.75           1655           9.00        14.39
  243.71        2982.00           1658           8.00        10.03
  243.73        2982.25           1661           7.00         5.67
  243.76        2982.50           1665           0.00         2.00
  243.79        2982.75           1668           8.00        10.03
  243.81        2983.00           1671           8.00        10.03
  243.84        2983.25           1675           0.00         2.00
  243.87        2983.50           1678           8.00        10.03
  243.90        2983.75           1681           0.00         2.00
  243.92        2984.00           1685           0.00         2.00
HS scan finished at 04:04:07
end
