************************************************************
  HS Scan of (1) Internal mercury lamp
************************************************************
Integration time is 0.2294 seconds per sample
dh080217Tamanrasset 22.79-5.529 2.685222pr865
************************************************************
Dead Time -------------------------  2.8E-08 
Number of Cycles Used -------------  4 
Starting Wavelength (Angstroms) ---  2950 
Final Wavelength (Angstoms) -------  2984 
Wavelength Increment (Angstroms) --  .25 
Filter Wheel #1 Position ---------- (1) Ground quartz diffuser (ND=2.32)
Filter Wheel #2 Position ---------- (1) Neutral Density 0.494



************************************************************
HS scan start time = 03:56:48
Dark Count =  2 


Time (GMT)  Wavelength (Ang)  Step Number  Raw Counts  Counts/Second

  237.16        2950.00           1233           8.00        26.16
  237.22        2950.25           1236           8.00        26.16
  237.25        2950.50           1239           7.00        21.80
  237.27        2950.75           1242           5.00        13.08
  237.30        2951.00           1246           1.00         2.00
  237.33        2951.25           1249           8.00        26.16
  237.35        2951.50           1252           2.00         2.00
  237.38        2951.75           1256           7.00        21.80
  237.41        2952.00           1259           0.00         2.00
  237.44        2952.25           1262           8.00        26.16
  237.46        2952.50           1266           0.00         2.00
  237.49        2952.75           1269           0.00         2.00
  237.52        2953.00           1272           0.00         2.00
  237.54        2953.25           1276           8.00        26.16
  237.57        2953.50           1279           8.00        26.16
  237.60        2953.75           1282           2.00         2.00
  237.63        2954.00           1286           0.00         2.00
  237.65        2954.25           1289           1.00         2.00
  237.68        2954.50           1292           8.00        26.16
  237.71        2954.75           1295           9.00        30.51
  237.73        2955.00           1299           2.00         2.00
  237.76        2955.25           1302           6.00        17.44
  237.79        2955.50           1305           8.00        26.16
  237.82        2955.75           1309           0.00         2.00
  237.84        2956.00           1312           7.00        21.80
  237.87        2956.25           1315           2.00         2.00
  237.90        2956.50           1319           3.00         4.36
  237.92        2956.75           1322           4.00         8.72
  237.95        2957.00           1325           0.00         2.00
  237.98        2957.25           1329           5.00        13.08
  238.01        2957.50           1332           0.00         2.00
  238.03        2957.75           1335           1.00         2.00
  238.06        2958.00           1339           0.00         2.00
  238.09        2958.25           1342           1.00         2.00
  238.11        2958.50           1345           4.00         8.72
  238.14        2958.75           1348           8.00        26.16
  238.17        2959.00           1352           8.00        26.16
  238.20        2959.25           1355           0.00         2.00
  238.22        2959.50           1358           8.00        26.16
  238.25        2959.75           1362           0.00         2.00
  238.28        2960.00           1365           2.00         2.00
  238.30        2960.25           1368           5.00        13.08
  238.33        2960.50           1372           4.00         8.72
  238.36        2960.75           1375           8.00        26.16
  238.39        2961.00           1378           0.00         2.00
  238.41        2961.25           1382           8.00        26.16
  238.44        2961.50           1385           6.00        17.44
  238.47        2961.75           1388           0.00         2.00
  238.49        2962.00           1392           0.00         2.00
  238.52        2962.25           1395           0.00         2.00
  238.55        2962.50           1398           0.00         2.00
  238.57        2962.75           1402           8.00        26.16
  238.60        2963.00           1405           1.00         2.00
  238.63        2963.25           1408           0.00         2.00
  238.66        2963.50           1412           8.00        26.16
  238.68        2963.75           1415           1.00         2.00
  238.71        2964.00           1418           7.00        21.80
  238.74        2964.25           1422           8.00        26.16
  238.76        2964.50           1425           0.00         2.00
  238.79        2964.75           1428           5.00        13.08
  238.82        2965.00           1431           2.00         2.00
  238.85        2965.25           1435           3.00         4.36
  238.87        2965.50           1438           0.00         2.00
  238.90        2965.75           1441           8.00        26.16
  238.93        2966.00           1445           8.00        26.16
  238.95        2966.25           1448           8.00        26.16
  238.98        2966.50           1451           0.00         2.00
  239.01        2966.75           1455           0.00         2.00
  239.04        2967.00           1458           8.00        26.16
  239.06        2967.25           1461           0.00         2.00
  239.09        2967.50           1465           0.00         2.00
  239.12        2967.75           1468           7.00        21.80
  239.14        2968.00           1471           6.00        17.44
  239.17        2968.25           1475           5.00        13.08
  239.20        2968.50           1478           1.00         2.00
  239.22        2968.75           1481           6.00        17.44
  239.25        2969.00           1485           1.00         2.00
  239.28        2969.25           1488           8.00        26.16
  239.31        2969.50           1491           8.00        26.16
  239.33        2969.75           1495           0.00         2.00
  239.36        2970.00           1498           8.00        26.16
  239.39        2970.25           1501           8.00        26.16
  239.41        2970.50           1505           3.00         4.36
  239.44        2970.75           1508           8.00        26.16
  239.47        2971.00           1511           1.00         2.00
  239.50        2971.25           1515           8.00        26.16
  239.52        2971.50           1518           8.00        26.16
  239.55        2971.75           1521           2.00         2.00
  239.58        2972.00           1525           0.00         2.00
  239.60        2972.25           1528           4.00         8.72
  239.63        2972.50           1531           8.00        26.16
  239.66        2972.75           1535           6.00        17.44
  239.69        2973.00           1538           0.00         2.00
  239.71        2973.25           1541           7.00        21.80
  239.74        2973.50           1545           6.00        17.44
  239.77        2973.75           1548           0.00         2.00
  239.79        2974.00           1551           5.00        13.08
  239.82        2974.25           1555           0.00         2.00
  239.85        2974.50           1558           0.00         2.00
  239.88        2974.75           1561           2.00         2.00
  239.90        2975.00           1565           6.00        17.44
  239.93        2975.25           1568           0.00         2.00
  239.96        2975.50           1571           2.00         2.00
  239.98        2975.75           1575           7.00        21.80
  240.01        2976.00           1578           2.00         2.00
  240.04        2976.25           1581           5.00        13.08
  240.07        2976.50           1585           8.00        26.16
  240.09        2976.75           1588           5.00        13.08
  240.12        2977.00           1591           8.00        26.16
  240.15        2977.25           1595           8.00        26.16
  240.17        2977.50           1598           3.00         4.36
  240.20        2977.75           1601           1.00         2.00
  240.23        2978.00           1605           6.00        17.44
  240.25        2978.25           1608           4.00         8.72
  240.28        2978.50           1611           0.00         2.00
  240.31        2978.75           1615           3.00         4.36
  240.34        2979.00           1618           8.00        26.16
  240.36        2979.25           1621           3.00         4.36
  240.39        2979.50           1625           6.00        17.44
  240.42        2979.75           1628           8.00        26.16
  240.44        2980.00           1631           8.00        26.16
  240.47        2980.25           1635           8.00        26.16
  240.50        2980.50           1638           8.00        26.16
  240.53        2980.75           1641           0.00         2.00
  240.55        2981.00           1645           7.00        21.80
  240.58        2981.25           1648           5.00        13.08
  240.61        2981.50           1651           2.00         2.00
  240.63        2981.75           1655           5.00        13.08
  240.66        2982.00           1658           8.00        26.16
  240.69        2982.25           1661           0.00         2.00
  240.72        2982.50           1665           4.00         8.72
  240.74        2982.75           1668           8.00        26.16
  240.77        2983.00           1671           8.00        26.16
  240.80        2983.25           1675           0.00         2.00
  240.82        2983.50           1678           8.00        26.16
  240.85        2983.75           1681           8.00        26.16
  240.88        2984.00           1685           0.00         2.00
HS scan finished at 04:01:04
end
