************************************************************
  HS Scan of (1) Internal mercury lamp
************************************************************
Integration time is 0.2294 seconds per sample
dh010217Tamanrasset 22.79-5.529 2.700517pr865
************************************************************
Dead Time -------------------------  2.8E-08 
Number of Cycles Used -------------  4 
Starting Wavelength (Angstroms) ---  2950 
Final Wavelength (Angstoms) -------  2984 
Wavelength Increment (Angstroms) --  .25 
Filter Wheel #1 Position ---------- (1) Ground quartz diffuser (ND=2.32)
Filter Wheel #2 Position ---------- (1) Neutral Density 0.494



************************************************************
HS scan start time = 03:59:50
Dark Count =  4.1 


Time (GMT)  Wavelength (Ang)  Step Number  Raw Counts  Counts/Second

  240.20        2950.00           1233           8.00        17.00
  240.26        2950.25           1236           8.00        17.00
  240.29        2950.50           1239           0.00         2.00
  240.31        2950.75           1242           0.00         2.00
  240.34        2951.00           1246           8.00        17.00
  240.37        2951.25           1249           1.00         2.00
  240.40        2951.50           1252           3.00         2.00
  240.42        2951.75           1256           8.00        17.00
  240.45        2952.00           1259           0.00         2.00
  240.48        2952.25           1262           0.00         2.00
  240.50        2952.50           1266           0.00         2.00
  240.53        2952.75           1269           1.00         2.00
  240.56        2953.00           1272           0.00         2.00
  240.59        2953.25           1276           8.00        17.00
  240.61        2953.50           1279           0.00         2.00
  240.64        2953.75           1282           3.00         2.00
  240.67        2954.00           1286           5.00         3.92
  240.69        2954.25           1289           9.00        21.36
  240.72        2954.50           1292           1.00         2.00
  240.75        2954.75           1295           8.00        17.00
  240.78        2955.00           1299           1.00         2.00
  240.80        2955.25           1302           8.00        17.00
  240.83        2955.50           1305           8.00        17.00
  240.86        2955.75           1309           3.00         2.00
  240.89        2956.00           1312           4.00         2.00
  240.91        2956.25           1315           1.00         2.00
  240.94        2956.50           1319           8.00        17.00
  240.97        2956.75           1322           3.00         2.00
  241.00        2957.00           1325           5.00         3.92
  241.02        2957.25           1329           0.00         2.00
  241.05        2957.50           1332           2.00         2.00
  241.08        2957.75           1335           8.00        17.00
  241.10        2958.00           1339           1.00         2.00
  241.13        2958.25           1342           8.00        17.00
  241.16        2958.50           1345           8.00        17.00
  241.19        2958.75           1348           8.00        17.00
  241.21        2959.00           1352           5.00         3.92
  241.24        2959.25           1355           7.00        12.64
  241.27        2959.50           1358           2.00         2.00
  241.29        2959.75           1362           0.00         2.00
  241.32        2960.00           1365           1.00         2.00
  241.35        2960.25           1368           8.00        17.00
  241.38        2960.50           1372           7.00        12.64
  241.40        2960.75           1375           1.00         2.00
  241.43        2961.00           1378           6.00         8.28
  241.46        2961.25           1382           0.00         2.00
  241.49        2961.50           1385           8.00        17.00
  241.51        2961.75           1388           3.00         2.00
  241.54        2962.00           1392           0.00         2.00
  241.57        2962.25           1395           2.00         2.00
  241.60        2962.50           1398           8.00        17.00
  241.62        2962.75           1402           4.00         2.00
  241.65        2963.00           1405           0.00         2.00
  241.68        2963.25           1408           7.00        12.64
  241.70        2963.50           1412           3.00         2.00
  241.73        2963.75           1415           8.00        17.00
  241.76        2964.00           1418           8.00        17.00
  241.79        2964.25           1422           8.00        17.00
  241.81        2964.50           1425           4.00         2.00
  241.84        2964.75           1428           8.00        17.00
  241.87        2965.00           1431           8.00        17.00
  241.89        2965.25           1435           0.00         2.00
  241.92        2965.50           1438           2.00         2.00
  241.95        2965.75           1441           7.00        12.64
  241.98        2966.00           1445           8.00        17.00
  242.00        2966.25           1448           0.00         2.00
  242.03        2966.50           1451           0.00         2.00
  242.06        2966.75           1455           0.00         2.00
  242.09        2967.00           1458           8.00        17.00
  242.11        2967.25           1461           5.00         3.92
  242.14        2967.50           1465           0.00         2.00
  242.17        2967.75           1468           3.00         2.00
  242.19        2968.00           1471           8.00        17.00
  242.22        2968.25           1475           0.00         2.00
  242.25        2968.50           1478           8.00        17.00
  242.28        2968.75           1481           7.00        12.64
  242.30        2969.00           1485           8.00        17.00
  242.33        2969.25           1488           9.00        21.36
  242.36        2969.50           1491           4.00         2.00
  242.38        2969.75           1495           6.00         8.28
  242.41        2970.00           1498           0.00         2.00
  242.44        2970.25           1501           5.00         3.92
  242.47        2970.50           1505           0.00         2.00
  242.49        2970.75           1508           2.00         2.00
  242.52        2971.00           1511           8.00        17.00
  242.55        2971.25           1515           0.00         2.00
  242.58        2971.50           1518           0.00         2.00
  242.60        2971.75           1521           6.00         8.28
  242.63        2972.00           1525           8.00        17.00
  242.66        2972.25           1528           8.00        17.00
  242.68        2972.50           1531           0.00         2.00
  242.71        2972.75           1535           8.00        17.00
  242.74        2973.00           1538           0.00         2.00
  242.77        2973.25           1541           0.00         2.00
  242.79        2973.50           1545           0.00         2.00
  242.82        2973.75           1548           8.00        17.00
  242.85        2974.00           1551           5.00         3.92
  242.87        2974.25           1555           8.00        17.00
  242.90        2974.50           1558           8.00        17.00
  242.93        2974.75           1561           1.00         2.00
  242.96        2975.00           1565           8.00        17.00
  242.98        2975.25           1568           7.00        12.64
  243.01        2975.50           1571           5.00         3.92
  243.04        2975.75           1575           4.00         2.00
  243.07        2976.00           1578           7.00        12.64
  243.09        2976.25           1581           0.00         2.00
  243.12        2976.50           1585           0.00         2.00
  243.15        2976.75           1588           8.00        17.00
  243.17        2977.00           1591           6.00         8.28
  243.20        2977.25           1595           8.00        17.00
  243.23        2977.50           1598           2.00         2.00
  243.26        2977.75           1601           8.00        17.00
  243.28        2978.00           1605           8.00        17.00
  243.31        2978.25           1608           3.00         2.00
  243.34        2978.50           1611           8.00        17.00
  243.37        2978.75           1615           0.00         2.00
  243.39        2979.00           1618           0.00         2.00
  243.42        2979.25           1621           8.00        17.00
  243.45        2979.50           1625           0.00         2.00
  243.47        2979.75           1628           8.00        17.00
  243.50        2980.00           1631           6.00         8.28
  243.53        2980.25           1635           3.00         2.00
  243.56        2980.50           1638           8.00        17.00
  243.58        2980.75           1641           3.00         2.00
  243.61        2981.00           1645           5.00         3.92
  243.64        2981.25           1648           0.00         2.00
  243.66        2981.50           1651           8.00        17.00
  243.69        2981.75           1655           8.00        17.00
  243.72        2982.00           1658           1.00         2.00
  243.75        2982.25           1661           5.00         3.92
  243.77        2982.50           1665           1.00         2.00
  243.80        2982.75           1668           0.00         2.00
  243.83        2983.00           1671           7.00        12.64
  243.86        2983.25           1675           0.00         2.00
  243.88        2983.50           1678           6.00         8.28
  243.91        2983.75           1681           8.00        17.00
  243.94        2984.00           1685           8.00        17.00
HS scan finished at 04:04:08
end
