************************************************************
  HS Scan of (1) Internal mercury lamp
************************************************************
Integration time is 0.2294 seconds per sample
dh100217Tamanrasset 22.79-5.529 2.705615pr865
************************************************************
Dead Time -------------------------  2.8E-08 
Number of Cycles Used -------------  4 
Starting Wavelength (Angstroms) ---  2950 
Final Wavelength (Angstoms) -------  2984 
Wavelength Increment (Angstroms) --  .25 
Filter Wheel #1 Position ---------- (1) Ground quartz diffuser (ND=2.32)
Filter Wheel #2 Position ---------- (1) Neutral Density 0.494



************************************************************
HS scan start time = 03:55:50
Dark Count =  3 


Time (GMT)  Wavelength (Ang)  Step Number  Raw Counts  Counts/Second

  236.19        2950.00           1233           0.00         2.00
  236.25        2950.25           1236           6.00        13.08
  236.28        2950.50           1239           5.00         8.72
  236.31        2950.75           1242           0.00         2.00
  236.33        2951.00           1246           8.00        21.80
  236.36        2951.25           1249           9.00        26.16
  236.39        2951.50           1252           5.00         8.72
  236.41        2951.75           1256           0.00         2.00
  236.44        2952.00           1259           7.00        17.44
  236.47        2952.25           1262           0.00         2.00
  236.50        2952.50           1266           6.00        13.08
  236.52        2952.75           1269           2.00         2.00
  236.55        2953.00           1272           2.00         2.00
  236.58        2953.25           1276           8.00        21.80
  236.60        2953.50           1279           5.00         8.72
  236.63        2953.75           1282           0.00         2.00
  236.66        2954.00           1286           8.00        21.80
  236.69        2954.25           1289           0.00         2.00
  236.71        2954.50           1292           8.00        21.80
  236.74        2954.75           1295           8.00        21.80
  236.77        2955.00           1299           2.00         2.00
  236.79        2955.25           1302           8.00        21.80
  236.82        2955.50           1305           0.00         2.00
  236.85        2955.75           1309           0.00         2.00
  236.88        2956.00           1312           6.00        13.08
  236.90        2956.25           1315           8.00        21.80
  236.93        2956.50           1319           7.00        17.44
  236.96        2956.75           1322           4.00         4.36
  236.98        2957.00           1325           8.00        21.80
  237.01        2957.25           1329           8.00        21.80
  237.04        2957.50           1332           0.00         2.00
  237.07        2957.75           1335           2.00         2.00
  237.09        2958.00           1339           8.00        21.80
  237.12        2958.25           1342           5.00         8.72
  237.15        2958.50           1345           5.00         8.72
  237.17        2958.75           1348           4.00         4.36
  237.20        2959.00           1352           2.00         2.00
  237.23        2959.25           1355           7.00        17.44
  237.26        2959.50           1358           8.00        21.80
  237.28        2959.75           1362           8.00        21.80
  237.31        2960.00           1365           8.00        21.80
  237.34        2960.25           1368           0.00         2.00
  237.36        2960.50           1372           8.00        21.80
  237.39        2960.75           1375           8.00        21.80
  237.42        2961.00           1378           5.00         8.72
  237.45        2961.25           1382           6.00        13.08
  237.47        2961.50           1385           0.00         2.00
  237.50        2961.75           1388           8.00        21.80
  237.53        2962.00           1392           8.00        21.80
  237.55        2962.25           1395           8.00        21.80
  237.58        2962.50           1398           7.00        17.44
  237.61        2962.75           1402           0.00         2.00
  237.64        2963.00           1405           3.00         2.00
  237.66        2963.25           1408           4.00         4.36
  237.69        2963.50           1412           1.00         2.00
  237.72        2963.75           1415           4.00         4.36
  237.74        2964.00           1418           1.00         2.00
  237.77        2964.25           1422           0.00         2.00
  237.80        2964.50           1425           6.00        13.08
  237.83        2964.75           1428           3.00         2.00
  237.85        2965.00           1431           5.00         8.72
  237.88        2965.25           1435           2.00         2.00
  237.91        2965.50           1438           0.00         2.00
  237.93        2965.75           1441           2.00         2.00
  237.96        2966.00           1445           4.00         4.36
  237.99        2966.25           1448           3.00         2.00
  238.02        2966.50           1451           0.00         2.00
  238.04        2966.75           1455           5.00         8.72
  238.07        2967.00           1458           0.00         2.00
  238.10        2967.25           1461           3.00         2.00
  238.12        2967.50           1465           0.00         2.00
  238.15        2967.75           1468           7.00        17.44
  238.18        2968.00           1471           0.00         2.00
  238.20        2968.25           1475           8.00        21.80
  238.23        2968.50           1478           0.00         2.00
  238.26        2968.75           1481           0.00         2.00
  238.29        2969.00           1485           3.00         2.00
  238.31        2969.25           1488           0.00         2.00
  238.34        2969.50           1491           6.00        13.08
  238.37        2969.75           1495           6.00        13.08
  238.39        2970.00           1498           8.00        21.80
  238.42        2970.25           1501           2.00         2.00
  238.45        2970.50           1505           8.00        21.80
  238.48        2970.75           1508           8.00        21.80
  238.50        2971.00           1511           8.00        21.80
  238.53        2971.25           1515           0.00         2.00
  238.56        2971.50           1518           0.00         2.00
  238.58        2971.75           1521           2.00         2.00
  238.61        2972.00           1525           4.00         4.36
  238.64        2972.25           1528           8.00        21.80
  238.67        2972.50           1531           8.00        21.80
  238.69        2972.75           1535           7.00        17.44
  238.72        2973.00           1538           3.00         2.00
  238.75        2973.25           1541           0.00         2.00
  238.77        2973.50           1545           0.00         2.00
  238.80        2973.75           1548           4.00         4.36
  238.83        2974.00           1551           8.00        21.80
  238.86        2974.25           1555           8.00        21.80
  238.88        2974.50           1558           0.00         2.00
  238.91        2974.75           1561           0.00         2.00
  238.94        2975.00           1565           8.00        21.80
  238.96        2975.25           1568           4.00         4.36
  238.99        2975.50           1571           0.00         2.00
  239.02        2975.75           1575           4.00         4.36
  239.05        2976.00           1578           0.00         2.00
  239.07        2976.25           1581           8.00        21.80
  239.10        2976.50           1585           5.00         8.72
  239.13        2976.75           1588           8.00        21.80
  239.15        2977.00           1591           3.00         2.00
  239.18        2977.25           1595           8.00        21.80
  239.21        2977.50           1598           8.00        21.80
  239.24        2977.75           1601           6.00        13.08
  239.26        2978.00           1605           8.00        21.80
  239.29        2978.25           1608           8.00        21.80
  239.32        2978.50           1611           5.00         8.72
  239.34        2978.75           1615           8.00        21.80
  239.37        2979.00           1618           5.00         8.72
  239.40        2979.25           1621           7.00        17.44
  239.43        2979.50           1625           0.00         2.00
  239.45        2979.75           1628           1.00         2.00
  239.48        2980.00           1631           8.00        21.80
  239.51        2980.25           1635           6.00        13.08
  239.53        2980.50           1638           6.00        13.08
  239.56        2980.75           1641           6.00        13.08
  239.59        2981.00           1645           0.00         2.00
  239.62        2981.25           1648           8.00        21.80
  239.64        2981.50           1651           0.00         2.00
  239.67        2981.75           1655           2.00         2.00
  239.70        2982.00           1658           0.00         2.00
  239.72        2982.25           1661           1.00         2.00
  239.75        2982.50           1665           8.00        21.80
  239.78        2982.75           1668           0.00         2.00
  239.81        2983.00           1671           2.00         2.00
  239.83        2983.25           1675           2.00         2.00
  239.86        2983.50           1678           0.00         2.00
  239.89        2983.75           1681           0.00         2.00
  239.91        2984.00           1685           4.00         4.36
HS scan finished at 04:00:06
end
