************************************************************
  HS Scan of (1) Internal mercury lamp
************************************************************
Integration time is 0.2294 seconds per sample
dh170217Tamanrasset 22.79-5.529 2.72091pr865
************************************************************
Dead Time -------------------------  2.8E-08 
Number of Cycles Used -------------  4 
Starting Wavelength (Angstroms) ---  2950 
Final Wavelength (Angstoms) -------  2984 
Wavelength Increment (Angstroms) --  .25 
Filter Wheel #1 Position ---------- (1) Ground quartz diffuser (ND=2.32)
Filter Wheel #2 Position ---------- (1) Neutral Density 0.494



************************************************************
HS scan start time = 03:52:16
Dark Count =  2 


Time (GMT)  Wavelength (Ang)  Step Number  Raw Counts  Counts/Second

  232.62        2950.00           1233           8.00        26.16
  232.68        2950.25           1236           3.00         4.36
  232.71        2950.50           1239           6.00        17.44
  232.73        2950.75           1242           1.00         2.00
  232.76        2951.00           1246           3.00         4.36
  232.79        2951.25           1249           5.00        13.08
  232.82        2951.50           1252           4.00         8.72
  232.84        2951.75           1256           8.00        26.16
  232.87        2952.00           1259           8.00        26.16
  232.90        2952.25           1262           0.00         2.00
  232.92        2952.50           1266           0.00         2.00
  232.95        2952.75           1269           7.00        21.80
  232.98        2953.00           1272           0.00         2.00
  233.00        2953.25           1276           8.00        26.16
  233.03        2953.50           1279           0.00         2.00
  233.06        2953.75           1282           8.00        26.16
  233.09        2954.00           1286           8.00        26.16
  233.11        2954.25           1289           8.00        26.16
  233.14        2954.50           1292           2.00         2.00
  233.17        2954.75           1295           5.00        13.08
  233.19        2955.00           1299           8.00        26.16
  233.22        2955.25           1302           2.00         2.00
  233.25        2955.50           1305           3.00         4.36
  233.28        2955.75           1309           8.00        26.16
  233.30        2956.00           1312           6.00        17.44
  233.33        2956.25           1315           8.00        26.16
  233.36        2956.50           1319           2.00         2.00
  233.38        2956.75           1322           4.00         8.72
  233.41        2957.00           1325           8.00        26.16
  233.44        2957.25           1329           8.00        26.16
  233.47        2957.50           1332           8.00        26.16
  233.49        2957.75           1335           4.00         8.72
  233.52        2958.00           1339           0.00         2.00
  233.55        2958.25           1342           1.00         2.00
  233.57        2958.50           1345           0.00         2.00
  233.60        2958.75           1348           8.00        26.16
  233.63        2959.00           1352           8.00        26.16
  233.66        2959.25           1355           5.00        13.08
  233.68        2959.50           1358           1.00         2.00
  233.71        2959.75           1362           6.00        17.44
  233.74        2960.00           1365           5.00        13.08
  233.76        2960.25           1368           6.00        17.44
  233.79        2960.50           1372           0.00         2.00
  233.82        2960.75           1375           5.00        13.08
  233.85        2961.00           1378           8.00        26.16
  233.87        2961.25           1382           0.00         2.00
  233.90        2961.50           1385           8.00        26.16
  233.93        2961.75           1388           7.00        21.80
  233.95        2962.00           1392           2.00         2.00
  233.98        2962.25           1395           5.00        13.08
  234.01        2962.50           1398           0.00         2.00
  234.04        2962.75           1402           0.00         2.00
  234.06        2963.00           1405           0.00         2.00
  234.09        2963.25           1408           0.00         2.00
  234.12        2963.50           1412           0.00         2.00
  234.14        2963.75           1415           8.00        26.16
  234.17        2964.00           1418           8.00        26.16
  234.20        2964.25           1422           1.00         2.00
  234.23        2964.50           1425           8.00        26.16
  234.25        2964.75           1428           5.00        13.08
  234.28        2965.00           1431           8.00        26.16
  234.31        2965.25           1435           1.00         2.00
  234.33        2965.50           1438           6.00        17.44
  234.36        2965.75           1441           8.00        26.16
  234.39        2966.00           1445           8.00        26.16
  234.42        2966.25           1448           3.00         4.36
  234.44        2966.50           1451           0.00         2.00
  234.47        2966.75           1455           2.00         2.00
  234.50        2967.00           1458           4.00         8.72
  234.52        2967.25           1461           4.00         8.72
  234.55        2967.50           1465           0.00         2.00
  234.58        2967.75           1468           8.00        26.16
  234.60        2968.00           1471           8.00        26.16
  234.63        2968.25           1475           0.00         2.00
  234.66        2968.50           1478           7.00        21.80
  234.69        2968.75           1481           0.00         2.00
  234.71        2969.00           1485           0.00         2.00
  234.74        2969.25           1488           1.00         2.00
  234.77        2969.50           1491           8.00        26.16
  234.79        2969.75           1495           0.00         2.00
  234.82        2970.00           1498           4.00         8.72
  234.85        2970.25           1501           9.00        30.51
  234.88        2970.50           1505           8.00        26.16
  234.90        2970.75           1508           6.00        17.44
  234.93        2971.00           1511           0.00         2.00
  234.96        2971.25           1515           5.00        13.08
  234.99        2971.50           1518           0.00         2.00
  235.01        2971.75           1521           2.00         2.00
  235.04        2972.00           1525           8.00        26.16
  235.07        2972.25           1528           0.00         2.00
  235.09        2972.50           1531           8.00        26.16
  235.12        2972.75           1535           3.00         4.36
  235.15        2973.00           1538           8.00        26.16
  235.18        2973.25           1541           0.00         2.00
  235.20        2973.50           1545           0.00         2.00
  235.23        2973.75           1548           0.00         2.00
  235.26        2974.00           1551           4.00         8.72
  235.28        2974.25           1555           8.00        26.16
  235.31        2974.50           1558           1.00         2.00
  235.34        2974.75           1561           0.00         2.00
  235.37        2975.00           1565           0.00         2.00
  235.39        2975.25           1568           8.00        26.16
  235.42        2975.50           1571           8.00        26.16
  235.45        2975.75           1575           2.00         2.00
  235.47        2976.00           1578           6.00        17.44
  235.50        2976.25           1581           8.00        26.16
  235.53        2976.50           1585           8.00        26.16
  235.55        2976.75           1588           5.00        13.08
  235.58        2977.00           1591           2.00         2.00
  235.61        2977.25           1595           4.00         8.72
  235.64        2977.50           1598           0.00         2.00
  235.66        2977.75           1601           2.00         2.00
  235.69        2978.00           1605           8.00        26.16
  235.72        2978.25           1608           8.00        26.16
  235.75        2978.50           1611           0.00         2.00
  235.77        2978.75           1615           1.00         2.00
  235.80        2979.00           1618           3.00         4.36
  235.83        2979.25           1621           0.00         2.00
  235.85        2979.50           1625           0.00         2.00
  235.88        2979.75           1628           7.00        21.80
  235.91        2980.00           1631           4.00         8.72
  235.93        2980.25           1635           6.00        17.44
  235.96        2980.50           1638           2.00         2.00
  235.99        2980.75           1641           8.00        26.16
  236.02        2981.00           1645           5.00        13.08
  236.04        2981.25           1648           8.00        26.16
  236.07        2981.50           1651           0.00         2.00
  236.10        2981.75           1655           5.00        13.08
  236.12        2982.00           1658           8.00        26.16
  236.15        2982.25           1661           6.00        17.44
  236.18        2982.50           1665           7.00        21.80
  236.21        2982.75           1668           5.00        13.08
  236.23        2983.00           1671           8.00        26.16
  236.26        2983.25           1675           8.00        26.16
  236.29        2983.50           1678           3.00         4.36
  236.31        2983.75           1681           4.00         8.72
  236.34        2984.00           1685           0.00         2.00
HS scan finished at 03:56:32
end
