************************************************************
  HS Scan of (1) Internal mercury lamp
************************************************************
Integration time is 0.2294 seconds per sample
dh180217Tamanrasset 22.79-5.529 2.705615pr865
************************************************************
Dead Time -------------------------  2.8E-08 
Number of Cycles Used -------------  4 
Starting Wavelength (Angstroms) ---  2950 
Final Wavelength (Angstoms) -------  2984 
Wavelength Increment (Angstroms) --  .25 
Filter Wheel #1 Position ---------- (1) Ground quartz diffuser (ND=2.32)
Filter Wheel #2 Position ---------- (1) Neutral Density 0.494



************************************************************
HS scan start time = 03:51:16
Dark Count =  2.9 


Time (GMT)  Wavelength (Ang)  Step Number  Raw Counts  Counts/Second

  231.62        2950.00           1233           8.00        22.23
  231.69        2950.25           1236           2.00         2.00
  231.71        2950.50           1239           6.00        13.51
  231.74        2950.75           1242           8.00        22.23
  231.77        2951.00           1246           5.00         9.15
  231.79        2951.25           1249           7.00        17.87
  231.82        2951.50           1252           8.00        22.23
  231.85        2951.75           1256           3.00         2.00
  231.88        2952.00           1259           0.00         2.00
  231.90        2952.25           1262           7.00        17.87
  231.93        2952.50           1266           0.00         2.00
  231.96        2952.75           1269           8.00        22.23
  231.98        2953.00           1272           0.00         2.00
  232.01        2953.25           1276           8.00        22.23
  232.04        2953.50           1279           8.00        22.23
  232.07        2953.75           1282           8.00        22.23
  232.09        2954.00           1286           5.00         9.15
  232.12        2954.25           1289           8.00        22.23
  232.15        2954.50           1292           8.00        22.23
  232.17        2954.75           1295           8.00        22.23
  232.20        2955.00           1299           4.00         4.80
  232.23        2955.25           1302           4.00         4.80
  232.26        2955.50           1305           0.00         2.00
  232.28        2955.75           1309           4.00         4.80
  232.31        2956.00           1312           2.00         2.00
  232.34        2956.25           1315           8.00        22.23
  232.36        2956.50           1319           8.00        22.23
  232.39        2956.75           1322           0.00         2.00
  232.42        2957.00           1325           2.00         2.00
  232.45        2957.25           1329           2.00         2.00
  232.47        2957.50           1332           4.00         4.80
  232.50        2957.75           1335           4.00         4.80
  232.53        2958.00           1339           4.00         4.80
  232.55        2958.25           1342           0.00         2.00
  232.58        2958.50           1345           8.00        22.23
  232.61        2958.75           1348           2.00         2.00
  232.63        2959.00           1352           4.00         4.80
  232.66        2959.25           1355           3.00         2.00
  232.69        2959.50           1358           8.00        22.23
  232.72        2959.75           1362           8.00        22.23
  232.74        2960.00           1365           1.00         2.00
  232.77        2960.25           1368           8.00        22.23
  232.80        2960.50           1372           0.00         2.00
  232.82        2960.75           1375           5.00         9.15
  232.85        2961.00           1378           4.00         4.80
  232.88        2961.25           1382           1.00         2.00
  232.91        2961.50           1385           8.00        22.23
  232.93        2961.75           1388           5.00         9.15
  232.96        2962.00           1392           4.00         4.80
  232.99        2962.25           1395           4.00         4.80
  233.01        2962.50           1398           7.00        17.87
  233.04        2962.75           1402           7.00        17.87
  233.07        2963.00           1405           5.00         9.15
  233.10        2963.25           1408           0.00         2.00
  233.12        2963.50           1412           0.00         2.00
  233.15        2963.75           1415           0.00         2.00
  233.18        2964.00           1418           1.00         2.00
  233.20        2964.25           1422           0.00         2.00
  233.23        2964.50           1425           2.00         2.00
  233.26        2964.75           1428           2.00         2.00
  233.29        2965.00           1431           8.00        22.23
  233.31        2965.25           1435           3.00         2.00
  233.34        2965.50           1438           1.00         2.00
  233.37        2965.75           1441           4.00         4.80
  233.39        2966.00           1445           2.00         2.00
  233.42        2966.25           1448           0.00         2.00
  233.45        2966.50           1451           8.00        22.23
  233.47        2966.75           1455           0.00         2.00
  233.50        2967.00           1458           8.00        22.23
  233.53        2967.25           1461           8.00        22.23
  233.56        2967.50           1465           1.00         2.00
  233.58        2967.75           1468           0.00         2.00
  233.61        2968.00           1471           0.00         2.00
  233.64        2968.25           1475           0.00         2.00
  233.66        2968.50           1478           0.00         2.00
  233.69        2968.75           1481           6.00        13.51
  233.72        2969.00           1485           8.00        22.23
  233.74        2969.25           1488           8.00        22.23
  233.77        2969.50           1491           8.00        22.23
  233.80        2969.75           1495           0.00         2.00
  233.83        2970.00           1498           0.00         2.00
  233.85        2970.25           1501           8.00        22.23
  233.88        2970.50           1505           8.00        22.23
  233.91        2970.75           1508           4.00         4.80
  233.94        2971.00           1511           1.00         2.00
  233.96        2971.25           1515           0.00         2.00
  233.99        2971.50           1518           1.00         2.00
  234.02        2971.75           1521           8.00        22.23
  234.04        2972.00           1525           8.00        22.23
  234.07        2972.25           1528           0.00         2.00
  234.10        2972.50           1531           0.00         2.00
  234.13        2972.75           1535           0.00         2.00
  234.15        2973.00           1538           8.00        22.23
  234.18        2973.25           1541           8.00        22.23
  234.21        2973.50           1545           2.00         2.00
  234.23        2973.75           1548           7.00        17.87
  234.26        2974.00           1551           3.00         2.00
  234.29        2974.25           1555           2.00         2.00
  234.31        2974.50           1558           8.00        22.23
  234.34        2974.75           1561           4.00         4.80
  234.37        2975.00           1565           0.00         2.00
  234.40        2975.25           1568           5.00         9.15
  234.42        2975.50           1571           7.00        17.87
  234.45        2975.75           1575           0.00         2.00
  234.48        2976.00           1578           8.00        22.23
  234.50        2976.25           1581           8.00        22.23
  234.53        2976.50           1585           0.00         2.00
  234.56        2976.75           1588           8.00        22.23
  234.59        2977.00           1591           8.00        22.23
  234.61        2977.25           1595           8.00        22.23
  234.64        2977.50           1598           8.00        22.23
  234.67        2977.75           1601           0.00         2.00
  234.70        2978.00           1605           0.00         2.00
  234.72        2978.25           1608           7.00        17.87
  234.75        2978.50           1611           0.00         2.00
  234.78        2978.75           1615           5.00         9.15
  234.80        2979.00           1618           2.00         2.00
  234.83        2979.25           1621           6.00        13.51
  234.86        2979.50           1625           5.00         9.15
  234.89        2979.75           1628           8.00        22.23
  234.91        2980.00           1631           0.00         2.00
  234.94        2980.25           1635           0.00         2.00
  234.97        2980.50           1638           8.00        22.23
  234.99        2980.75           1641           2.00         2.00
  235.02        2981.00           1645           2.00         2.00
  235.05        2981.25           1648           0.00         2.00
  235.07        2981.50           1651           0.00         2.00
  235.10        2981.75           1655           2.00         2.00
  235.13        2982.00           1658           8.00        22.23
  235.16        2982.25           1661           4.00         4.80
  235.18        2982.50           1665           0.00         2.00
  235.21        2982.75           1668           0.00         2.00
  235.24        2983.00           1671           8.00        22.23
  235.26        2983.25           1675           6.00        13.51
  235.29        2983.50           1678           1.00         2.00
  235.32        2983.75           1681           0.00         2.00
  235.35        2984.00           1685           8.00        22.23
HS scan finished at 03:55:32
end
