************************************************************
  HS Scan of (1) Internal mercury lamp
************************************************************
Integration time is 0.2294 seconds per sample
dh160217Tamanrasset 22.79-5.529 2.715812pr865
************************************************************
Dead Time -------------------------  2.8E-08 
Number of Cycles Used -------------  4 
Starting Wavelength (Angstroms) ---  2950 
Final Wavelength (Angstoms) -------  2984 
Wavelength Increment (Angstroms) --  .25 
Filter Wheel #1 Position ---------- (1) Ground quartz diffuser (ND=2.32)
Filter Wheel #2 Position ---------- (1) Neutral Density 0.494



************************************************************
HS scan start time = 03:53:44
Dark Count =  3.7 


Time (GMT)  Wavelength (Ang)  Step Number  Raw Counts  Counts/Second

  234.09        2950.00           1233           0.00         2.00
  234.16        2950.25           1236           4.00         2.00
  234.18        2950.50           1239           8.00        18.74
  234.21        2950.75           1242           6.00        10.03
  234.24        2951.00           1246           5.00         5.67
  234.26        2951.25           1249           0.00         2.00
  234.29        2951.50           1252           6.00        10.03
  234.32        2951.75           1256           8.00        18.74
  234.35        2952.00           1259           1.00         2.00
  234.37        2952.25           1262           0.00         2.00
  234.40        2952.50           1266           8.00        18.74
  234.43        2952.75           1269           8.00        18.74
  234.45        2953.00           1272           8.00        18.74
  234.48        2953.25           1276           3.00         2.00
  234.51        2953.50           1279           3.00         2.00
  234.54        2953.75           1282           6.00        10.03
  234.56        2954.00           1286           8.00        18.74
  234.59        2954.25           1289           8.00        18.74
  234.62        2954.50           1292           8.00        18.74
  234.64        2954.75           1295           8.00        18.74
  234.67        2955.00           1299           3.00         2.00
  234.70        2955.25           1302           0.00         2.00
  234.72        2955.50           1305           0.00         2.00
  234.75        2955.75           1309           2.00         2.00
  234.78        2956.00           1312           4.00         2.00
  234.81        2956.25           1315           6.00        10.03
  234.83        2956.50           1319           0.00         2.00
  234.86        2956.75           1322           2.00         2.00
  234.89        2957.00           1325           4.00         2.00
  234.91        2957.25           1329           8.00        18.74
  234.94        2957.50           1332           0.00         2.00
  234.97        2957.75           1335           8.00        18.74
  235.00        2958.00           1339           0.00         2.00
  235.02        2958.25           1342           4.00         2.00
  235.05        2958.50           1345           8.00        18.74
  235.08        2958.75           1348           3.00         2.00
  235.10        2959.00           1352           2.00         2.00
  235.13        2959.25           1355           0.00         2.00
  235.16        2959.50           1358           5.00         5.67
  235.19        2959.75           1362           6.00        10.03
  235.21        2960.00           1365           5.00         5.67
  235.24        2960.25           1368           6.00        10.03
  235.27        2960.50           1372           7.00        14.39
  235.29        2960.75           1375           3.00         2.00
  235.32        2961.00           1378           3.00         2.00
  235.35        2961.25           1382           8.00        18.74
  235.38        2961.50           1385           3.00         2.00
  235.40        2961.75           1388           0.00         2.00
  235.43        2962.00           1392           0.00         2.00
  235.46        2962.25           1395           8.00        18.74
  235.48        2962.50           1398           4.00         2.00
  235.51        2962.75           1402           5.00         5.67
  235.54        2963.00           1405           8.00        18.74
  235.57        2963.25           1408           0.00         2.00
  235.59        2963.50           1412           0.00         2.00
  235.62        2963.75           1415           0.00         2.00
  235.65        2964.00           1418           1.00         2.00
  235.67        2964.25           1422           0.00         2.00
  235.70        2964.50           1425           3.00         2.00
  235.73        2964.75           1428           8.00        18.74
  235.76        2965.00           1431           2.00         2.00
  235.78        2965.25           1435           0.00         2.00
  235.81        2965.50           1438           8.00        18.74
  235.84        2965.75           1441           8.00        18.74
  235.86        2966.00           1445           8.00        18.74
  235.89        2966.25           1448           4.00         2.00
  235.92        2966.50           1451           8.00        18.74
  235.95        2966.75           1455           8.00        18.74
  235.97        2967.00           1458           0.00         2.00
  236.00        2967.25           1461           0.00         2.00
  236.03        2967.50           1465           0.00         2.00
  236.05        2967.75           1468           8.00        18.74
  236.08        2968.00           1471           0.00         2.00
  236.11        2968.25           1475           4.00         2.00
  236.13        2968.50           1478           2.00         2.00
  236.16        2968.75           1481           4.00         2.00
  236.19        2969.00           1485           0.00         2.00
  236.22        2969.25           1488           8.00        18.74
  236.24        2969.50           1491           0.00         2.00
  236.27        2969.75           1495           4.00         2.00
  236.30        2970.00           1498           8.00        18.74
  236.32        2970.25           1501           8.00        18.74
  236.35        2970.50           1505           3.00         2.00
  236.38        2970.75           1508           3.00         2.00
  236.41        2971.00           1511           0.00         2.00
  236.43        2971.25           1515           2.00         2.00
  236.46        2971.50           1518           0.00         2.00
  236.49        2971.75           1521           8.00        18.74
  236.51        2972.00           1525           6.00        10.03
  236.54        2972.25           1528           6.00        10.03
  236.57        2972.50           1531           0.00         2.00
  236.60        2972.75           1535           0.00         2.00
  236.62        2973.00           1538           0.00         2.00
  236.65        2973.25           1541           6.00        10.03
  236.68        2973.50           1545           0.00         2.00
  236.70        2973.75           1548           0.00         2.00
  236.73        2974.00           1551           6.00        10.03
  236.76        2974.25           1555           0.00         2.00
  236.79        2974.50           1558           8.00        18.74
  236.81        2974.75           1561           8.00        18.74
  236.84        2975.00           1565           8.00        18.74
  236.87        2975.25           1568           8.00        18.74
  236.89        2975.50           1571           8.00        18.74
  236.92        2975.75           1575           8.00        18.74
  236.95        2976.00           1578           3.00         2.00
  236.98        2976.25           1581           8.00        18.74
  237.00        2976.50           1585           7.00        14.39
  237.03        2976.75           1588           4.00         2.00
  237.06        2977.00           1591           1.00         2.00
  237.08        2977.25           1595           7.00        14.39
  237.11        2977.50           1598           5.00         5.67
  237.14        2977.75           1601           0.00         2.00
  237.16        2978.00           1605           7.00        14.39
  237.19        2978.25           1608           8.00        18.74
  237.22        2978.50           1611           1.00         2.00
  237.25        2978.75           1615           7.00        14.39
  237.27        2979.00           1618           4.00         2.00
  237.30        2979.25           1621           6.00        10.03
  237.33        2979.50           1625           7.00        14.39
  237.35        2979.75           1628           8.00        18.74
  237.38        2980.00           1631           2.00         2.00
  237.41        2980.25           1635           8.00        18.74
  237.44        2980.50           1638           6.00        10.03
  237.46        2980.75           1641           8.00        18.74
  237.49        2981.00           1645           0.00         2.00
  237.52        2981.25           1648           8.00        18.74
  237.54        2981.50           1651           0.00         2.00
  237.57        2981.75           1655           7.00        14.39
  237.60        2982.00           1658           0.00         2.00
  237.63        2982.25           1661           8.00        18.74
  237.65        2982.50           1665           8.00        18.74
  237.68        2982.75           1668           0.00         2.00
  237.71        2983.00           1671           1.00         2.00
  237.73        2983.25           1675           8.00        18.74
  237.76        2983.50           1678           8.00        18.74
  237.79        2983.75           1681           8.00        18.74
  237.82        2984.00           1685           1.00         2.00
HS scan finished at 03:58:00
end
