************************************************************
  HS Scan of (1) Internal mercury lamp
************************************************************
Integration time is 0.2294 seconds per sample
dh110217Tamanrasset 22.79-5.529 2.685222pr865
************************************************************
Dead Time -------------------------  2.8E-08 
Number of Cycles Used -------------  4 
Starting Wavelength (Angstroms) ---  2950 
Final Wavelength (Angstoms) -------  2984 
Wavelength Increment (Angstroms) --  .25 
Filter Wheel #1 Position ---------- (1) Ground quartz diffuser (ND=2.32)
Filter Wheel #2 Position ---------- (1) Neutral Density 0.494



************************************************************
HS scan start time = 03:55:49
Dark Count =  2.2 


Time (GMT)  Wavelength (Ang)  Step Number  Raw Counts  Counts/Second

  236.18        2950.00           1233           8.00        25.28
  236.24        2950.25           1236           6.00        16.56
  236.27        2950.50           1239           0.00         2.00
  236.29        2950.75           1242           2.00         2.00
  236.32        2951.00           1246           1.00         2.00
  236.35        2951.25           1249           0.00         2.00
  236.37        2951.50           1252           0.00         2.00
  236.40        2951.75           1256           4.00         7.85
  236.43        2952.00           1259           8.00        25.28
  236.46        2952.25           1262           8.00        25.28
  236.48        2952.50           1266           5.00        12.21
  236.51        2952.75           1269           2.00         2.00
  236.54        2953.00           1272           4.00         7.85
  236.57        2953.25           1276           3.00         3.49
  236.59        2953.50           1279           8.00        25.28
  236.62        2953.75           1282           2.00         2.00
  236.65        2954.00           1286           4.00         7.85
  236.67        2954.25           1289           4.00         7.85
  236.70        2954.50           1292           6.00        16.56
  236.73        2954.75           1295           4.00         7.85
  236.76        2955.00           1299           5.00        12.21
  236.78        2955.25           1302           7.00        20.92
  236.81        2955.50           1305           8.00        25.28
  236.84        2955.75           1309           6.00        16.56
  236.86        2956.00           1312           2.00         2.00
  236.89        2956.25           1315           5.00        12.21
  236.92        2956.50           1319           0.00         2.00
  236.95        2956.75           1322           5.00        12.21
  236.97        2957.00           1325           8.00        25.28
  237.00        2957.25           1329           8.00        25.28
  237.03        2957.50           1332           6.00        16.56
  237.05        2957.75           1335           1.00         2.00
  237.08        2958.00           1339           8.00        25.28
  237.11        2958.25           1342           3.00         3.49
  237.14        2958.50           1345           6.00        16.56
  237.16        2958.75           1348           0.00         2.00
  237.19        2959.00           1352           1.00         2.00
  237.22        2959.25           1355           7.00        20.92
  237.24        2959.50           1358           0.00         2.00
  237.27        2959.75           1362           0.00         2.00
  237.30        2960.00           1365           3.00         3.49
  237.33        2960.25           1368           3.00         3.49
  237.35        2960.50           1372           0.00         2.00
  237.38        2960.75           1375           4.00         7.85
  237.41        2961.00           1378           4.00         7.85
  237.43        2961.25           1382           8.00        25.28
  237.46        2961.50           1385           0.00         2.00
  237.49        2961.75           1388           8.00        25.28
  237.51        2962.00           1392           1.00         2.00
  237.54        2962.25           1395           8.00        25.28
  237.57        2962.50           1398           6.00        16.56
  237.60        2962.75           1402           9.00        29.64
  237.62        2963.00           1405           4.00         7.85
  237.65        2963.25           1408           6.00        16.56
  237.68        2963.50           1412           0.00         2.00
  237.70        2963.75           1415           0.00         2.00
  237.73        2964.00           1418           2.00         2.00
  237.76        2964.25           1422           0.00         2.00
  237.79        2964.50           1425           0.00         2.00
  237.81        2964.75           1428           8.00        25.28
  237.84        2965.00           1431           2.00         2.00
  237.87        2965.25           1435           8.00        25.28
  237.89        2965.50           1438           6.00        16.56
  237.92        2965.75           1441           7.00        20.92
  237.95        2966.00           1445           4.00         7.85
  237.98        2966.25           1448           8.00        25.28
  238.00        2966.50           1451           6.00        16.56
  238.03        2966.75           1455           0.00         2.00
  238.06        2967.00           1458           8.00        25.28
  238.08        2967.25           1461           4.00         7.85
  238.11        2967.50           1465           1.00         2.00
  238.14        2967.75           1468           8.00        25.28
  238.17        2968.00           1471           1.00         2.00
  238.19        2968.25           1475           3.00         3.49
  238.22        2968.50           1478           0.00         2.00
  238.25        2968.75           1481           8.00        25.28
  238.27        2969.00           1485           8.00        25.28
  238.30        2969.25           1488           0.00         2.00
  238.33        2969.50           1491           3.00         3.49
  238.36        2969.75           1495           4.00         7.85
  238.38        2970.00           1498           8.00        25.28
  238.41        2970.25           1501           8.00        25.28
  238.44        2970.50           1505           7.00        20.92
  238.46        2970.75           1508           6.00        16.56
  238.49        2971.00           1511           5.00        12.21
  238.52        2971.25           1515           0.00         2.00
  238.54        2971.50           1518           0.00         2.00
  238.57        2971.75           1521           0.00         2.00
  238.60        2972.00           1525           8.00        25.28
  238.63        2972.25           1528           6.00        16.56
  238.65        2972.50           1531           8.00        25.28
  238.68        2972.75           1535           6.00        16.56
  238.71        2973.00           1538           8.00        25.28
  238.74        2973.25           1541           0.00         2.00
  238.76        2973.50           1545           0.00         2.00
  238.79        2973.75           1548           4.00         7.85
  238.82        2974.00           1551           2.00         2.00
  238.84        2974.25           1555           8.00        25.28
  238.87        2974.50           1558           3.00         3.49
  238.90        2974.75           1561           6.00        16.56
  238.93        2975.00           1565           7.00        20.92
  238.95        2975.25           1568           1.00         2.00
  238.98        2975.50           1571           0.00         2.00
  239.01        2975.75           1575           7.00        20.92
  239.03        2976.00           1578           0.00         2.00
  239.06        2976.25           1581           0.00         2.00
  239.09        2976.50           1585           8.00        25.28
  239.11        2976.75           1588           1.00         2.00
  239.14        2977.00           1591           8.00        25.28
  239.17        2977.25           1595           1.00         2.00
  239.20        2977.50           1598           1.00         2.00
  239.22        2977.75           1601           7.00        20.92
  239.25        2978.00           1605           8.00        25.28
  239.28        2978.25           1608           2.00         2.00
  239.30        2978.50           1611           0.00         2.00
  239.33        2978.75           1615           3.00         3.49
  239.36        2979.00           1618           0.00         2.00
  239.39        2979.25           1621           0.00         2.00
  239.41        2979.50           1625           6.00        16.56
  239.44        2979.75           1628           4.00         7.85
  239.47        2980.00           1631           1.00         2.00
  239.49        2980.25           1635           4.00         7.85
  239.52        2980.50           1638           0.00         2.00
  239.55        2980.75           1641           0.00         2.00
  239.58        2981.00           1645           0.00         2.00
  239.60        2981.25           1648           4.00         7.85
  239.63        2981.50           1651           8.00        25.28
  239.66        2981.75           1655           8.00        25.28
  239.68        2982.00           1658           2.00         2.00
  239.71        2982.25           1661           8.00        25.28
  239.74        2982.50           1665           1.00         2.00
  239.76        2982.75           1668           5.00        12.21
  239.79        2983.00           1671           1.00         2.00
  239.82        2983.25           1675           8.00        25.28
  239.85        2983.50           1678           0.00         2.00
  239.87        2983.75           1681           8.00        25.28
  239.90        2984.00           1685           1.00         2.00
HS scan finished at 04:00:05
end
