************************************************************
  HS Scan of (1) Internal mercury lamp
************************************************************
Integration time is 0.2294 seconds per sample
dh130217Tamanrasset 22.79-5.529 2.700517pr865
************************************************************
Dead Time -------------------------  2.8E-08 
Number of Cycles Used -------------  4 
Starting Wavelength (Angstroms) ---  2950 
Final Wavelength (Angstoms) -------  2984 
Wavelength Increment (Angstroms) --  .25 
Filter Wheel #1 Position ---------- (1) Ground quartz diffuser (ND=2.32)
Filter Wheel #2 Position ---------- (1) Neutral Density 0.494



************************************************************
HS scan start time = 03:54:47
Dark Count =  3.7 


Time (GMT)  Wavelength (Ang)  Step Number  Raw Counts  Counts/Second

  235.14        2950.00           1233           1.00         2.00
  235.20        2950.25           1236           1.00         2.00
  235.23        2950.50           1239           7.00        14.39
  235.26        2950.75           1242           8.00        18.74
  235.29        2951.00           1246           0.00         2.00
  235.31        2951.25           1249           0.00         2.00
  235.34        2951.50           1252           0.00         2.00
  235.37        2951.75           1256           0.00         2.00
  235.39        2952.00           1259           8.00        18.74
  235.42        2952.25           1262           0.00         2.00
  235.45        2952.50           1266           0.00         2.00
  235.48        2952.75           1269           2.00         2.00
  235.50        2953.00           1272           4.00         2.00
  235.53        2953.25           1276           0.00         2.00
  235.56        2953.50           1279           0.00         2.00
  235.58        2953.75           1282           2.00         2.00
  235.61        2954.00           1286           1.00         2.00
  235.64        2954.25           1289           0.00         2.00
  235.66        2954.50           1292           0.00         2.00
  235.69        2954.75           1295           0.00         2.00
  235.72        2955.00           1299           7.00        14.39
  235.75        2955.25           1302           8.00        18.74
  235.77        2955.50           1305           0.00         2.00
  235.80        2955.75           1309           7.00        14.39
  235.83        2956.00           1312           8.00        18.74
  235.85        2956.25           1315           7.00        14.39
  235.88        2956.50           1319           8.00        18.74
  235.91        2956.75           1322           1.00         2.00
  235.94        2957.00           1325           1.00         2.00
  235.96        2957.25           1329           1.00         2.00
  235.99        2957.50           1332           0.00         2.00
  236.02        2957.75           1335           8.00        18.74
  236.04        2958.00           1339           3.00         2.00
  236.07        2958.25           1342           4.00         2.00
  236.10        2958.50           1345           5.00         5.67
  236.13        2958.75           1348           8.00        18.74
  236.15        2959.00           1352           8.00        18.74
  236.18        2959.25           1355           2.00         2.00
  236.21        2959.50           1358           0.00         2.00
  236.23        2959.75           1362           6.00        10.03
  236.26        2960.00           1365           8.00        18.74
  236.29        2960.25           1368           0.00         2.00
  236.32        2960.50           1372           4.00         2.00
  236.34        2960.75           1375           7.00        14.39
  236.37        2961.00           1378           8.00        18.74
  236.40        2961.25           1382           8.00        18.74
  236.42        2961.50           1385           8.00        18.74
  236.45        2961.75           1388           0.00         2.00
  236.48        2962.00           1392           7.00        14.39
  236.51        2962.25           1395           3.00         2.00
  236.53        2962.50           1398           8.00        18.74
  236.56        2962.75           1402           0.00         2.00
  236.59        2963.00           1405           1.00         2.00
  236.61        2963.25           1408           0.00         2.00
  236.64        2963.50           1412           0.00         2.00
  236.67        2963.75           1415           8.00        18.74
  236.69        2964.00           1418           8.00        18.74
  236.72        2964.25           1422           6.00        10.03
  236.75        2964.50           1425           5.00         5.67
  236.78        2964.75           1428           7.00        14.39
  236.80        2965.00           1431           0.00         2.00
  236.83        2965.25           1435           8.00        18.74
  236.86        2965.50           1438           0.00         2.00
  236.88        2965.75           1441           0.00         2.00
  236.91        2966.00           1445           0.00         2.00
  236.94        2966.25           1448           8.00        18.74
  236.97        2966.50           1451           8.00        18.74
  236.99        2966.75           1455           2.00         2.00
  237.02        2967.00           1458           8.00        18.74
  237.05        2967.25           1461           8.00        18.74
  237.07        2967.50           1465           8.00        18.74
  237.10        2967.75           1468           0.00         2.00
  237.13        2968.00           1471           0.00         2.00
  237.16        2968.25           1475           0.00         2.00
  237.18        2968.50           1478           9.00        23.10
  237.21        2968.75           1481           8.00        18.74
  237.24        2969.00           1485           4.00         2.00
  237.26        2969.25           1488           3.00         2.00
  237.29        2969.50           1491           0.00         2.00
  237.32        2969.75           1495           8.00        18.74
  237.35        2970.00           1498           8.00        18.74
  237.37        2970.25           1501           8.00        18.74
  237.40        2970.50           1505           2.00         2.00
  237.43        2970.75           1508           7.00        14.39
  237.45        2971.00           1511           8.00        18.74
  237.48        2971.25           1515           6.00        10.03
  237.51        2971.50           1518           8.00        18.74
  237.54        2971.75           1521           7.00        14.39
  237.56        2972.00           1525           8.00        18.74
  237.59        2972.25           1528           8.00        18.74
  237.62        2972.50           1531           8.00        18.74
  237.64        2972.75           1535           0.00         2.00
  237.67        2973.00           1538           4.00         2.00
  237.70        2973.25           1541           4.00         2.00
  237.73        2973.50           1545           0.00         2.00
  237.75        2973.75           1548           4.00         2.00
  237.78        2974.00           1551           2.00         2.00
  237.81        2974.25           1555           0.00         2.00
  237.83        2974.50           1558           8.00        18.74
  237.86        2974.75           1561           8.00        18.74
  237.89        2975.00           1565           0.00         2.00
  237.92        2975.25           1568           2.00         2.00
  237.94        2975.50           1571           8.00        18.74
  237.97        2975.75           1575           0.00         2.00
  238.00        2976.00           1578           7.00        14.39
  238.02        2976.25           1581           6.00        10.03
  238.05        2976.50           1585           7.00        14.39
  238.08        2976.75           1588           0.00         2.00
  238.11        2977.00           1591           7.00        14.39
  238.13        2977.25           1595           1.00         2.00
  238.16        2977.50           1598           5.00         5.67
  238.19        2977.75           1601           8.00        18.74
  238.21        2978.00           1605           0.00         2.00
  238.24        2978.25           1608           0.00         2.00
  238.27        2978.50           1611           6.00        10.03
  238.30        2978.75           1615           6.00        10.03
  238.32        2979.00           1618           2.00         2.00
  238.35        2979.25           1621           8.00        18.74
  238.38        2979.50           1625           0.00         2.00
  238.40        2979.75           1628           0.00         2.00
  238.43        2980.00           1631           8.00        18.74
  238.46        2980.25           1635           5.00         5.67
  238.49        2980.50           1638           8.00        18.74
  238.51        2980.75           1641           0.00         2.00
  238.54        2981.00           1645           1.00         2.00
  238.57        2981.25           1648           0.00         2.00
  238.59        2981.50           1651           0.00         2.00
  238.62        2981.75           1655           8.00        18.74
  238.65        2982.00           1658           4.00         2.00
  238.68        2982.25           1661           3.00         2.00
  238.70        2982.50           1665           8.00        18.74
  238.73        2982.75           1668           1.00         2.00
  238.76        2983.00           1671           8.00        18.74
  238.78        2983.25           1675           2.00         2.00
  238.81        2983.50           1678           3.00         2.00
  238.84        2983.75           1681           8.00        18.74
  238.86        2984.00           1685           3.00         2.00
HS scan finished at 03:59:03
end
