************************************************************
  HS Scan of (1) Internal mercury lamp
************************************************************
Integration time is 0.2294 seconds per sample
dh090217Tamanrasset 22.79-5.529 2.675025pr865
************************************************************
Dead Time -------------------------  2.8E-08 
Number of Cycles Used -------------  4 
Starting Wavelength (Angstroms) ---  2950 
Final Wavelength (Angstoms) -------  2984 
Wavelength Increment (Angstroms) --  .25 
Filter Wheel #1 Position ---------- (1) Ground quartz diffuser (ND=2.32)
Filter Wheel #2 Position ---------- (1) Neutral Density 0.494



************************************************************
HS scan start time = 03:56:48
Dark Count =  5.6 


Time (GMT)  Wavelength (Ang)  Step Number  Raw Counts  Counts/Second

  237.16        2950.00           1233           0.00         2.00
  237.22        2950.25           1236           0.00         2.00
  237.25        2950.50           1239           6.00         2.00
  237.28        2950.75           1242           6.00         2.00
  237.31        2951.00           1246           8.00        10.46
  237.33        2951.25           1249           8.00        10.46
  237.36        2951.50           1252           8.00        10.46
  237.39        2951.75           1256           7.00         6.10
  237.41        2952.00           1259           8.00        10.46
  237.44        2952.25           1262           5.00         2.00
  237.47        2952.50           1266           0.00         2.00
  237.50        2952.75           1269           8.00        10.46
  237.52        2953.00           1272           8.00        10.46
  237.55        2953.25           1276           0.00         2.00
  237.58        2953.50           1279           0.00         2.00
  237.60        2953.75           1282           0.00         2.00
  237.63        2954.00           1286           5.00         2.00
  237.66        2954.25           1289           1.00         2.00
  237.68        2954.50           1292           6.00         2.00
  237.71        2954.75           1295           8.00        10.46
  237.74        2955.00           1299           3.00         2.00
  237.77        2955.25           1302           8.00        10.46
  237.79        2955.50           1305           1.00         2.00
  237.82        2955.75           1309           0.00         2.00
  237.85        2956.00           1312           2.00         2.00
  237.87        2956.25           1315           7.00         6.10
  237.90        2956.50           1319           4.00         2.00
  237.93        2956.75           1322           6.00         2.00
  237.96        2957.00           1325           8.00        10.46
  237.98        2957.25           1329           8.00        10.46
  238.01        2957.50           1332           1.00         2.00
  238.04        2957.75           1335           8.00        10.46
  238.06        2958.00           1339           6.00         2.00
  238.09        2958.25           1342           0.00         2.00
  238.12        2958.50           1345           3.00         2.00
  238.15        2958.75           1348           2.00         2.00
  238.17        2959.00           1352           3.00         2.00
  238.20        2959.25           1355           8.00        10.46
  238.23        2959.50           1358           0.00         2.00
  238.25        2959.75           1362           2.00         2.00
  238.28        2960.00           1365           6.00         2.00
  238.31        2960.25           1368           8.00        10.46
  238.33        2960.50           1372           3.00         2.00
  238.36        2960.75           1375           8.00        10.46
  238.39        2961.00           1378           3.00         2.00
  238.42        2961.25           1382           6.00         2.00
  238.44        2961.50           1385           0.00         2.00
  238.47        2961.75           1388           7.00         6.10
  238.50        2962.00           1392           0.00         2.00
  238.52        2962.25           1395           5.00         2.00
  238.55        2962.50           1398           1.00         2.00
  238.58        2962.75           1402           6.00         2.00
  238.61        2963.00           1405           0.00         2.00
  238.63        2963.25           1408           0.00         2.00
  238.66        2963.50           1412           0.00         2.00
  238.69        2963.75           1415           0.00         2.00
  238.71        2964.00           1418           2.00         2.00
  238.74        2964.25           1422           8.00        10.46
  238.77        2964.50           1425           0.00         2.00
  238.80        2964.75           1428           0.00         2.00
  238.82        2965.00           1431           0.00         2.00
  238.85        2965.25           1435           2.00         2.00
  238.88        2965.50           1438           0.00         2.00
  238.90        2965.75           1441           8.00        10.46
  238.93        2966.00           1445           8.00        10.46
  238.96        2966.25           1448           0.00         2.00
  238.98        2966.50           1451           0.00         2.00
  239.01        2966.75           1455           0.00         2.00
  239.04        2967.00           1458           8.00        10.46
  239.07        2967.25           1461           1.00         2.00
  239.09        2967.50           1465           1.00         2.00
  239.12        2967.75           1468           2.00         2.00
  239.15        2968.00           1471           6.00         2.00
  239.18        2968.25           1475           1.00         2.00
  239.20        2968.50           1478           2.00         2.00
  239.23        2968.75           1481           0.00         2.00
  239.26        2969.00           1485           0.00         2.00
  239.28        2969.25           1488           1.00         2.00
  239.31        2969.50           1491           8.00        10.46
  239.34        2969.75           1495           8.00        10.46
  239.36        2970.00           1498           4.00         2.00
  239.39        2970.25           1501           0.00         2.00
  239.42        2970.50           1505           0.00         2.00
  239.45        2970.75           1508           4.00         2.00
  239.47        2971.00           1511           8.00        10.46
  239.50        2971.25           1515           0.00         2.00
  239.53        2971.50           1518           8.00        10.46
  239.55        2971.75           1521           8.00        10.46
  239.58        2972.00           1525           8.00        10.46
  239.61        2972.25           1528           0.00         2.00
  239.64        2972.50           1531           4.00         2.00
  239.66        2972.75           1535           8.00        10.46
  239.69        2973.00           1538           8.00        10.46
  239.72        2973.25           1541           5.00         2.00
  239.74        2973.50           1545           0.00         2.00
  239.77        2973.75           1548           8.00        10.46
  239.80        2974.00           1551           5.00         2.00
  239.83        2974.25           1555           8.00        10.46
  239.85        2974.50           1558           8.00        10.46
  239.88        2974.75           1561           0.00         2.00
  239.91        2975.00           1565           0.00         2.00
  239.93        2975.25           1568           0.00         2.00
  239.96        2975.50           1571           7.00         6.10
  239.99        2975.75           1575           2.00         2.00
  240.02        2976.00           1578           5.00         2.00
  240.04        2976.25           1581           3.00         2.00
  240.07        2976.50           1585           0.00         2.00
  240.10        2976.75           1588           8.00        10.46
  240.12        2977.00           1591           0.00         2.00
  240.15        2977.25           1595           0.00         2.00
  240.18        2977.50           1598           3.00         2.00
  240.20        2977.75           1601           0.00         2.00
  240.23        2978.00           1605           8.00        10.46
  240.26        2978.25           1608           8.00        10.46
  240.29        2978.50           1611           0.00         2.00
  240.31        2978.75           1615           2.00         2.00
  240.34        2979.00           1618           8.00        10.46
  240.37        2979.25           1621           8.00        10.46
  240.40        2979.50           1625           5.00         2.00
  240.42        2979.75           1628           0.00         2.00
  240.45        2980.00           1631           4.00         2.00
  240.48        2980.25           1635           2.00         2.00
  240.50        2980.50           1638           0.00         2.00
  240.53        2980.75           1641           0.00         2.00
  240.56        2981.00           1645           8.00        10.46
  240.58        2981.25           1648           2.00         2.00
  240.61        2981.50           1651           4.00         2.00
  240.64        2981.75           1655           8.00        10.46
  240.67        2982.00           1658           8.00        10.46
  240.69        2982.25           1661           6.00         2.00
  240.72        2982.50           1665           3.00         2.00
  240.75        2982.75           1668           0.00         2.00
  240.77        2983.00           1671           5.00         2.00
  240.80        2983.25           1675           0.00         2.00
  240.83        2983.50           1678           5.00         2.00
  240.86        2983.75           1681           8.00        10.46
  240.88        2984.00           1685           8.00        10.46
HS scan finished at 04:01:04
end
