************************************************************
  HS Scan of (1) Internal mercury lamp
************************************************************
Integration time is 0.2294 seconds per sample
dh120217Tamanrasset 22.79-5.529 2.69032pr865
************************************************************
Dead Time -------------------------  2.8E-08 
Number of Cycles Used -------------  4 
Starting Wavelength (Angstroms) ---  2950 
Final Wavelength (Angstoms) -------  2984 
Wavelength Increment (Angstroms) --  .25 
Filter Wheel #1 Position ---------- (1) Ground quartz diffuser (ND=2.32)
Filter Wheel #2 Position ---------- (1) Neutral Density 0.494



************************************************************
HS scan start time = 03:54:47
Dark Count =  4 


Time (GMT)  Wavelength (Ang)  Step Number  Raw Counts  Counts/Second

  235.15        2950.00           1233           8.00        17.44
  235.21        2950.25           1236           3.00         2.00
  235.24        2950.50           1239           0.00         2.00
  235.27        2950.75           1242           5.00         4.36
  235.29        2951.00           1246           8.00        17.44
  235.32        2951.25           1249           2.00         2.00
  235.35        2951.50           1252           1.00         2.00
  235.37        2951.75           1256           6.00         8.72
  235.40        2952.00           1259           1.00         2.00
  235.43        2952.25           1262           3.00         2.00
  235.46        2952.50           1266           8.00        17.44
  235.48        2952.75           1269           1.00         2.00
  235.51        2953.00           1272           4.00         2.00
  235.54        2953.25           1276           8.00        17.44
  235.56        2953.50           1279           0.00         2.00
  235.59        2953.75           1282           1.00         2.00
  235.62        2954.00           1286           8.00        17.44
  235.64        2954.25           1289           3.00         2.00
  235.67        2954.50           1292           6.00         8.72
  235.70        2954.75           1295           8.00        17.44
  235.73        2955.00           1299           4.00         2.00
  235.75        2955.25           1302           0.00         2.00
  235.78        2955.50           1305           5.00         4.36
  235.81        2955.75           1309           8.00        17.44
  235.83        2956.00           1312           0.00         2.00
  235.86        2956.25           1315           0.00         2.00
  235.89        2956.50           1319           2.00         2.00
  235.92        2956.75           1322           3.00         2.00
  235.94        2957.00           1325           8.00        17.44
  235.97        2957.25           1329           0.00         2.00
  236.00        2957.50           1332           2.00         2.00
  236.02        2957.75           1335           8.00        17.44
  236.05        2958.00           1339           8.00        17.44
  236.08        2958.25           1342           7.00        13.08
  236.11        2958.50           1345           8.00        17.44
  236.13        2958.75           1348           0.00         2.00
  236.16        2959.00           1352           8.00        17.44
  236.19        2959.25           1355           0.00         2.00
  236.21        2959.50           1358           8.00        17.44
  236.24        2959.75           1362           0.00         2.00
  236.27        2960.00           1365           0.00         2.00
  236.30        2960.25           1368           8.00        17.44
  236.32        2960.50           1372           8.00        17.44
  236.35        2960.75           1375           8.00        17.44
  236.38        2961.00           1378           8.00        17.44
  236.40        2961.25           1382           2.00         2.00
  236.43        2961.50           1385           8.00        17.44
  236.46        2961.75           1388           8.00        17.44
  236.49        2962.00           1392           8.00        17.44
  236.51        2962.25           1395           7.00        13.08
  236.54        2962.50           1398           8.00        17.44
  236.57        2962.75           1402           3.00         2.00
  236.59        2963.00           1405           8.00        17.44
  236.62        2963.25           1408           5.00         4.36
  236.65        2963.50           1412           8.00        17.44
  236.67        2963.75           1415           8.00        17.44
  236.70        2964.00           1418           8.00        17.44
  236.73        2964.25           1422           5.00         4.36
  236.76        2964.50           1425           8.00        17.44
  236.78        2964.75           1428           8.00        17.44
  236.81        2965.00           1431           0.00         2.00
  236.84        2965.25           1435           7.00        13.08
  236.86        2965.50           1438           8.00        17.44
  236.89        2965.75           1441           1.00         2.00
  236.92        2966.00           1445           6.00         8.72
  236.95        2966.25           1448           3.00         2.00
  236.97        2966.50           1451           0.00         2.00
  237.00        2966.75           1455           6.00         8.72
  237.03        2967.00           1458           6.00         8.72
  237.05        2967.25           1461           0.00         2.00
  237.08        2967.50           1465           8.00        17.44
  237.11        2967.75           1468           0.00         2.00
  237.14        2968.00           1471           6.00         8.72
  237.16        2968.25           1475           8.00        17.44
  237.19        2968.50           1478           5.00         4.36
  237.22        2968.75           1481           2.00         2.00
  237.24        2969.00           1485           0.00         2.00
  237.27        2969.25           1488           0.00         2.00
  237.30        2969.50           1491           8.00        17.44
  237.33        2969.75           1495           0.00         2.00
  237.35        2970.00           1498           8.00        17.44
  237.38        2970.25           1501           4.00         2.00
  237.41        2970.50           1505           8.00        17.44
  237.43        2970.75           1508           1.00         2.00
  237.46        2971.00           1511           7.00        13.08
  237.49        2971.25           1515           0.00         2.00
  237.52        2971.50           1518           4.00         2.00
  237.54        2971.75           1521           8.00        17.44
  237.57        2972.00           1525           8.00        17.44
  237.60        2972.25           1528           0.00         2.00
  237.62        2972.50           1531           2.00         2.00
  237.65        2972.75           1535           5.00         4.36
  237.68        2973.00           1538           0.00         2.00
  237.70        2973.25           1541           8.00        17.44
  237.73        2973.50           1545           3.00         2.00
  237.76        2973.75           1548           3.00         2.00
  237.79        2974.00           1551           8.00        17.44
  237.81        2974.25           1555           6.00         8.72
  237.84        2974.50           1558           8.00        17.44
  237.87        2974.75           1561           8.00        17.44
  237.89        2975.00           1565           2.00         2.00
  237.92        2975.25           1568           8.00        17.44
  237.95        2975.50           1571           7.00        13.08
  237.98        2975.75           1575           1.00         2.00
  238.00        2976.00           1578           6.00         8.72
  238.03        2976.25           1581           8.00        17.44
  238.06        2976.50           1585           8.00        17.44
  238.08        2976.75           1588           3.00         2.00
  238.11        2977.00           1591           0.00         2.00
  238.14        2977.25           1595           0.00         2.00
  238.17        2977.50           1598           3.00         2.00
  238.19        2977.75           1601           8.00        17.44
  238.22        2978.00           1605           2.00         2.00
  238.25        2978.25           1608           0.00         2.00
  238.27        2978.50           1611           8.00        17.44
  238.30        2978.75           1615           6.00         8.72
  238.33        2979.00           1618           0.00         2.00
  238.36        2979.25           1621           0.00         2.00
  238.38        2979.50           1625           6.00         8.72
  238.41        2979.75           1628           6.00         8.72
  238.44        2980.00           1631           8.00        17.44
  238.46        2980.25           1635           4.00         2.00
  238.49        2980.50           1638           8.00        17.44
  238.52        2980.75           1641           4.00         2.00
  238.55        2981.00           1645           0.00         2.00
  238.57        2981.25           1648           0.00         2.00
  238.60        2981.50           1651           6.00         8.72
  238.63        2981.75           1655           0.00         2.00
  238.65        2982.00           1658           2.00         2.00
  238.68        2982.25           1661           5.00         4.36
  238.71        2982.50           1665           7.00        13.08
  238.74        2982.75           1668           2.00         2.00
  238.76        2983.00           1671           6.00         8.72
  238.79        2983.25           1675           8.00        17.44
  238.82        2983.50           1678           7.00        13.08
  238.84        2983.75           1681           8.00        17.44
  238.87        2984.00           1685           8.00        17.44
HS scan finished at 03:59:03
end
