************************************************************
  HS Scan of (1) Internal mercury lamp
************************************************************
Integration time is 0.2294 seconds per sample
dh150217Tamanrasset 22.79-5.529 2.715812pr865
************************************************************
Dead Time -------------------------  2.8E-08 
Number of Cycles Used -------------  4 
Starting Wavelength (Angstroms) ---  2950 
Final Wavelength (Angstoms) -------  2984 
Wavelength Increment (Angstroms) --  .25 
Filter Wheel #1 Position ---------- (1) Ground quartz diffuser (ND=2.32)
Filter Wheel #2 Position ---------- (1) Neutral Density 0.494



************************************************************
HS scan start time = 03:52:48
Dark Count =  5.3 


Time (GMT)  Wavelength (Ang)  Step Number  Raw Counts  Counts/Second

  233.16        2950.00           1233           8.00        11.77
  233.22        2950.25           1236           0.00         2.00
  233.25        2950.50           1239           8.00        11.77
  233.27        2950.75           1242           4.00         2.00
  233.30        2951.00           1246           0.00         2.00
  233.33        2951.25           1249           8.00        11.77
  233.36        2951.50           1252           8.00        11.77
  233.38        2951.75           1256           5.00         2.00
  233.41        2952.00           1259           8.00        11.77
  233.44        2952.25           1262           8.00        11.77
  233.46        2952.50           1266           1.00         2.00
  233.49        2952.75           1269           8.00        11.77
  233.52        2953.00           1272           9.00        16.13
  233.55        2953.25           1276           3.00         2.00
  233.57        2953.50           1279           0.00         2.00
  233.60        2953.75           1282           8.00        11.77
  233.63        2954.00           1286           5.00         2.00
  233.65        2954.25           1289           4.00         2.00
  233.68        2954.50           1292           0.00         2.00
  233.71        2954.75           1295           7.00         7.41
  233.73        2955.00           1299           8.00        11.77
  233.76        2955.25           1302           3.00         2.00
  233.79        2955.50           1305           8.00        11.77
  233.82        2955.75           1309           7.00         7.41
  233.84        2956.00           1312           8.00        11.77
  233.87        2956.25           1315           3.00         2.00
  233.90        2956.50           1319           0.00         2.00
  233.92        2956.75           1322           0.00         2.00
  233.95        2957.00           1325           0.00         2.00
  233.98        2957.25           1329           8.00        11.77
  234.01        2957.50           1332           5.00         2.00
  234.03        2957.75           1335           5.00         2.00
  234.06        2958.00           1339           8.00        11.77
  234.09        2958.25           1342           6.00         3.05
  234.11        2958.50           1345           0.00         2.00
  234.14        2958.75           1348           8.00        11.77
  234.17        2959.00           1352           8.00        11.77
  234.20        2959.25           1355           5.00         2.00
  234.22        2959.50           1358           6.00         3.05
  234.25        2959.75           1362           2.00         2.00
  234.28        2960.00           1365           5.00         2.00
  234.30        2960.25           1368           8.00        11.77
  234.33        2960.50           1372           8.00        11.77
  234.36        2960.75           1375           4.00         2.00
  234.39        2961.00           1378           5.00         2.00
  234.41        2961.25           1382           3.00         2.00
  234.44        2961.50           1385           6.00         3.05
  234.47        2961.75           1388           8.00        11.77
  234.49        2962.00           1392           0.00         2.00
  234.52        2962.25           1395           8.00        11.77
  234.55        2962.50           1398           3.00         2.00
  234.58        2962.75           1402           5.00         2.00
  234.60        2963.00           1405           0.00         2.00
  234.63        2963.25           1408           4.00         2.00
  234.66        2963.50           1412           8.00        11.77
  234.68        2963.75           1415           3.00         2.00
  234.71        2964.00           1418           6.00         3.05
  234.74        2964.25           1422           7.00         7.41
  234.77        2964.50           1425           8.00        11.77
  234.79        2964.75           1428           0.00         2.00
  234.82        2965.00           1431           8.00        11.77
  234.85        2965.25           1435           0.00         2.00
  234.87        2965.50           1438           6.00         3.05
  234.90        2965.75           1441           2.00         2.00
  234.93        2966.00           1445           8.00        11.77
  234.96        2966.25           1448           3.00         2.00
  234.98        2966.50           1451           2.00         2.00
  235.01        2966.75           1455           8.00        11.77
  235.04        2967.00           1458           0.00         2.00
  235.06        2967.25           1461           0.00         2.00
  235.09        2967.50           1465           0.00         2.00
  235.12        2967.75           1468           8.00        11.77
  235.15        2968.00           1471           5.00         2.00
  235.17        2968.25           1475           3.00         2.00
  235.20        2968.50           1478           4.00         2.00
  235.23        2968.75           1481           1.00         2.00
  235.25        2969.00           1485           0.00         2.00
  235.28        2969.25           1488           0.00         2.00
  235.31        2969.50           1491           0.00         2.00
  235.33        2969.75           1495           8.00        11.77
  235.36        2970.00           1498           5.00         2.00
  235.39        2970.25           1501           0.00         2.00
  235.42        2970.50           1505           0.00         2.00
  235.44        2970.75           1508           8.00        11.77
  235.47        2971.00           1511           0.00         2.00
  235.50        2971.25           1515           6.00         3.05
  235.52        2971.50           1518           0.00         2.00
  235.55        2971.75           1521           5.00         2.00
  235.58        2972.00           1525           8.00        11.77
  235.61        2972.25           1528           6.00         3.05
  235.63        2972.50           1531           8.00        11.77
  235.66        2972.75           1535           8.00        11.77
  235.69        2973.00           1538           2.00         2.00
  235.71        2973.25           1541           6.00         3.05
  235.74        2973.50           1545           8.00        11.77
  235.77        2973.75           1548           8.00        11.77
  235.80        2974.00           1551           3.00         2.00
  235.82        2974.25           1555           3.00         2.00
  235.85        2974.50           1558           8.00        11.77
  235.88        2974.75           1561           0.00         2.00
  235.90        2975.00           1565           8.00        11.77
  235.93        2975.25           1568           8.00        11.77
  235.96        2975.50           1571           2.00         2.00
  235.99        2975.75           1575           8.00        11.77
  236.01        2976.00           1578           7.00         7.41
  236.04        2976.25           1581           1.00         2.00
  236.07        2976.50           1585           0.00         2.00
  236.09        2976.75           1588           3.00         2.00
  236.12        2977.00           1591           8.00        11.77
  236.15        2977.25           1595           7.00         7.41
  236.18        2977.50           1598           8.00        11.77
  236.20        2977.75           1601           5.00         2.00
  236.23        2978.00           1605           2.00         2.00
  236.26        2978.25           1608           3.00         2.00
  236.28        2978.50           1611           0.00         2.00
  236.31        2978.75           1615           0.00         2.00
  236.34        2979.00           1618           8.00        11.77
  236.36        2979.25           1621           8.00        11.77
  236.39        2979.50           1625           3.00         2.00
  236.42        2979.75           1628           0.00         2.00
  236.45        2980.00           1631           8.00        11.77
  236.47        2980.25           1635           5.00         2.00
  236.50        2980.50           1638           8.00        11.77
  236.53        2980.75           1641           2.00         2.00
  236.55        2981.00           1645           6.00         3.05
  236.58        2981.25           1648           0.00         2.00
  236.61        2981.50           1651           0.00         2.00
  236.64        2981.75           1655           8.00        11.77
  236.66        2982.00           1658           8.00        11.77
  236.69        2982.25           1661           8.00        11.77
  236.72        2982.50           1665           8.00        11.77
  236.74        2982.75           1668           8.00        11.77
  236.77        2983.00           1671           2.00         2.00
  236.80        2983.25           1675           4.00         2.00
  236.83        2983.50           1678           1.00         2.00
  236.85        2983.75           1681           0.00         2.00
  236.88        2984.00           1685           8.00        11.77
HS scan finished at 03:57:04
end
