************************************************************
  HS Scan of (1) Internal mercury lamp
************************************************************
Integration time is 0.2294 seconds per sample
dh140217Tamanrasset 22.79-5.529 2.710714pr865
************************************************************
Dead Time -------------------------  2.8E-08 
Number of Cycles Used -------------  4 
Starting Wavelength (Angstroms) ---  2950 
Final Wavelength (Angstoms) -------  2984 
Wavelength Increment (Angstroms) --  .25 
Filter Wheel #1 Position ---------- (1) Ground quartz diffuser (ND=2.32)
Filter Wheel #2 Position ---------- (1) Neutral Density 0.494



************************************************************
HS scan start time = 03:53:48
Dark Count =  4.8 


Time (GMT)  Wavelength (Ang)  Step Number  Raw Counts  Counts/Second

  234.15        2950.00           1233           0.00         2.00
  234.21        2950.25           1236           8.00        13.95
  234.24        2950.50           1239           8.00        13.95
  234.27        2950.75           1242           0.00         2.00
  234.30        2951.00           1246           8.00        13.95
  234.32        2951.25           1249           8.00        13.95
  234.35        2951.50           1252           9.00        18.31
  234.38        2951.75           1256           1.00         2.00
  234.41        2952.00           1259           0.00         2.00
  234.43        2952.25           1262           0.00         2.00
  234.46        2952.50           1266           8.00        13.95
  234.49        2952.75           1269           3.00         2.00
  234.51        2953.00           1272           7.00         9.59
  234.54        2953.25           1276           1.00         2.00
  234.57        2953.50           1279           5.00         2.00
  234.60        2953.75           1282           8.00        13.95
  234.62        2954.00           1286           8.00        13.95
  234.65        2954.25           1289           0.00         2.00
  234.68        2954.50           1292           8.00        13.95
  234.70        2954.75           1295           5.00         2.00
  234.73        2955.00           1299           6.00         5.23
  234.76        2955.25           1302           5.00         2.00
  234.78        2955.50           1305           3.00         2.00
  234.81        2955.75           1309           2.00         2.00
  234.84        2956.00           1312           3.00         2.00
  234.87        2956.25           1315           4.00         2.00
  234.89        2956.50           1319           2.00         2.00
  234.92        2956.75           1322           7.00         9.59
  234.95        2957.00           1325           8.00        13.95
  234.97        2957.25           1329           7.00         9.59
  235.00        2957.50           1332           8.00        13.95
  235.03        2957.75           1335           0.00         2.00
  235.06        2958.00           1339           3.00         2.00
  235.08        2958.25           1342           8.00        13.95
  235.11        2958.50           1345           6.00         5.23
  235.14        2958.75           1348           8.00        13.95
  235.17        2959.00           1352           0.00         2.00
  235.19        2959.25           1355           0.00         2.00
  235.22        2959.50           1358           3.00         2.00
  235.25        2959.75           1362           6.00         5.23
  235.27        2960.00           1365           8.00        13.95
  235.30        2960.25           1368           2.00         2.00
  235.33        2960.50           1372           0.00         2.00
  235.36        2960.75           1375           0.00         2.00
  235.38        2961.00           1378           0.00         2.00
  235.41        2961.25           1382           0.00         2.00
  235.44        2961.50           1385           8.00        13.95
  235.46        2961.75           1388           4.00         2.00
  235.49        2962.00           1392           5.00         2.00
  235.52        2962.25           1395           8.00        13.95
  235.55        2962.50           1398           8.00        13.95
  235.57        2962.75           1402           8.00        13.95
  235.60        2963.00           1405           6.00         5.23
  235.63        2963.25           1408           0.00         2.00
  235.65        2963.50           1412           3.00         2.00
  235.68        2963.75           1415           3.00         2.00
  235.71        2964.00           1418           8.00        13.95
  235.74        2964.25           1422           4.00         2.00
  235.76        2964.50           1425           0.00         2.00
  235.79        2964.75           1428           8.00        13.95
  235.82        2965.00           1431           8.00        13.95
  235.84        2965.25           1435           8.00        13.95
  235.87        2965.50           1438           0.00         2.00
  235.90        2965.75           1441           8.00        13.95
  235.93        2966.00           1445           8.00        13.95
  235.95        2966.25           1448           0.00         2.00
  235.98        2966.50           1451           6.00         5.23
  236.01        2966.75           1455           0.00         2.00
  236.03        2967.00           1458           5.00         2.00
  236.06        2967.25           1461           0.00         2.00
  236.09        2967.50           1465           7.00         9.59
  236.12        2967.75           1468           3.00         2.00
  236.14        2968.00           1471           8.00        13.95
  236.17        2968.25           1475           6.00         5.23
  236.20        2968.50           1478           8.00        13.95
  236.22        2968.75           1481           0.00         2.00
  236.25        2969.00           1485           4.00         2.00
  236.28        2969.25           1488           0.00         2.00
  236.31        2969.50           1491           0.00         2.00
  236.33        2969.75           1495           6.00         5.23
  236.36        2970.00           1498           7.00         9.59
  236.39        2970.25           1501           3.00         2.00
  236.41        2970.50           1505           7.00         9.59
  236.44        2970.75           1508           0.00         2.00
  236.47        2971.00           1511           4.00         2.00
  236.50        2971.25           1515           8.00        13.95
  236.52        2971.50           1518           7.00         9.59
  236.55        2971.75           1521           4.00         2.00
  236.58        2972.00           1525           0.00         2.00
  236.60        2972.25           1528           8.00        13.95
  236.63        2972.50           1531           1.00         2.00
  236.66        2972.75           1535           1.00         2.00
  236.68        2973.00           1538           8.00        13.95
  236.71        2973.25           1541           0.00         2.00
  236.74        2973.50           1545           0.00         2.00
  236.77        2973.75           1548           7.00         9.59
  236.79        2974.00           1551           8.00        13.95
  236.82        2974.25           1555           0.00         2.00
  236.85        2974.50           1558           0.00         2.00
  236.87        2974.75           1561           5.00         2.00
  236.90        2975.00           1565           0.00         2.00
  236.93        2975.25           1568           0.00         2.00
  236.96        2975.50           1571           0.00         2.00
  236.98        2975.75           1575           5.00         2.00
  237.01        2976.00           1578           5.00         2.00
  237.04        2976.25           1581           3.00         2.00
  237.06        2976.50           1585           8.00        13.95
  237.09        2976.75           1588           0.00         2.00
  237.12        2977.00           1591           0.00         2.00
  237.15        2977.25           1595           1.00         2.00
  237.17        2977.50           1598           1.00         2.00
  237.20        2977.75           1601           8.00        13.95
  237.23        2978.00           1605           1.00         2.00
  237.25        2978.25           1608           5.00         2.00
  237.28        2978.50           1611           4.00         2.00
  237.31        2978.75           1615           0.00         2.00
  237.34        2979.00           1618           5.00         2.00
  237.36        2979.25           1621           2.00         2.00
  237.39        2979.50           1625           6.00         5.23
  237.42        2979.75           1628           0.00         2.00
  237.44        2980.00           1631           8.00        13.95
  237.47        2980.25           1635           2.00         2.00
  237.50        2980.50           1638           8.00        13.95
  237.52        2980.75           1641           8.00        13.95
  237.55        2981.00           1645           3.00         2.00
  237.58        2981.25           1648           8.00        13.95
  237.61        2981.50           1651           8.00        13.95
  237.63        2981.75           1655           0.00         2.00
  237.66        2982.00           1658           7.00         9.59
  237.69        2982.25           1661           6.00         5.23
  237.71        2982.50           1665           0.00         2.00
  237.74        2982.75           1668           2.00         2.00
  237.77        2983.00           1671           0.00         2.00
  237.80        2983.25           1675           1.00         2.00
  237.82        2983.50           1678           5.00         2.00
  237.85        2983.75           1681           5.00         2.00
  237.88        2984.00           1685           0.00         2.00
HS scan finished at 03:58:04
end
