************************************************************
  HS Scan of (1) Internal mercury lamp
************************************************************
Integration time is 0.2294 seconds per sample
dh210217Tamanrasset 22.79-5.529 2.746401pr865
************************************************************
Dead Time -------------------------  2.8E-08 
Number of Cycles Used -------------  4 
Starting Wavelength (Angstroms) ---  2950 
Final Wavelength (Angstoms) -------  2984 
Wavelength Increment (Angstroms) --  .25 
Filter Wheel #1 Position ---------- (1) Ground quartz diffuser (ND=2.32)
Filter Wheel #2 Position ---------- (1) Neutral Density 0.494



************************************************************
HS scan start time = 03:49:15
Dark Count =  5.8 


Time (GMT)  Wavelength (Ang)  Step Number  Raw Counts  Counts/Second

  229.61        2950.00           1233           8.00         9.59
  229.67        2950.25           1236           8.00         9.59
  229.70        2950.50           1239           0.00         2.00
  229.73        2950.75           1242           0.00         2.00
  229.75        2951.00           1246           7.00         5.23
  229.78        2951.25           1249           8.00         9.59
  229.81        2951.50           1252           6.00         2.00
  229.84        2951.75           1256           8.00         9.59
  229.86        2952.00           1259           0.00         2.00
  229.89        2952.25           1262           8.00         9.59
  229.92        2952.50           1266           0.00         2.00
  229.94        2952.75           1269           7.00         5.23
  229.97        2953.00           1272           0.00         2.00
  230.00        2953.25           1276           8.00         9.59
  230.03        2953.50           1279           3.00         2.00
  230.05        2953.75           1282           8.00         9.59
  230.08        2954.00           1286           8.00         9.59
  230.11        2954.25           1289           2.00         2.00
  230.13        2954.50           1292           5.00         2.00
  230.16        2954.75           1295           0.00         2.00
  230.19        2955.00           1299           5.00         2.00
  230.22        2955.25           1302           0.00         2.00
  230.24        2955.50           1305           0.00         2.00
  230.27        2955.75           1309           1.00         2.00
  230.30        2956.00           1312           8.00         9.59
  230.32        2956.25           1315           0.00         2.00
  230.35        2956.50           1319           6.00         2.00
  230.38        2956.75           1322           8.00         9.59
  230.41        2957.00           1325           0.00         2.00
  230.43        2957.25           1329           0.00         2.00
  230.46        2957.50           1332           8.00         9.59
  230.49        2957.75           1335           8.00         9.59
  230.51        2958.00           1339           8.00         9.59
  230.54        2958.25           1342           3.00         2.00
  230.57        2958.50           1345           8.00         9.59
  230.60        2958.75           1348           6.00         2.00
  230.62        2959.00           1352           8.00         9.59
  230.65        2959.25           1355           2.00         2.00
  230.68        2959.50           1358           5.00         2.00
  230.70        2959.75           1362           8.00         9.59
  230.73        2960.00           1365           0.00         2.00
  230.76        2960.25           1368           5.00         2.00
  230.79        2960.50           1372           6.00         2.00
  230.81        2960.75           1375           7.00         5.23
  230.84        2961.00           1378           1.00         2.00
  230.87        2961.25           1382           1.00         2.00
  230.89        2961.50           1385           0.00         2.00
  230.92        2961.75           1388           3.00         2.00
  230.95        2962.00           1392           8.00         9.59
  230.98        2962.25           1395           7.00         5.23
  231.00        2962.50           1398           0.00         2.00
  231.03        2962.75           1402           2.00         2.00
  231.06        2963.00           1405           8.00         9.59
  231.08        2963.25           1408           8.00         9.59
  231.11        2963.50           1412           6.00         2.00
  231.14        2963.75           1415           0.00         2.00
  231.17        2964.00           1418           8.00         9.59
  231.19        2964.25           1422           0.00         2.00
  231.22        2964.50           1425           8.00         9.59
  231.25        2964.75           1428           0.00         2.00
  231.27        2965.00           1431           4.00         2.00
  231.30        2965.25           1435           8.00         9.59
  231.33        2965.50           1438           7.00         5.23
  231.36        2965.75           1441           8.00         9.59
  231.38        2966.00           1445           1.00         2.00
  231.41        2966.25           1448           3.00         2.00
  231.44        2966.50           1451           8.00         9.59
  231.46        2966.75           1455           8.00         9.59
  231.49        2967.00           1458           0.00         2.00
  231.52        2967.25           1461           0.00         2.00
  231.55        2967.50           1465           8.00         9.59
  231.57        2967.75           1468           0.00         2.00
  231.60        2968.00           1471           8.00         9.59
  231.63        2968.25           1475           8.00         9.59
  231.65        2968.50           1478           3.00         2.00
  231.68        2968.75           1481           0.00         2.00
  231.71        2969.00           1485           8.00         9.59
  231.73        2969.25           1488           0.00         2.00
  231.76        2969.50           1491           0.00         2.00
  231.79        2969.75           1495           8.00         9.59
  231.82        2970.00           1498           0.00         2.00
  231.84        2970.25           1501           8.00         9.59
  231.87        2970.50           1505           1.00         2.00
  231.90        2970.75           1508           2.00         2.00
  231.92        2971.00           1511           8.00         9.59
  231.95        2971.25           1515           8.00         9.59
  231.98        2971.50           1518           8.00         9.59
  232.01        2971.75           1521           6.00         2.00
  232.03        2972.00           1525           6.00         2.00
  232.06        2972.25           1528           6.00         2.00
  232.09        2972.50           1531           2.00         2.00
  232.12        2972.75           1535           8.00         9.59
  232.14        2973.00           1538           0.00         2.00
  232.17        2973.25           1541           8.00         9.59
  232.20        2973.50           1545           1.00         2.00
  232.22        2973.75           1548           8.00         9.59
  232.25        2974.00           1551           3.00         2.00
  232.28        2974.25           1555           5.00         2.00
  232.31        2974.50           1558           3.00         2.00
  232.33        2974.75           1561           0.00         2.00
  232.36        2975.00           1565           0.00         2.00
  232.39        2975.25           1568           0.00         2.00
  232.41        2975.50           1571           8.00         9.59
  232.44        2975.75           1575           0.00         2.00
  232.47        2976.00           1578           8.00         9.59
  232.49        2976.25           1581           8.00         9.59
  232.52        2976.50           1585           8.00         9.59
  232.55        2976.75           1588           3.00         2.00
  232.58        2977.00           1591           6.00         2.00
  232.60        2977.25           1595           8.00         9.59
  232.63        2977.50           1598           2.00         2.00
  232.66        2977.75           1601           1.00         2.00
  232.68        2978.00           1605           0.00         2.00
  232.71        2978.25           1608           0.00         2.00
  232.74        2978.50           1611           8.00         9.59
  232.77        2978.75           1615           0.00         2.00
  232.79        2979.00           1618           3.00         2.00
  232.82        2979.25           1621           8.00         9.59
  232.85        2979.50           1625           0.00         2.00
  232.87        2979.75           1628           1.00         2.00
  232.90        2980.00           1631           7.00         5.23
  232.93        2980.25           1635           5.00         2.00
  232.96        2980.50           1638           6.00         2.00
  232.98        2980.75           1641           4.00         2.00
  233.01        2981.00           1645           8.00         9.59
  233.04        2981.25           1648           0.00         2.00
  233.06        2981.50           1651           8.00         9.59
  233.09        2981.75           1655           4.00         2.00
  233.12        2982.00           1658           0.00         2.00
  233.15        2982.25           1661           8.00         9.59
  233.17        2982.50           1665           3.00         2.00
  233.20        2982.75           1668           5.00         2.00
  233.23        2983.00           1671           5.00         2.00
  233.25        2983.25           1675           0.00         2.00
  233.28        2983.50           1678           8.00         9.59
  233.31        2983.75           1681           8.00         9.59
  233.34        2984.00           1685           8.00         9.59
HS scan finished at 03:53:31
end
