************************************************************
  HS Scan of (1) Internal mercury lamp
************************************************************
Integration time is 0.2294 seconds per sample
dh200217Tamanrasset 22.79-5.529 2.746401pr865
************************************************************
Dead Time -------------------------  2.8E-08 
Number of Cycles Used -------------  4 
Starting Wavelength (Angstroms) ---  2950 
Final Wavelength (Angstoms) -------  2984 
Wavelength Increment (Angstroms) --  .25 
Filter Wheel #1 Position ---------- (1) Ground quartz diffuser (ND=2.32)
Filter Wheel #2 Position ---------- (1) Neutral Density 0.494



************************************************************
HS scan start time = 03:50:11
Dark Count =  5.1 


Time (GMT)  Wavelength (Ang)  Step Number  Raw Counts  Counts/Second

  230.53        2950.00           1233           1.00         2.00
  230.60        2950.25           1236           1.00         2.00
  230.63        2950.50           1239           0.00         2.00
  230.65        2950.75           1242           1.00         2.00
  230.68        2951.00           1246           1.00         2.00
  230.71        2951.25           1249           0.00         2.00
  230.73        2951.50           1252           0.00         2.00
  230.76        2951.75           1256           0.00         2.00
  230.79        2952.00           1259           7.00         8.28
  230.82        2952.25           1262           1.00         2.00
  230.84        2952.50           1266           8.00        12.64
  230.87        2952.75           1269           0.00         2.00
  230.90        2953.00           1272           8.00        12.64
  230.92        2953.25           1276           8.00        12.64
  230.95        2953.50           1279           8.00        12.64
  230.98        2953.75           1282           0.00         2.00
  231.01        2954.00           1286           8.00        12.64
  231.03        2954.25           1289           5.00         2.00
  231.06        2954.50           1292           8.00        12.64
  231.09        2954.75           1295           4.00         2.00
  231.11        2955.00           1299           0.00         2.00
  231.14        2955.25           1302           8.00        12.64
  231.17        2955.50           1305           3.00         2.00
  231.20        2955.75           1309           8.00        12.64
  231.22        2956.00           1312           8.00        12.64
  231.25        2956.25           1315           8.00        12.64
  231.28        2956.50           1319           8.00        12.64
  231.30        2956.75           1322           7.00         8.28
  231.33        2957.00           1325           8.00        12.64
  231.36        2957.25           1329           8.00        12.64
  231.39        2957.50           1332           5.00         2.00
  231.41        2957.75           1335           8.00        12.64
  231.44        2958.00           1339           1.00         2.00
  231.47        2958.25           1342           8.00        12.64
  231.49        2958.50           1345           6.00         3.92
  231.52        2958.75           1348           7.00         8.28
  231.55        2959.00           1352           8.00        12.64
  231.58        2959.25           1355           2.00         2.00
  231.60        2959.50           1358           8.00        12.64
  231.63        2959.75           1362           0.00         2.00
  231.66        2960.00           1365           7.00         8.28
  231.68        2960.25           1368           0.00         2.00
  231.71        2960.50           1372           7.00         8.28
  231.74        2960.75           1375           2.00         2.00
  231.77        2961.00           1378           1.00         2.00
  231.79        2961.25           1382           0.00         2.00
  231.82        2961.50           1385           4.00         2.00
  231.85        2961.75           1388           2.00         2.00
  231.87        2962.00           1392           0.00         2.00
  231.90        2962.25           1395           8.00        12.64
  231.93        2962.50           1398           8.00        12.64
  231.96        2962.75           1402           8.00        12.64
  231.98        2963.00           1405           0.00         2.00
  232.01        2963.25           1408           8.00        12.64
  232.04        2963.50           1412           2.00         2.00
  232.06        2963.75           1415           8.00        12.64
  232.09        2964.00           1418           8.00        12.64
  232.12        2964.25           1422           1.00         2.00
  232.15        2964.50           1425           0.00         2.00
  232.17        2964.75           1428           0.00         2.00
  232.20        2965.00           1431           2.00         2.00
  232.23        2965.25           1435           0.00         2.00
  232.25        2965.50           1438           8.00        12.64
  232.28        2965.75           1441           8.00        12.64
  232.31        2966.00           1445           1.00         2.00
  232.34        2966.25           1448           2.00         2.00
  232.36        2966.50           1451           8.00        12.64
  232.39        2966.75           1455           7.00         8.28
  232.42        2967.00           1458           0.00         2.00
  232.44        2967.25           1461           8.00        12.64
  232.47        2967.50           1465           3.00         2.00
  232.50        2967.75           1468           8.00        12.64
  232.53        2968.00           1471           0.00         2.00
  232.55        2968.25           1475           7.00         8.28
  232.58        2968.50           1478           0.00         2.00
  232.61        2968.75           1481           5.00         2.00
  232.63        2969.00           1485           8.00        12.64
  232.66        2969.25           1488           6.00         3.92
  232.69        2969.50           1491           8.00        12.64
  232.72        2969.75           1495           0.00         2.00
  232.74        2970.00           1498           0.00         2.00
  232.77        2970.25           1501           8.00        12.64
  232.80        2970.50           1505           0.00         2.00
  232.83        2970.75           1508           3.00         2.00
  232.85        2971.00           1511           8.00        12.64
  232.88        2971.25           1515           7.00         8.28
  232.91        2971.50           1518           7.00         8.28
  232.93        2971.75           1521           4.00         2.00
  232.96        2972.00           1525           0.00         2.00
  232.99        2972.25           1528           5.00         2.00
  233.01        2972.50           1531           8.00        12.64
  233.04        2972.75           1535           5.00         2.00
  233.07        2973.00           1538           8.00        12.64
  233.10        2973.25           1541           2.00         2.00
  233.12        2973.50           1545           4.00         2.00
  233.15        2973.75           1548           8.00        12.64
  233.18        2974.00           1551           1.00         2.00
  233.20        2974.25           1555           7.00         8.28
  233.23        2974.50           1558           0.00         2.00
  233.26        2974.75           1561           1.00         2.00
  233.29        2975.00           1565           2.00         2.00
  233.31        2975.25           1568           8.00        12.64
  233.34        2975.50           1571           8.00        12.64
  233.37        2975.75           1575           8.00        12.64
  233.39        2976.00           1578           8.00        12.64
  233.42        2976.25           1581           0.00         2.00
  233.45        2976.50           1585           8.00        12.64
  233.48        2976.75           1588           0.00         2.00
  233.50        2977.00           1591           5.00         2.00
  233.53        2977.25           1595           7.00         8.28
  233.56        2977.50           1598           8.00        12.64
  233.58        2977.75           1601           8.00        12.64
  233.61        2978.00           1605           0.00         2.00
  233.64        2978.25           1608           4.00         2.00
  233.66        2978.50           1611           7.00         8.28
  233.69        2978.75           1615           0.00         2.00
  233.72        2979.00           1618           3.00         2.00
  233.75        2979.25           1621           7.00         8.28
  233.77        2979.50           1625           8.00        12.64
  233.80        2979.75           1628           0.00         2.00
  233.83        2980.00           1631           8.00        12.64
  233.86        2980.25           1635           1.00         2.00
  233.88        2980.50           1638           8.00        12.64
  233.91        2980.75           1641           5.00         2.00
  233.94        2981.00           1645           8.00        12.64
  233.96        2981.25           1648           8.00        12.64
  233.99        2981.50           1651           7.00         8.28
  234.02        2981.75           1655           8.00        12.64
  234.05        2982.00           1658           0.00         2.00
  234.07        2982.25           1661           7.00         8.28
  234.10        2982.50           1665           7.00         8.28
  234.13        2982.75           1668           0.00         2.00
  234.15        2983.00           1671           2.00         2.00
  234.18        2983.25           1675           0.00         2.00
  234.21        2983.50           1678           6.00         3.92
  234.23        2983.75           1681           2.00         2.00
  234.26        2984.00           1685           0.00         2.00
HS scan finished at 03:54:27
end
