************************************************************
  HS Scan of (1) Internal mercury lamp
************************************************************
Integration time is 0.2294 seconds per sample
dh260217Tamanrasset 22.79-5.529 2.899351pr865
************************************************************
Dead Time -------------------------  2.8E-08 
Number of Cycles Used -------------  4 
Starting Wavelength (Angstroms) ---  2950 
Final Wavelength (Angstoms) -------  2984 
Wavelength Increment (Angstroms) --  .25 
Filter Wheel #1 Position ---------- (1) Ground quartz diffuser (ND=2.32)
Filter Wheel #2 Position ---------- (1) Neutral Density 0.494



************************************************************
HS scan start time = 03:46:31
Dark Count =  3.1 


Time (GMT)  Wavelength (Ang)  Step Number  Raw Counts  Counts/Second

  226.87        2950.00           1233           7.00        17.00
  226.94        2950.25           1236           7.00        17.00
  226.96        2950.50           1239           5.00         8.28
  226.99        2950.75           1242           7.00        17.00
  227.02        2951.00           1246           3.00         2.00
  227.05        2951.25           1249           2.00         2.00
  227.07        2951.50           1252           0.00         2.00
  227.10        2951.75           1256           8.00        21.36
  227.13        2952.00           1259           0.00         2.00
  227.15        2952.25           1262           4.00         3.92
  227.18        2952.50           1266           5.00         8.28
  227.21        2952.75           1269           5.00         8.28
  227.24        2953.00           1272           2.00         2.00
  227.26        2953.25           1276           6.00        12.64
  227.29        2953.50           1279           2.00         2.00
  227.32        2953.75           1282           7.00        17.00
  227.34        2954.00           1286           2.00         2.00
  227.37        2954.25           1289           0.00         2.00
  227.40        2954.50           1292           8.00        21.36
  227.43        2954.75           1295           3.00         2.00
  227.45        2955.00           1299           8.00        21.36
  227.48        2955.25           1302           1.00         2.00
  227.51        2955.50           1305           1.00         2.00
  227.53        2955.75           1309           5.00         8.28
  227.56        2956.00           1312           6.00        12.64
  227.59        2956.25           1315           4.00         3.92
  227.62        2956.50           1319           8.00        21.36
  227.64        2956.75           1322           0.00         2.00
  227.67        2957.00           1325           4.00         3.92
  227.70        2957.25           1329           1.00         2.00
  227.72        2957.50           1332           8.00        21.36
  227.75        2957.75           1335           8.00        21.36
  227.78        2958.00           1339           0.00         2.00
  227.81        2958.25           1342           8.00        21.36
  227.83        2958.50           1345           0.00         2.00
  227.86        2958.75           1348           8.00        21.36
  227.89        2959.00           1352           0.00         2.00
  227.91        2959.25           1355           6.00        12.64
  227.94        2959.50           1358           0.00         2.00
  227.97        2959.75           1362           8.00        21.36
  227.99        2960.00           1365           6.00        12.64
  228.02        2960.25           1368           8.00        21.36
  228.05        2960.50           1372           0.00         2.00
  228.08        2960.75           1375           0.00         2.00
  228.10        2961.00           1378           0.00         2.00
  228.13        2961.25           1382           8.00        21.36
  228.16        2961.50           1385           2.00         2.00
  228.18        2961.75           1388           4.00         3.92
  228.21        2962.00           1392           7.00        17.00
  228.24        2962.25           1395           4.00         3.92
  228.27        2962.50           1398           8.00        21.36
  228.29        2962.75           1402           7.00        17.00
  228.32        2963.00           1405           7.00        17.00
  228.35        2963.25           1408           0.00         2.00
  228.37        2963.50           1412           4.00         3.92
  228.40        2963.75           1415           6.00        12.64
  228.43        2964.00           1418           4.00         3.92
  228.46        2964.25           1422           8.00        21.36
  228.48        2964.50           1425           0.00         2.00
  228.51        2964.75           1428           6.00        12.64
  228.54        2965.00           1431           2.00         2.00
  228.57        2965.25           1435           8.00        21.36
  228.59        2965.50           1438           8.00        21.36
  228.62        2965.75           1441           8.00        21.36
  228.65        2966.00           1445           6.00        12.64
  228.67        2966.25           1448           1.00         2.00
  228.70        2966.50           1451           8.00        21.36
  228.73        2966.75           1455           7.00        17.00
  228.75        2967.00           1458           3.00         2.00
  228.78        2967.25           1461           0.00         2.00
  228.81        2967.50           1465           7.00        17.00
  228.84        2967.75           1468           5.00         8.28
  228.86        2968.00           1471           5.00         8.28
  228.89        2968.25           1475           8.00        21.36
  228.92        2968.50           1478           5.00         8.28
  228.94        2968.75           1481           7.00        17.00
  228.97        2969.00           1485           8.00        21.36
  229.00        2969.25           1488           0.00         2.00
  229.03        2969.50           1491           0.00         2.00
  229.05        2969.75           1495           4.00         3.92
  229.08        2970.00           1498           6.00        12.64
  229.11        2970.25           1501           8.00        21.36
  229.13        2970.50           1505           2.00         2.00
  229.16        2970.75           1508           8.00        21.36
  229.19        2971.00           1511           5.00         8.28
  229.22        2971.25           1515           7.00        17.00
  229.24        2971.50           1518           2.00         2.00
  229.27        2971.75           1521           7.00        17.00
  229.30        2972.00           1525           0.00         2.00
  229.32        2972.25           1528           7.00        17.00
  229.35        2972.50           1531           5.00         8.28
  229.38        2972.75           1535           8.00        21.36
  229.40        2973.00           1538           0.00         2.00
  229.43        2973.25           1541           8.00        21.36
  229.46        2973.50           1545           0.00         2.00
  229.49        2973.75           1548           8.00        21.36
  229.51        2974.00           1551           5.00         8.28
  229.54        2974.25           1555           8.00        21.36
  229.57        2974.50           1558           3.00         2.00
  229.59        2974.75           1561           0.00         2.00
  229.62        2975.00           1565           5.00         8.28
  229.65        2975.25           1568           6.00        12.64
  229.68        2975.50           1571           5.00         8.28
  229.70        2975.75           1575           8.00        21.36
  229.73        2976.00           1578           0.00         2.00
  229.76        2976.25           1581           5.00         8.28
  229.78        2976.50           1585           2.00         2.00
  229.81        2976.75           1588           2.00         2.00
  229.84        2977.00           1591           6.00        12.64
  229.87        2977.25           1595           0.00         2.00
  229.89        2977.50           1598           4.00         3.92
  229.92        2977.75           1601           2.00         2.00
  229.95        2978.00           1605           1.00         2.00
  229.97        2978.25           1608           0.00         2.00
  230.00        2978.50           1611           2.00         2.00
  230.03        2978.75           1615           8.00        21.36
  230.06        2979.00           1618           0.00         2.00
  230.08        2979.25           1621           0.00         2.00
  230.11        2979.50           1625           8.00        21.36
  230.14        2979.75           1628           6.00        12.64
  230.16        2980.00           1631           7.00        17.00
  230.19        2980.25           1635           7.00        17.00
  230.22        2980.50           1638           7.00        17.00
  230.25        2980.75           1641           4.00         3.92
  230.27        2981.00           1645           3.00         2.00
  230.30        2981.25           1648           7.00        17.00
  230.33        2981.50           1651           3.00         2.00
  230.35        2981.75           1655           8.00        21.36
  230.38        2982.00           1658           4.00         3.92
  230.41        2982.25           1661           2.00         2.00
  230.44        2982.50           1665           0.00         2.00
  230.46        2982.75           1668           8.00        21.36
  230.49        2983.00           1671           1.00         2.00
  230.52        2983.25           1675           0.00         2.00
  230.54        2983.50           1678           4.00         3.92
  230.57        2983.75           1681           5.00         8.28
  230.60        2984.00           1685           8.00        21.36
HS scan finished at 03:50:47
end
