************************************************************
  HS Scan of (1) Internal mercury lamp
************************************************************
Integration time is 0.2294 seconds per sample
dh280217Tamanrasset 22.79-5.529 2.715812pr865
************************************************************
Dead Time -------------------------  2.8E-08 
Number of Cycles Used -------------  4 
Starting Wavelength (Angstroms) ---  2950 
Final Wavelength (Angstoms) -------  2984 
Wavelength Increment (Angstroms) --  .25 
Filter Wheel #1 Position ---------- (1) Ground quartz diffuser (ND=2.32)
Filter Wheel #2 Position ---------- (1) Neutral Density 0.494



************************************************************
HS scan start time = 03:44:16
Dark Count =  7.2 


Time (GMT)  Wavelength (Ang)  Step Number  Raw Counts  Counts/Second

  224.63        2950.00           1233           0.00         2.00
  224.69        2950.25           1236           0.00         2.00
  224.72        2950.50           1239           7.00         2.00
  224.75        2950.75           1242           0.00         2.00
  224.78        2951.00           1246           8.00         3.49
  224.80        2951.25           1249           6.00         2.00
  224.83        2951.50           1252           8.00         3.49
  224.86        2951.75           1256           7.00         2.00
  224.88        2952.00           1259           0.00         2.00
  224.91        2952.25           1262           8.00         3.49
  224.94        2952.50           1266           6.00         2.00
  224.97        2952.75           1269           8.00         3.49
  224.99        2953.00           1272           3.00         2.00
  225.02        2953.25           1276           8.00         3.49
  225.05        2953.50           1279           8.00         3.49
  225.07        2953.75           1282           3.00         2.00
  225.10        2954.00           1286           0.00         2.00
  225.13        2954.25           1289           6.00         2.00
  225.16        2954.50           1292           0.00         2.00
  225.18        2954.75           1295           6.00         2.00
  225.21        2955.00           1299           8.00         3.49
  225.24        2955.25           1302           8.00         3.49
  225.26        2955.50           1305           8.00         3.49
  225.29        2955.75           1309           8.00         3.49
  225.32        2956.00           1312           8.00         3.49
  225.35        2956.25           1315           8.00         3.49
  225.37        2956.50           1319           0.00         2.00
  225.40        2956.75           1322           7.00         2.00
  225.43        2957.00           1325           6.00         2.00
  225.45        2957.25           1329           0.00         2.00
  225.48        2957.50           1332           6.00         2.00
  225.51        2957.75           1335           5.00         2.00
  225.54        2958.00           1339           8.00         3.49
  225.56        2958.25           1342           0.00         2.00
  225.59        2958.50           1345           8.00         3.49
  225.62        2958.75           1348           0.00         2.00
  225.64        2959.00           1352           8.00         3.49
  225.67        2959.25           1355           2.00         2.00
  225.70        2959.50           1358           0.00         2.00
  225.72        2959.75           1362           0.00         2.00
  225.75        2960.00           1365           8.00         3.49
  225.78        2960.25           1368           8.00         3.49
  225.81        2960.50           1372           8.00         3.49
  225.83        2960.75           1375           8.00         3.49
  225.86        2961.00           1378           2.00         2.00
  225.89        2961.25           1382           7.00         2.00
  225.91        2961.50           1385           8.00         3.49
  225.94        2961.75           1388           8.00         3.49
  225.97        2962.00           1392           8.00         3.49
  226.00        2962.25           1395           2.00         2.00
  226.02        2962.50           1398           4.00         2.00
  226.05        2962.75           1402           0.00         2.00
  226.08        2963.00           1405           7.00         2.00
  226.10        2963.25           1408           4.00         2.00
  226.13        2963.50           1412           0.00         2.00
  226.16        2963.75           1415           8.00         3.49
  226.19        2964.00           1418           4.00         2.00
  226.21        2964.25           1422           0.00         2.00
  226.24        2964.50           1425           5.00         2.00
  226.27        2964.75           1428           7.00         2.00
  226.29        2965.00           1431           3.00         2.00
  226.32        2965.25           1435           5.00         2.00
  226.35        2965.50           1438           1.00         2.00
  226.38        2965.75           1441           8.00         3.49
  226.40        2966.00           1445           8.00         3.49
  226.43        2966.25           1448           6.00         2.00
  226.46        2966.50           1451           0.00         2.00
  226.48        2966.75           1455           5.00         2.00
  226.51        2967.00           1458           0.00         2.00
  226.54        2967.25           1461           1.00         2.00
  226.57        2967.50           1465           8.00         3.49
  226.59        2967.75           1468           0.00         2.00
  226.62        2968.00           1471           0.00         2.00
  226.65        2968.25           1475           8.00         3.49
  226.67        2968.50           1478           8.00         3.49
  226.70        2968.75           1481           2.00         2.00
  226.73        2969.00           1485           3.00         2.00
  226.76        2969.25           1488           8.00         3.49
  226.78        2969.50           1491           8.00         3.49
  226.81        2969.75           1495           0.00         2.00
  226.84        2970.00           1498           6.00         2.00
  226.86        2970.25           1501           1.00         2.00
  226.89        2970.50           1505           8.00         3.49
  226.92        2970.75           1508           0.00         2.00
  226.95        2971.00           1511           0.00         2.00
  226.97        2971.25           1515           0.00         2.00
  227.00        2971.50           1518           0.00         2.00
  227.03        2971.75           1521           1.00         2.00
  227.05        2972.00           1525           4.00         2.00
  227.08        2972.25           1528           3.00         2.00
  227.11        2972.50           1531           8.00         3.49
  227.14        2972.75           1535           8.00         3.49
  227.16        2973.00           1538           8.00         3.49
  227.19        2973.25           1541           0.00         2.00
  227.22        2973.50           1545           8.00         3.49
  227.24        2973.75           1548           6.00         2.00
  227.27        2974.00           1551           0.00         2.00
  227.30        2974.25           1555           3.00         2.00
  227.33        2974.50           1558           8.00         3.49
  227.35        2974.75           1561           8.00         3.49
  227.38        2975.00           1565           0.00         2.00
  227.41        2975.25           1568           7.00         2.00
  227.43        2975.50           1571           8.00         3.49
  227.46        2975.75           1575           4.00         2.00
  227.49        2976.00           1578           0.00         2.00
  227.52        2976.25           1581           0.00         2.00
  227.54        2976.50           1585           0.00         2.00
  227.57        2976.75           1588           3.00         2.00
  227.60        2977.00           1591           8.00         3.49
  227.62        2977.25           1595           8.00         3.49
  227.65        2977.50           1598           5.00         2.00
  227.68        2977.75           1601           0.00         2.00
  227.71        2978.00           1605           0.00         2.00
  227.73        2978.25           1608           8.00         3.49
  227.76        2978.50           1611           6.00         2.00
  227.79        2978.75           1615           7.00         2.00
  227.81        2979.00           1618           8.00         3.49
  227.84        2979.25           1621           0.00         2.00
  227.87        2979.50           1625           0.00         2.00
  227.89        2979.75           1628           6.00         2.00
  227.92        2980.00           1631           3.00         2.00
  227.95        2980.25           1635           6.00         2.00
  227.98        2980.50           1638           0.00         2.00
  228.00        2980.75           1641           0.00         2.00
  228.03        2981.00           1645           8.00         3.49
  228.06        2981.25           1648           3.00         2.00
  228.08        2981.50           1651           5.00         2.00
  228.11        2981.75           1655           7.00         2.00
  228.14        2982.00           1658           0.00         2.00
  228.17        2982.25           1661           8.00         3.49
  228.19        2982.50           1665           0.00         2.00
  228.22        2982.75           1668           0.00         2.00
  228.25        2983.00           1671           4.00         2.00
  228.27        2983.25           1675           1.00         2.00
  228.30        2983.50           1678           8.00         3.49
  228.33        2983.75           1681           5.00         2.00
  228.36        2984.00           1685           8.00         3.49
HS scan finished at 03:48:33
end
