************************************************************
  HS Scan of (1) Internal mercury lamp
************************************************************
Integration time is 0.2294 seconds per sample
dh250217Tamanrasset 22.79-5.529 2.736205pr865
************************************************************
Dead Time -------------------------  2.8E-08 
Number of Cycles Used -------------  4 
Starting Wavelength (Angstroms) ---  2950 
Final Wavelength (Angstoms) -------  2984 
Wavelength Increment (Angstroms) --  .25 
Filter Wheel #1 Position ---------- (1) Ground quartz diffuser (ND=2.32)
Filter Wheel #2 Position ---------- (1) Neutral Density 0.494



************************************************************
HS scan start time = 03:47:02
Dark Count =  1.1 


Time (GMT)  Wavelength (Ang)  Step Number  Raw Counts  Counts/Second

  227.39        2950.00           1233           8.00        30.08
  227.45        2950.25           1236           8.00        30.08
  227.48        2950.50           1239           8.00        30.08
  227.51        2950.75           1242           7.00        25.72
  227.53        2951.00           1246           6.00        21.36
  227.56        2951.25           1249           8.00        30.08
  227.59        2951.50           1252           0.00         2.00
  227.62        2951.75           1256           7.00        25.72
  227.64        2952.00           1259           0.00         2.00
  227.67        2952.25           1262           8.00        30.08
  227.70        2952.50           1266           4.00        12.64
  227.72        2952.75           1269           0.00         2.00
  227.75        2953.00           1272           3.00         8.28
  227.78        2953.25           1276           0.00         2.00
  227.81        2953.50           1279           6.00        21.36
  227.83        2953.75           1282           2.00         3.92
  227.86        2954.00           1286           0.00         2.00
  227.89        2954.25           1289           1.00         2.00
  227.91        2954.50           1292           6.00        21.36
  227.94        2954.75           1295           7.00        25.72
  227.97        2955.00           1299           1.00         2.00
  228.00        2955.25           1302           8.00        30.08
  228.02        2955.50           1305           0.00         2.00
  228.05        2955.75           1309           7.00        25.72
  228.08        2956.00           1312           4.00        12.64
  228.10        2956.25           1315           5.00        17.00
  228.13        2956.50           1319           8.00        30.08
  228.16        2956.75           1322           8.00        30.08
  228.19        2957.00           1325           0.00         2.00
  228.21        2957.25           1329           4.00        12.64
  228.24        2957.50           1332           8.00        30.08
  228.27        2957.75           1335           0.00         2.00
  228.29        2958.00           1339           6.00        21.36
  228.32        2958.25           1342           6.00        21.36
  228.35        2958.50           1345           1.00         2.00
  228.38        2958.75           1348           8.00        30.08
  228.40        2959.00           1352           8.00        30.08
  228.43        2959.25           1355           8.00        30.08
  228.46        2959.50           1358           3.00         8.28
  228.48        2959.75           1362           7.00        25.72
  228.51        2960.00           1365           0.00         2.00
  228.54        2960.25           1368           4.00        12.64
  228.57        2960.50           1372           0.00         2.00
  228.59        2960.75           1375           8.00        30.08
  228.62        2961.00           1378           0.00         2.00
  228.65        2961.25           1382           0.00         2.00
  228.67        2961.50           1385           3.00         8.28
  228.70        2961.75           1388           8.00        30.08
  228.73        2962.00           1392           8.00        30.08
  228.76        2962.25           1395           8.00        30.08
  228.78        2962.50           1398           0.00         2.00
  228.81        2962.75           1402           6.00        21.36
  228.84        2963.00           1405           8.00        30.08
  228.86        2963.25           1408           0.00         2.00
  228.89        2963.50           1412           4.00        12.64
  228.92        2963.75           1415           8.00        30.08
  228.95        2964.00           1418           3.00         8.28
  228.97        2964.25           1422           3.00         8.28
  229.00        2964.50           1425           0.00         2.00
  229.03        2964.75           1428           6.00        21.36
  229.05        2965.00           1431           8.00        30.08
  229.08        2965.25           1435           8.00        30.08
  229.11        2965.50           1438           8.00        30.08
  229.14        2965.75           1441           0.00         2.00
  229.16        2966.00           1445           4.00        12.64
  229.19        2966.25           1448           8.00        30.08
  229.22        2966.50           1451           0.00         2.00
  229.24        2966.75           1455           8.00        30.08
  229.27        2967.00           1458           2.00         3.92
  229.30        2967.25           1461           8.00        30.08
  229.32        2967.50           1465           8.00        30.08
  229.35        2967.75           1468           8.00        30.08
  229.38        2968.00           1471           7.00        25.72
  229.41        2968.25           1475           2.00         3.92
  229.43        2968.50           1478           8.00        30.08
  229.46        2968.75           1481           8.00        30.08
  229.49        2969.00           1485           8.00        30.08
  229.51        2969.25           1488           8.00        30.08
  229.54        2969.50           1491           3.00         8.28
  229.57        2969.75           1495           2.00         3.92
  229.60        2970.00           1498           7.00        25.72
  229.62        2970.25           1501           7.00        25.72
  229.65        2970.50           1505           4.00        12.64
  229.68        2970.75           1508           7.00        25.72
  229.70        2971.00           1511           3.00         8.28
  229.73        2971.25           1515           0.00         2.00
  229.76        2971.50           1518           8.00        30.08
  229.79        2971.75           1521           0.00         2.00
  229.81        2972.00           1525           8.00        30.08
  229.84        2972.25           1528           0.00         2.00
  229.87        2972.50           1531           0.00         2.00
  229.89        2972.75           1535           0.00         2.00
  229.92        2973.00           1538           8.00        30.08
  229.95        2973.25           1541           6.00        21.36
  229.98        2973.50           1545           0.00         2.00
  230.00        2973.75           1548           8.00        30.08
  230.03        2974.00           1551           8.00        30.08
  230.06        2974.25           1555           0.00         2.00
  230.08        2974.50           1558           7.00        25.72
  230.11        2974.75           1561           3.00         8.28
  230.14        2975.00           1565           7.00        25.72
  230.17        2975.25           1568           8.00        30.08
  230.19        2975.50           1571           0.00         2.00
  230.22        2975.75           1575           7.00        25.72
  230.25        2976.00           1578           8.00        30.08
  230.27        2976.25           1581           4.00        12.64
  230.30        2976.50           1585           2.00         3.92
  230.33        2976.75           1588           8.00        30.08
  230.36        2977.00           1591           8.00        30.08
  230.38        2977.25           1595           0.00         2.00
  230.41        2977.50           1598           0.00         2.00
  230.44        2977.75           1601           5.00        17.00
  230.46        2978.00           1605           4.00        12.64
  230.49        2978.25           1608           3.00         8.28
  230.52        2978.50           1611           0.00         2.00
  230.55        2978.75           1615           8.00        30.08
  230.57        2979.00           1618           4.00        12.64
  230.60        2979.25           1621           5.00        17.00
  230.63        2979.50           1625           8.00        30.08
  230.65        2979.75           1628           8.00        30.08
  230.68        2980.00           1631           7.00        25.72
  230.71        2980.25           1635           7.00        25.72
  230.74        2980.50           1638           8.00        30.08
  230.76        2980.75           1641           8.00        30.08
  230.79        2981.00           1645           1.00         2.00
  230.82        2981.25           1648           8.00        30.08
  230.84        2981.50           1651           8.00        30.08
  230.87        2981.75           1655           8.00        30.08
  230.90        2982.00           1658           3.00         8.28
  230.92        2982.25           1661           8.00        30.08
  230.95        2982.50           1665           8.00        30.08
  230.98        2982.75           1668           0.00         2.00
  231.01        2983.00           1671           0.00         2.00
  231.03        2983.25           1675           0.00         2.00
  231.06        2983.50           1678           8.00        30.08
  231.09        2983.75           1681           1.00         2.00
  231.11        2984.00           1685           0.00         2.00
HS scan finished at 03:51:18
end
