************************************************************
  HS Scan of (1) Internal mercury lamp
************************************************************
Integration time is 0.2294 seconds per sample
dh190217Tamanrasset 22.79-5.529 2.700517pr865
************************************************************
Dead Time -------------------------  2.8E-08 
Number of Cycles Used -------------  4 
Starting Wavelength (Angstroms) ---  2950 
Final Wavelength (Angstoms) -------  2984 
Wavelength Increment (Angstroms) --  .25 
Filter Wheel #1 Position ---------- (1) Ground quartz diffuser (ND=2.32)
Filter Wheel #2 Position ---------- (1) Neutral Density 0.494



************************************************************
HS scan start time = 03:51:17
Dark Count =  2 


Time (GMT)  Wavelength (Ang)  Step Number  Raw Counts  Counts/Second

  231.64        2950.00           1233           0.00         2.00
  231.70        2950.25           1236           8.00        26.16
  231.73        2950.50           1239           8.00        26.16
  231.76        2950.75           1242           0.00         2.00
  231.78        2951.00           1246           8.00        26.16
  231.81        2951.25           1249           8.00        26.16
  231.84        2951.50           1252           8.00        26.16
  231.87        2951.75           1256           8.00        26.16
  231.89        2952.00           1259           0.00         2.00
  231.92        2952.25           1262           6.00        17.44
  231.95        2952.50           1266           4.00         8.72
  231.97        2952.75           1269           7.00        21.80
  232.00        2953.00           1272           8.00        26.16
  232.03        2953.25           1276           0.00         2.00
  232.06        2953.50           1279           8.00        26.16
  232.08        2953.75           1282           8.00        26.16
  232.11        2954.00           1286           0.00         2.00
  232.14        2954.25           1289           8.00        26.16
  232.16        2954.50           1292           4.00         8.72
  232.19        2954.75           1295           8.00        26.16
  232.22        2955.00           1299           8.00        26.16
  232.25        2955.25           1302           1.00         2.00
  232.27        2955.50           1305           8.00        26.16
  232.30        2955.75           1309           8.00        26.16
  232.33        2956.00           1312           2.00         2.00
  232.35        2956.25           1315           5.00        13.08
  232.38        2956.50           1319           0.00         2.00
  232.41        2956.75           1322           8.00        26.16
  232.43        2957.00           1325           2.00         2.00
  232.46        2957.25           1329           8.00        26.16
  232.49        2957.50           1332           0.00         2.00
  232.52        2957.75           1335           8.00        26.16
  232.54        2958.00           1339           3.00         4.36
  232.57        2958.25           1342           0.00         2.00
  232.60        2958.50           1345           8.00        26.16
  232.62        2958.75           1348           7.00        21.80
  232.65        2959.00           1352           5.00        13.08
  232.68        2959.25           1355           8.00        26.16
  232.71        2959.50           1358           3.00         4.36
  232.73        2959.75           1362           5.00        13.08
  232.76        2960.00           1365           6.00        17.44
  232.79        2960.25           1368           8.00        26.16
  232.81        2960.50           1372           6.00        17.44
  232.84        2960.75           1375           4.00         8.72
  232.87        2961.00           1378           7.00        21.80
  232.90        2961.25           1382           8.00        26.16
  232.92        2961.50           1385           2.00         2.00
  232.95        2961.75           1388           8.00        26.16
  232.98        2962.00           1392           7.00        21.80
  233.00        2962.25           1395           1.00         2.00
  233.03        2962.50           1398           8.00        26.16
  233.06        2962.75           1402           2.00         2.00
  233.08        2963.00           1405           0.00         2.00
  233.11        2963.25           1408           4.00         8.72
  233.14        2963.50           1412           0.00         2.00
  233.17        2963.75           1415           0.00         2.00
  233.19        2964.00           1418           0.00         2.00
  233.22        2964.25           1422           3.00         4.36
  233.25        2964.50           1425           8.00        26.16
  233.27        2964.75           1428           0.00         2.00
  233.30        2965.00           1431           0.00         2.00
  233.33        2965.25           1435           7.00        21.80
  233.36        2965.50           1438           8.00        26.16
  233.38        2965.75           1441           6.00        17.44
  233.41        2966.00           1445           8.00        26.16
  233.44        2966.25           1448           3.00         4.36
  233.46        2966.50           1451           0.00         2.00
  233.49        2966.75           1455           7.00        21.80
  233.52        2967.00           1458           8.00        26.16
  233.55        2967.25           1461           8.00        26.16
  233.57        2967.50           1465           0.00         2.00
  233.60        2967.75           1468           8.00        26.16
  233.63        2968.00           1471           2.00         2.00
  233.65        2968.25           1475           0.00         2.00
  233.68        2968.50           1478           0.00         2.00
  233.71        2968.75           1481           8.00        26.16
  233.73        2969.00           1485           8.00        26.16
  233.76        2969.25           1488           8.00        26.16
  233.79        2969.50           1491           0.00         2.00
  233.82        2969.75           1495           8.00        26.16
  233.84        2970.00           1498           0.00         2.00
  233.87        2970.25           1501           4.00         8.72
  233.90        2970.50           1505           8.00        26.16
  233.92        2970.75           1508           7.00        21.80
  233.95        2971.00           1511           0.00         2.00
  233.98        2971.25           1515           8.00        26.16
  234.01        2971.50           1518           8.00        26.16
  234.03        2971.75           1521           8.00        26.16
  234.06        2972.00           1525           8.00        26.16
  234.09        2972.25           1528           2.00         2.00
  234.11        2972.50           1531           2.00         2.00
  234.14        2972.75           1535           8.00        26.16
  234.17        2973.00           1538           5.00        13.08
  234.20        2973.25           1541           8.00        26.16
  234.22        2973.50           1545           0.00         2.00
  234.25        2973.75           1548           8.00        26.16
  234.28        2974.00           1551           6.00        17.44
  234.30        2974.25           1555           0.00         2.00
  234.33        2974.50           1558           1.00         2.00
  234.36        2974.75           1561           9.00        30.51
  234.39        2975.00           1565           7.00        21.80
  234.41        2975.25           1568           6.00        17.44
  234.44        2975.50           1571           3.00         4.36
  234.47        2975.75           1575           7.00        21.80
  234.49        2976.00           1578           3.00         4.36
  234.52        2976.25           1581           4.00         8.72
  234.55        2976.50           1585           8.00        26.16
  234.58        2976.75           1588           0.00         2.00
  234.60        2977.00           1591           0.00         2.00
  234.63        2977.25           1595           8.00        26.16
  234.66        2977.50           1598           8.00        26.16
  234.68        2977.75           1601           8.00        26.16
  234.71        2978.00           1605           8.00        26.16
  234.74        2978.25           1608           4.00         8.72
  234.77        2978.50           1611           0.00         2.00
  234.79        2978.75           1615           0.00         2.00
  234.82        2979.00           1618           7.00        21.80
  234.85        2979.25           1621           7.00        21.80
  234.87        2979.50           1625           0.00         2.00
  234.90        2979.75           1628           1.00         2.00
  234.93        2980.00           1631           4.00         8.72
  234.95        2980.25           1635           8.00        26.16
  234.98        2980.50           1638           8.00        26.16
  235.01        2980.75           1641           0.00         2.00
  235.04        2981.00           1645           0.00         2.00
  235.06        2981.25           1648           5.00        13.08
  235.09        2981.50           1651           5.00        13.08
  235.12        2981.75           1655           0.00         2.00
  235.15        2982.00           1658           4.00         8.72
  235.17        2982.25           1661           6.00        17.44
  235.20        2982.50           1665           0.00         2.00
  235.23        2982.75           1668           8.00        26.16
  235.26        2983.00           1671           8.00        26.16
  235.28        2983.25           1675           8.00        26.16
  235.31        2983.50           1678           0.00         2.00
  235.34        2983.75           1681           8.00        26.16
  235.36        2984.00           1685           8.00        26.16
HS scan finished at 03:55:33
end
