************************************************************
  HS Scan of (1) Internal mercury lamp
************************************************************
Integration time is 0.2294 seconds per sample
dh230217Tamanrasset 22.79-5.529 2.771893pr865
************************************************************
Dead Time -------------------------  2.8E-08 
Number of Cycles Used -------------  4 
Starting Wavelength (Angstroms) ---  2950 
Final Wavelength (Angstoms) -------  2984 
Wavelength Increment (Angstroms) --  .25 
Filter Wheel #1 Position ---------- (1) Ground quartz diffuser (ND=2.32)
Filter Wheel #2 Position ---------- (1) Neutral Density 0.494



************************************************************
HS scan start time = 03:47:59
Dark Count =  4.5 


Time (GMT)  Wavelength (Ang)  Step Number  Raw Counts  Counts/Second

  228.34        2950.00           1233           6.00         6.54
  228.40        2950.25           1236           0.00         2.00
  228.43        2950.50           1239           8.00        15.26
  228.45        2950.75           1242           0.00         2.00
  228.48        2951.00           1246           0.00         2.00
  228.51        2951.25           1249           7.00        10.90
  228.53        2951.50           1252           0.00         2.00
  228.56        2951.75           1256           8.00        15.26
  228.59        2952.00           1259           2.00         2.00
  228.62        2952.25           1262           6.00         6.54
  228.64        2952.50           1266           0.00         2.00
  228.67        2952.75           1269           8.00        15.26
  228.70        2953.00           1272           8.00        15.26
  228.72        2953.25           1276           8.00        15.26
  228.75        2953.50           1279           8.00        15.26
  228.78        2953.75           1282           0.00         2.00
  228.81        2954.00           1286           4.00         2.00
  228.83        2954.25           1289           8.00        15.26
  228.86        2954.50           1292           6.00         6.54
  228.89        2954.75           1295           3.00         2.00
  228.91        2955.00           1299           0.00         2.00
  228.94        2955.25           1302           0.00         2.00
  228.97        2955.50           1305           5.00         2.18
  229.00        2955.75           1309           0.00         2.00
  229.02        2956.00           1312           1.00         2.00
  229.05        2956.25           1315           5.00         2.18
  229.08        2956.50           1319           2.00         2.00
  229.10        2956.75           1322           8.00        15.26
  229.13        2957.00           1325           1.00         2.00
  229.16        2957.25           1329           8.00        15.26
  229.19        2957.50           1332           8.00        15.26
  229.21        2957.75           1335           6.00         6.54
  229.24        2958.00           1339           3.00         2.00
  229.27        2958.25           1342           5.00         2.18
  229.29        2958.50           1345           0.00         2.00
  229.32        2958.75           1348           7.00        10.90
  229.35        2959.00           1352           0.00         2.00
  229.37        2959.25           1355           6.00         6.54
  229.40        2959.50           1358           7.00        10.90
  229.43        2959.75           1362           5.00         2.18
  229.46        2960.00           1365           0.00         2.00
  229.48        2960.25           1368           8.00        15.26
  229.51        2960.50           1372           8.00        15.26
  229.54        2960.75           1375           2.00         2.00
  229.57        2961.00           1378           0.00         2.00
  229.59        2961.25           1382           8.00        15.26
  229.62        2961.50           1385           0.00         2.00
  229.65        2961.75           1388           0.00         2.00
  229.67        2962.00           1392           8.00        15.26
  229.70        2962.25           1395           7.00        10.90
  229.73        2962.50           1398           7.00        10.90
  229.75        2962.75           1402           2.00         2.00
  229.78        2963.00           1405           8.00        15.26
  229.81        2963.25           1408           0.00         2.00
  229.84        2963.50           1412           1.00         2.00
  229.86        2963.75           1415           7.00        10.90
  229.89        2964.00           1418           0.00         2.00
  229.92        2964.25           1422           0.00         2.00
  229.94        2964.50           1425           8.00        15.26
  229.97        2964.75           1428           5.00         2.18
  230.00        2965.00           1431           6.00         6.54
  230.03        2965.25           1435           7.00        10.90
  230.05        2965.50           1438           3.00         2.00
  230.08        2965.75           1441           0.00         2.00
  230.11        2966.00           1445           9.00        19.62
  230.13        2966.25           1448           0.00         2.00
  230.16        2966.50           1451           0.00         2.00
  230.19        2966.75           1455           3.00         2.00
  230.22        2967.00           1458           8.00        15.26
  230.24        2967.25           1461           0.00         2.00
  230.27        2967.50           1465           8.00        15.26
  230.30        2967.75           1468           4.00         2.00
  230.32        2968.00           1471           2.00         2.00
  230.35        2968.25           1475           2.00         2.00
  230.38        2968.50           1478           8.00        15.26
  230.41        2968.75           1481           2.00         2.00
  230.43        2969.00           1485           0.00         2.00
  230.46        2969.25           1488           6.00         6.54
  230.49        2969.50           1491           1.00         2.00
  230.51        2969.75           1495           5.00         2.18
  230.54        2970.00           1498           0.00         2.00
  230.57        2970.25           1501           3.00         2.00
  230.60        2970.50           1505           1.00         2.00
  230.62        2970.75           1508           6.00         6.54
  230.65        2971.00           1511           5.00         2.18
  230.68        2971.25           1515           3.00         2.00
  230.70        2971.50           1518           3.00         2.00
  230.73        2971.75           1521           0.00         2.00
  230.76        2972.00           1525           8.00        15.26
  230.78        2972.25           1528           0.00         2.00
  230.81        2972.50           1531           8.00        15.26
  230.84        2972.75           1535           8.00        15.26
  230.87        2973.00           1538           8.00        15.26
  230.89        2973.25           1541           0.00         2.00
  230.92        2973.50           1545           7.00        10.90
  230.95        2973.75           1548           3.00         2.00
  230.97        2974.00           1551           8.00        15.26
  231.00        2974.25           1555           2.00         2.00
  231.03        2974.50           1558           6.00         6.54
  231.06        2974.75           1561           8.00        15.26
  231.08        2975.00           1565           8.00        15.26
  231.11        2975.25           1568           3.00         2.00
  231.14        2975.50           1571           0.00         2.00
  231.16        2975.75           1575           6.00         6.54
  231.19        2976.00           1578           8.00        15.26
  231.22        2976.25           1581           4.00         2.00
  231.25        2976.50           1585           7.00        10.90
  231.27        2976.75           1588           2.00         2.00
  231.30        2977.00           1591           8.00        15.26
  231.33        2977.25           1595           0.00         2.00
  231.35        2977.50           1598           0.00         2.00
  231.38        2977.75           1601           8.00        15.26
  231.41        2978.00           1605           0.00         2.00
  231.44        2978.25           1608           1.00         2.00
  231.46        2978.50           1611           5.00         2.18
  231.49        2978.75           1615           5.00         2.18
  231.52        2979.00           1618           8.00        15.26
  231.54        2979.25           1621           0.00         2.00
  231.57        2979.50           1625           8.00        15.26
  231.60        2979.75           1628           3.00         2.00
  231.63        2980.00           1631           5.00         2.18
  231.65        2980.25           1635           4.00         2.00
  231.68        2980.50           1638           5.00         2.18
  231.71        2980.75           1641           7.00        10.90
  231.73        2981.00           1645           5.00         2.18
  231.76        2981.25           1648           8.00        15.26
  231.79        2981.50           1651           0.00         2.00
  231.81        2981.75           1655           8.00        15.26
  231.84        2982.00           1658           0.00         2.00
  231.87        2982.25           1661           0.00         2.00
  231.90        2982.50           1665           8.00        15.26
  231.92        2982.75           1668           0.00         2.00
  231.95        2983.00           1671           7.00        10.90
  231.98        2983.25           1675           8.00        15.26
  232.00        2983.50           1678           8.00        15.26
  232.03        2983.75           1681           3.00         2.00
  232.06        2984.00           1685           8.00        15.26
HS scan finished at 03:52:15
end
