************************************************************
  HS Scan of (1) Internal mercury lamp
************************************************************
Integration time is 0.2294 seconds per sample
dh270219Tamanrasset 22.79-5.529 4.974364pr865
************************************************************
Dead Time -------------------------  2.8E-08 
Number of Cycles Used -------------  4 
Starting Wavelength (Angstroms) ---  2950 
Final Wavelength (Angstoms) -------  2984 
Wavelength Increment (Angstroms) --  .25 
Filter Wheel #1 Position ---------- (1) Ground quartz diffuser (ND=2.32)
Filter Wheel #2 Position ---------- (1) Neutral Density 0.494



************************************************************
HS scan start time = 04:14:09
Dark Count =  3.9 


Time (GMT)  Wavelength (Ang)  Step Number  Raw Counts  Counts/Second

  254.50        2950.00           1233          18.00        61.46
  254.57        2950.25           1236          19.00        65.82
  254.59        2950.50           1239          21.00        74.54
  254.62        2950.75           1242          15.00        48.39
  254.65        2951.00           1246          18.00        61.46
  254.68        2951.25           1249          20.00        70.18
  254.70        2951.50           1252          22.00        78.90
  254.73        2951.75           1256          15.00        48.39
  254.76        2952.00           1259          19.00        65.82
  254.79        2952.25           1262          19.00        65.82
  254.81        2952.50           1266          19.00        65.82
  254.84        2952.75           1269          19.00        65.82
  254.87        2953.00           1272          19.00        65.82
  254.89        2953.25           1276          21.00        74.54
  254.92        2953.50           1279          22.00        78.90
  254.95        2953.75           1282          17.00        57.11
  254.98        2954.00           1286          17.00        57.11
  255.00        2954.25           1289          17.00        57.11
  255.03        2954.50           1292          20.00        70.18
  255.06        2954.75           1295          17.00        57.11
  255.08        2955.00           1299          21.00        74.54
  255.11        2955.25           1302          24.00        87.62
  255.14        2955.50           1305          18.00        61.46
  255.17        2955.75           1309          20.00        70.18
  255.19        2956.00           1312          19.00        65.82
  255.22        2956.25           1315          16.00        52.75
  255.25        2956.50           1319          19.00        65.82
  255.27        2956.75           1322          18.00        61.46
  255.30        2957.00           1325          19.00        65.82
  255.33        2957.25           1329          21.00        74.54
  255.36        2957.50           1332          20.00        70.18
  255.38        2957.75           1335          16.00        52.75
  255.41        2958.00           1339          20.00        70.18
  255.44        2958.25           1342          19.00        65.82
  255.46        2958.50           1345          22.00        78.90
  255.49        2958.75           1348          24.00        87.62
  255.52        2959.00           1352          22.00        78.90
  255.54        2959.25           1355          19.00        65.82
  255.57        2959.50           1358          21.00        74.54
  255.60        2959.75           1362          24.00        87.62
  255.63        2960.00           1365          26.00        96.34
  255.65        2960.25           1368          29.00       109.42
  255.68        2960.50           1372          28.00       105.06
  255.71        2960.75           1375          35.00       135.57
  255.74        2961.00           1378          84.00       349.18
  255.76        2961.25           1382         402.00      1735.48
  255.79        2961.50           1385        1016.00      4412.49
  255.82        2961.75           1388        1959.00      8524.70
  255.84        2962.00           1392        4008.00     17463.20
  255.87        2962.25           1395        5918.00     25799.37
  255.90        2962.50           1398        8075.00     35218.24
  255.93        2962.75           1402       10535.00     45966.28
  255.95        2963.00           1405       12552.00     54783.63
  255.98        2963.25           1408       14623.00     63841.58
  256.01        2963.50           1412       17332.00     75696.90
  256.04        2963.75           1415       19436.00     84909.99
  256.06        2964.00           1418       21496.00     93935.06
  256.09        2964.25           1422       24064.00    105192.10
  256.12        2964.50           1425       26300.00    114999.60
  256.14        2964.75           1428       28556.00    124900.30
  256.17        2965.00           1431       30619.00    133958.80
  256.20        2965.25           1435       33528.00    146739.90
  256.23        2965.50           1438       35466.00    155259.80
  256.25        2965.75           1441       37569.00    164509.80
  256.28        2966.00           1445       40337.00    176692.00
  256.31        2966.25           1448       42126.00    184570.00
  256.34        2966.50           1451       43458.00    190437.80
  256.36        2966.75           1455       44900.00    196792.40
  256.39        2967.00           1458       45363.00    198833.20
  256.42        2967.25           1461       45372.00    198872.90
  256.44        2967.50           1465       45229.00    198242.50
  256.47        2967.75           1468       44803.00    196364.90
  256.50        2968.00           1471       43866.00    192235.50
  256.53        2968.25           1475       42400.00    185776.90
  256.55        2968.50           1478       40454.00    177207.10
  256.58        2968.75           1481       38463.00    168443.40
  256.61        2969.00           1485       35633.00    155994.20
  256.64        2969.25           1488       33374.00    146063.00
  256.66        2969.50           1491       31151.00    136295.50
  256.69        2969.75           1495       28310.00    123820.40
  256.72        2970.00           1498       26429.00    115565.60
  256.75        2970.25           1501       23987.00    104854.50
  256.77        2970.50           1505       21215.00     92703.71
  256.80        2970.75           1508       18816.00     82194.61
  256.83        2971.00           1511       16832.00     73508.16
  256.85        2971.25           1515       14072.00     61431.21
  256.88        2971.50           1518       11969.00     52234.58
  256.91        2971.75           1521        9908.00     43226.22
  256.94        2972.00           1525        7174.00     31283.28
  256.96        2972.25           1528        5258.00     22918.37
  256.99        2972.50           1531        3376.00     14705.71
  257.02        2972.75           1535        1474.00      6409.61
  257.04        2973.00           1538         606.00      2624.87
  257.07        2973.25           1541         185.00       789.47
  257.10        2973.50           1545          44.00       174.80
  257.13        2973.75           1548          35.00       135.57
  257.15        2974.00           1551          32.00       122.49
  257.18        2974.25           1555          28.00       105.06
  257.21        2974.50           1558          21.00        74.54
  257.23        2974.75           1561          22.00        78.90
  257.26        2975.00           1565          22.00        78.90
  257.29        2975.25           1568          20.00        70.18
  257.32        2975.50           1571          18.00        61.46
  257.34        2975.75           1575          20.00        70.18
  257.37        2976.00           1578          24.00        87.62
  257.40        2976.25           1581          19.00        65.82
  257.42        2976.50           1585          17.00        57.11
  257.45        2976.75           1588          19.00        65.82
  257.48        2977.00           1591          22.00        78.90
  257.51        2977.25           1595          22.00        78.90
  257.53        2977.50           1598          18.00        61.46
  257.56        2977.75           1601          19.00        65.82
  257.59        2978.00           1605          24.00        87.62
  257.61        2978.25           1608          21.00        74.54
  257.64        2978.50           1611          17.00        57.11
  257.67        2978.75           1615          18.00        61.46
  257.70        2979.00           1618          22.00        78.90
  257.72        2979.25           1621          22.00        78.90
  257.75        2979.50           1625          18.00        61.46
  257.78        2979.75           1628          19.00        65.82
  257.80        2980.00           1631          22.00        78.90
  257.83        2980.25           1635          16.00        52.75
  257.86        2980.50           1638          21.00        74.54
  257.89        2980.75           1641          16.00        52.75
  257.91        2981.00           1645          22.00        78.90
  257.94        2981.25           1648          17.00        57.11
  257.97        2981.50           1651          18.00        61.46
  257.99        2981.75           1655          19.00        65.82
  258.02        2982.00           1658          22.00        78.90
  258.05        2982.25           1661          18.00        61.46
  258.08        2982.50           1665          25.00        91.98
  258.10        2982.75           1668          20.00        70.18
  258.13        2983.00           1671          19.00        65.82
  258.16        2983.25           1675          18.00        61.46
  258.18        2983.50           1678          24.00        87.62
  258.21        2983.75           1681          19.00        65.82
  258.24        2984.00           1685          19.00        65.82
HS scan finished at 04:18:26
end
