************************************************************
  HS Scan of (1) Internal mercury lamp
************************************************************
Integration time is 0.2294 seconds per sample
dh240217Tamanrasset 22.79-5.529 2.761697pr865
************************************************************
Dead Time -------------------------  2.8E-08 
Number of Cycles Used -------------  4 
Starting Wavelength (Angstroms) ---  2950 
Final Wavelength (Angstoms) -------  2984 
Wavelength Increment (Angstroms) --  .25 
Filter Wheel #1 Position ---------- (1) Ground quartz diffuser (ND=2.32)
Filter Wheel #2 Position ---------- (1) Neutral Density 0.494



************************************************************
HS scan start time = 03:47:15
Dark Count =  4.7 


Time (GMT)  Wavelength (Ang)  Step Number  Raw Counts  Counts/Second

  227.61        2950.00           1233           6.00         5.67
  227.67        2950.25           1236           4.00         2.00
  227.70        2950.50           1239           8.00        14.39
  227.73        2950.75           1242           7.00        10.03
  227.75        2951.00           1246           6.00         5.67
  227.78        2951.25           1249           2.00         2.00
  227.81        2951.50           1252           0.00         2.00
  227.84        2951.75           1256           6.00         5.67
  227.86        2952.00           1259           8.00        14.39
  227.89        2952.25           1262           3.00         2.00
  227.92        2952.50           1266           1.00         2.00
  227.94        2952.75           1269           5.00         2.00
  227.97        2953.00           1272           8.00        14.39
  228.00        2953.25           1276           8.00        14.39
  228.02        2953.50           1279           3.00         2.00
  228.05        2953.75           1282           8.00        14.39
  228.08        2954.00           1286           2.00         2.00
  228.11        2954.25           1289           3.00         2.00
  228.13        2954.50           1292           3.00         2.00
  228.16        2954.75           1295           8.00        14.39
  228.19        2955.00           1299           7.00        10.03
  228.21        2955.25           1302           7.00        10.03
  228.24        2955.50           1305           4.00         2.00
  228.27        2955.75           1309           8.00        14.39
  228.30        2956.00           1312           6.00         5.67
  228.32        2956.25           1315           1.00         2.00
  228.35        2956.50           1319           8.00        14.39
  228.38        2956.75           1322           8.00        14.39
  228.40        2957.00           1325           8.00        14.39
  228.43        2957.25           1329           7.00        10.03
  228.46        2957.50           1332           0.00         2.00
  228.49        2957.75           1335           8.00        14.39
  228.51        2958.00           1339           8.00        14.39
  228.54        2958.25           1342           0.00         2.00
  228.57        2958.50           1345           8.00        14.39
  228.59        2958.75           1348           8.00        14.39
  228.62        2959.00           1352           4.00         2.00
  228.65        2959.25           1355           8.00        14.39
  228.68        2959.50           1358           8.00        14.39
  228.70        2959.75           1362           1.00         2.00
  228.73        2960.00           1365           8.00        14.39
  228.76        2960.25           1368           0.00         2.00
  228.78        2960.50           1372           0.00         2.00
  228.81        2960.75           1375           8.00        14.39
  228.84        2961.00           1378           0.00         2.00
  228.86        2961.25           1382           0.00         2.00
  228.89        2961.50           1385           8.00        14.39
  228.92        2961.75           1388           0.00         2.00
  228.95        2962.00           1392           3.00         2.00
  228.97        2962.25           1395           2.00         2.00
  229.00        2962.50           1398           8.00        14.39
  229.03        2962.75           1402           6.00         5.67
  229.05        2963.00           1405           8.00        14.39
  229.08        2963.25           1408           2.00         2.00
  229.11        2963.50           1412           8.00        14.39
  229.14        2963.75           1415           1.00         2.00
  229.16        2964.00           1418           0.00         2.00
  229.19        2964.25           1422           4.00         2.00
  229.22        2964.50           1425           0.00         2.00
  229.24        2964.75           1428           8.00        14.39
  229.27        2965.00           1431           6.00         5.67
  229.30        2965.25           1435           1.00         2.00
  229.33        2965.50           1438           3.00         2.00
  229.35        2965.75           1441           3.00         2.00
  229.38        2966.00           1445           0.00         2.00
  229.41        2966.25           1448           3.00         2.00
  229.43        2966.50           1451           2.00         2.00
  229.46        2966.75           1455           8.00        14.39
  229.49        2967.00           1458           1.00         2.00
  229.52        2967.25           1461           0.00         2.00
  229.54        2967.50           1465           4.00         2.00
  229.57        2967.75           1468           8.00        14.39
  229.60        2968.00           1471           3.00         2.00
  229.62        2968.25           1475           7.00        10.03
  229.65        2968.50           1478           8.00        14.39
  229.68        2968.75           1481           8.00        14.39
  229.70        2969.00           1485           8.00        14.39
  229.73        2969.25           1488           5.00         2.00
  229.76        2969.50           1491           7.00        10.03
  229.79        2969.75           1495           3.00         2.00
  229.81        2970.00           1498           7.00        10.03
  229.84        2970.25           1501           0.00         2.00
  229.87        2970.50           1505           6.00         5.67
  229.90        2970.75           1508           6.00         5.67
  229.92        2971.00           1511           4.00         2.00
  229.95        2971.25           1515           8.00        14.39
  229.98        2971.50           1518           5.00         2.00
  230.00        2971.75           1521           3.00         2.00
  230.03        2972.00           1525           8.00        14.39
  230.06        2972.25           1528           0.00         2.00
  230.09        2972.50           1531           1.00         2.00
  230.11        2972.75           1535           8.00        14.39
  230.14        2973.00           1538           8.00        14.39
  230.17        2973.25           1541           0.00         2.00
  230.19        2973.50           1545           5.00         2.00
  230.22        2973.75           1548           5.00         2.00
  230.25        2974.00           1551           0.00         2.00
  230.28        2974.25           1555           6.00         5.67
  230.30        2974.50           1558           0.00         2.00
  230.33        2974.75           1561           0.00         2.00
  230.36        2975.00           1565           7.00        10.03
  230.38        2975.25           1568           8.00        14.39
  230.41        2975.50           1571           3.00         2.00
  230.44        2975.75           1575           8.00        14.39
  230.47        2976.00           1578           5.00         2.00
  230.49        2976.25           1581           0.00         2.00
  230.52        2976.50           1585           0.00         2.00
  230.55        2976.75           1588           7.00        10.03
  230.57        2977.00           1591           8.00        14.39
  230.60        2977.25           1595           2.00         2.00
  230.63        2977.50           1598           5.00         2.00
  230.66        2977.75           1601           0.00         2.00
  230.68        2978.00           1605           8.00        14.39
  230.71        2978.25           1608           2.00         2.00
  230.74        2978.50           1611           0.00         2.00
  230.76        2978.75           1615           4.00         2.00
  230.79        2979.00           1618           2.00         2.00
  230.82        2979.25           1621           1.00         2.00
  230.84        2979.50           1625           8.00        14.39
  230.87        2979.75           1628           6.00         5.67
  230.90        2980.00           1631           7.00        10.03
  230.93        2980.25           1635           7.00        10.03
  230.95        2980.50           1638           5.00         2.00
  230.98        2980.75           1641           8.00        14.39
  231.01        2981.00           1645           0.00         2.00
  231.03        2981.25           1648           3.00         2.00
  231.06        2981.50           1651           7.00        10.03
  231.09        2981.75           1655           0.00         2.00
  231.12        2982.00           1658           0.00         2.00
  231.14        2982.25           1661           8.00        14.39
  231.17        2982.50           1665           0.00         2.00
  231.20        2982.75           1668           6.00         5.67
  231.22        2983.00           1671           0.00         2.00
  231.25        2983.25           1675           8.00        14.39
  231.28        2983.50           1678           4.00         2.00
  231.30        2983.75           1681           5.00         2.00
  231.33        2984.00           1685           2.00         2.00
HS scan finished at 03:51:31
end
