************************************************************
  HS Scan of (1) Internal mercury lamp
************************************************************
Integration time is 0.2294 seconds per sample
dh220217Tamanrasset 22.79-5.529 2.78209pr865
************************************************************
Dead Time -------------------------  2.8E-08 
Number of Cycles Used -------------  4 
Starting Wavelength (Angstroms) ---  2950 
Final Wavelength (Angstoms) -------  2984 
Wavelength Increment (Angstroms) --  .25 
Filter Wheel #1 Position ---------- (1) Ground quartz diffuser (ND=2.32)
Filter Wheel #2 Position ---------- (1) Neutral Density 0.494



************************************************************
HS scan start time = 03:49:14
Dark Count =  5.3 


Time (GMT)  Wavelength (Ang)  Step Number  Raw Counts  Counts/Second

  229.60        2950.00           1233           5.00         2.00
  229.66        2950.25           1236           7.00         7.41
  229.69        2950.50           1239           8.00        11.77
  229.72        2950.75           1242           5.00         2.00
  229.74        2951.00           1246           8.00        11.77
  229.77        2951.25           1249           8.00        11.77
  229.80        2951.50           1252           0.00         2.00
  229.82        2951.75           1256           5.00         2.00
  229.85        2952.00           1259           8.00        11.77
  229.88        2952.25           1262           4.00         2.00
  229.91        2952.50           1266           0.00         2.00
  229.93        2952.75           1269           7.00         7.41
  229.96        2953.00           1272           2.00         2.00
  229.99        2953.25           1276           8.00        11.77
  230.01        2953.50           1279           1.00         2.00
  230.04        2953.75           1282           6.00         3.05
  230.07        2954.00           1286           7.00         7.41
  230.10        2954.25           1289           0.00         2.00
  230.12        2954.50           1292           6.00         3.05
  230.15        2954.75           1295           8.00        11.77
  230.18        2955.00           1299           0.00         2.00
  230.20        2955.25           1302           0.00         2.00
  230.23        2955.50           1305           2.00         2.00
  230.26        2955.75           1309           8.00        11.77
  230.28        2956.00           1312           8.00        11.77
  230.31        2956.25           1315           7.00         7.41
  230.34        2956.50           1319           8.00        11.77
  230.37        2956.75           1322           8.00        11.77
  230.39        2957.00           1325           7.00         7.41
  230.42        2957.25           1329           4.00         2.00
  230.45        2957.50           1332           0.00         2.00
  230.48        2957.75           1335           7.00         7.41
  230.50        2958.00           1339           0.00         2.00
  230.53        2958.25           1342           0.00         2.00
  230.56        2958.50           1345           0.00         2.00
  230.58        2958.75           1348           6.00         3.05
  230.61        2959.00           1352           7.00         7.41
  230.64        2959.25           1355           4.00         2.00
  230.67        2959.50           1358           5.00         2.00
  230.69        2959.75           1362           4.00         2.00
  230.72        2960.00           1365           0.00         2.00
  230.75        2960.25           1368           7.00         7.41
  230.77        2960.50           1372           0.00         2.00
  230.80        2960.75           1375           3.00         2.00
  230.83        2961.00           1378           0.00         2.00
  230.86        2961.25           1382           0.00         2.00
  230.88        2961.50           1385           8.00        11.77
  230.91        2961.75           1388           0.00         2.00
  230.94        2962.00           1392           0.00         2.00
  230.96        2962.25           1395           5.00         2.00
  230.99        2962.50           1398           8.00        11.77
  231.02        2962.75           1402           8.00        11.77
  231.04        2963.00           1405           5.00         2.00
  231.07        2963.25           1408           7.00         7.41
  231.10        2963.50           1412           2.00         2.00
  231.13        2963.75           1415           8.00        11.77
  231.15        2964.00           1418           7.00         7.41
  231.18        2964.25           1422           8.00        11.77
  231.21        2964.50           1425           0.00         2.00
  231.23        2964.75           1428           8.00        11.77
  231.26        2965.00           1431           5.00         2.00
  231.29        2965.25           1435           5.00         2.00
  231.32        2965.50           1438           1.00         2.00
  231.34        2965.75           1441           4.00         2.00
  231.37        2966.00           1445           0.00         2.00
  231.40        2966.25           1448           0.00         2.00
  231.42        2966.50           1451           5.00         2.00
  231.45        2966.75           1455           5.00         2.00
  231.48        2967.00           1458           2.00         2.00
  231.51        2967.25           1461           8.00        11.77
  231.53        2967.50           1465           0.00         2.00
  231.56        2967.75           1468           8.00        11.77
  231.59        2968.00           1471           5.00         2.00
  231.61        2968.25           1475           0.00         2.00
  231.64        2968.50           1478           1.00         2.00
  231.67        2968.75           1481           1.00         2.00
  231.70        2969.00           1485           8.00        11.77
  231.72        2969.25           1488           6.00         3.05
  231.75        2969.50           1491           0.00         2.00
  231.78        2969.75           1495           6.00         3.05
  231.80        2970.00           1498           0.00         2.00
  231.83        2970.25           1501           6.00         3.05
  231.86        2970.50           1505           7.00         7.41
  231.89        2970.75           1508           7.00         7.41
  231.91        2971.00           1511           0.00         2.00
  231.94        2971.25           1515           5.00         2.00
  231.97        2971.50           1518           6.00         3.05
  231.99        2971.75           1521           8.00        11.77
  232.02        2972.00           1525           8.00        11.77
  232.05        2972.25           1528           4.00         2.00
  232.08        2972.50           1531           4.00         2.00
  232.10        2972.75           1535           8.00        11.77
  232.13        2973.00           1538           6.00         3.05
  232.16        2973.25           1541           7.00         7.41
  232.18        2973.50           1545           0.00         2.00
  232.21        2973.75           1548           0.00         2.00
  232.24        2974.00           1551           2.00         2.00
  232.27        2974.25           1555           2.00         2.00
  232.29        2974.50           1558           0.00         2.00
  232.32        2974.75           1561           8.00        11.77
  232.35        2975.00           1565           8.00        11.77
  232.37        2975.25           1568           8.00        11.77
  232.40        2975.50           1571           4.00         2.00
  232.43        2975.75           1575           5.00         2.00
  232.46        2976.00           1578           8.00        11.77
  232.48        2976.25           1581           5.00         2.00
  232.51        2976.50           1585           7.00         7.41
  232.54        2976.75           1588           4.00         2.00
  232.56        2977.00           1591           8.00        11.77
  232.59        2977.25           1595           3.00         2.00
  232.62        2977.50           1598           8.00        11.77
  232.65        2977.75           1601           3.00         2.00
  232.67        2978.00           1605           0.00         2.00
  232.70        2978.25           1608           3.00         2.00
  232.73        2978.50           1611           8.00        11.77
  232.75        2978.75           1615           2.00         2.00
  232.78        2979.00           1618           8.00        11.77
  232.81        2979.25           1621           5.00         2.00
  232.84        2979.50           1625           8.00        11.77
  232.86        2979.75           1628           0.00         2.00
  232.89        2980.00           1631           0.00         2.00
  232.92        2980.25           1635           0.00         2.00
  232.94        2980.50           1638           5.00         2.00
  232.97        2980.75           1641           6.00         3.05
  233.00        2981.00           1645           8.00        11.77
  233.03        2981.25           1648           0.00         2.00
  233.05        2981.50           1651           5.00         2.00
  233.08        2981.75           1655           0.00         2.00
  233.11        2982.00           1658           2.00         2.00
  233.13        2982.25           1661           8.00        11.77
  233.16        2982.50           1665           5.00         2.00
  233.19        2982.75           1668           8.00        11.77
  233.21        2983.00           1671           0.00         2.00
  233.24        2983.25           1675           0.00         2.00
  233.27        2983.50           1678           8.00        11.77
  233.30        2983.75           1681           8.00        11.77
  233.32        2984.00           1685           3.00         2.00
HS scan finished at 03:53:31
end
