************************************************************
  HS Scan of (1) Internal mercury lamp
************************************************************
Integration time is 0.2294 seconds per sample
dh100317Tamanrasset 22.79-5.529 2.746401pr865
************************************************************
Dead Time -------------------------  2.8E-08 
Number of Cycles Used -------------  4 
Starting Wavelength (Angstroms) ---  2950 
Final Wavelength (Angstoms) -------  2984 
Wavelength Increment (Angstroms) --  .25 
Filter Wheel #1 Position ---------- (1) Ground quartz diffuser (ND=2.32)
Filter Wheel #2 Position ---------- (1) Neutral Density 0.494



************************************************************
HS scan start time = 03:35:17
Dark Count =  5.9 


Time (GMT)  Wavelength (Ang)  Step Number  Raw Counts  Counts/Second

  215.64        2950.00           1233           2.00         2.00
  215.70        2950.25           1236           0.00         2.00
  215.73        2950.50           1239           0.00         2.00
  215.75        2950.75           1242           0.00         2.00
  215.78        2951.00           1246           0.00         2.00
  215.81        2951.25           1249           2.00         2.00
  215.83        2951.50           1252           2.00         2.00
  215.86        2951.75           1256           8.00         9.15
  215.89        2952.00           1259           8.00         9.15
  215.92        2952.25           1262           1.00         2.00
  215.94        2952.50           1266           8.00         9.15
  215.97        2952.75           1269           0.00         2.00
  216.00        2953.00           1272           8.00         9.15
  216.02        2953.25           1276           4.00         2.00
  216.05        2953.50           1279           0.00         2.00
  216.08        2953.75           1282           3.00         2.00
  216.11        2954.00           1286           2.00         2.00
  216.13        2954.25           1289           0.00         2.00
  216.16        2954.50           1292           0.00         2.00
  216.19        2954.75           1295           0.00         2.00
  216.21        2955.00           1299           8.00         9.15
  216.24        2955.25           1302           1.00         2.00
  216.27        2955.50           1305           8.00         9.15
  216.30        2955.75           1309           7.00         4.80
  216.32        2956.00           1312           7.00         4.80
  216.35        2956.25           1315           8.00         9.15
  216.38        2956.50           1319           6.00         2.00
  216.40        2956.75           1322           0.00         2.00
  216.43        2957.00           1325           8.00         9.15
  216.46        2957.25           1329           8.00         9.15
  216.49        2957.50           1332           6.00         2.00
  216.51        2957.75           1335           3.00         2.00
  216.54        2958.00           1339           6.00         2.00
  216.57        2958.25           1342           0.00         2.00
  216.59        2958.50           1345           8.00         9.15
  216.62        2958.75           1348           8.00         9.15
  216.65        2959.00           1352           8.00         9.15
  216.68        2959.25           1355           1.00         2.00
  216.70        2959.50           1358           4.00         2.00
  216.73        2959.75           1362           8.00         9.15
  216.76        2960.00           1365           8.00         9.15
  216.78        2960.25           1368           0.00         2.00
  216.81        2960.50           1372           4.00         2.00
  216.84        2960.75           1375           8.00         9.15
  216.87        2961.00           1378           8.00         9.15
  216.89        2961.25           1382           0.00         2.00
  216.92        2961.50           1385           4.00         2.00
  216.95        2961.75           1388           8.00         9.15
  216.97        2962.00           1392           3.00         2.00
  217.00        2962.25           1395           7.00         4.80
  217.03        2962.50           1398           8.00         9.15
  217.06        2962.75           1402           0.00         2.00
  217.08        2963.00           1405           0.00         2.00
  217.11        2963.25           1408           8.00         9.15
  217.14        2963.50           1412           8.00         9.15
  217.16        2963.75           1415           3.00         2.00
  217.19        2964.00           1418           8.00         9.15
  217.22        2964.25           1422           8.00         9.15
  217.25        2964.50           1425           4.00         2.00
  217.27        2964.75           1428           0.00         2.00
  217.30        2965.00           1431           8.00         9.15
  217.33        2965.25           1435           1.00         2.00
  217.35        2965.50           1438           5.00         2.00
  217.38        2965.75           1441           0.00         2.00
  217.41        2966.00           1445           6.00         2.00
  217.44        2966.25           1448           0.00         2.00
  217.46        2966.50           1451           0.00         2.00
  217.49        2966.75           1455           8.00         9.15
  217.52        2967.00           1458           8.00         9.15
  217.54        2967.25           1461           8.00         9.15
  217.57        2967.50           1465           3.00         2.00
  217.60        2967.75           1468           0.00         2.00
  217.63        2968.00           1471           0.00         2.00
  217.65        2968.25           1475           8.00         9.15
  217.68        2968.50           1478           2.00         2.00
  217.71        2968.75           1481           5.00         2.00
  217.73        2969.00           1485           8.00         9.15
  217.76        2969.25           1488           8.00         9.15
  217.79        2969.50           1491           0.00         2.00
  217.82        2969.75           1495           0.00         2.00
  217.84        2970.00           1498           0.00         2.00
  217.87        2970.25           1501           7.00         4.80
  217.90        2970.50           1505           2.00         2.00
  217.92        2970.75           1508           0.00         2.00
  217.95        2971.00           1511           5.00         2.00
  217.98        2971.25           1515           8.00         9.15
  218.01        2971.50           1518           3.00         2.00
  218.03        2971.75           1521           4.00         2.00
  218.06        2972.00           1525           8.00         9.15
  218.09        2972.25           1528           5.00         2.00
  218.12        2972.50           1531           8.00         9.15
  218.14        2972.75           1535           1.00         2.00
  218.17        2973.00           1538           2.00         2.00
  218.20        2973.25           1541           8.00         9.15
  218.22        2973.50           1545           3.00         2.00
  218.25        2973.75           1548           4.00         2.00
  218.28        2974.00           1551           5.00         2.00
  218.31        2974.25           1555           2.00         2.00
  218.33        2974.50           1558           0.00         2.00
  218.36        2974.75           1561           4.00         2.00
  218.39        2975.00           1565           2.00         2.00
  218.41        2975.25           1568           0.00         2.00
  218.44        2975.50           1571           8.00         9.15
  218.47        2975.75           1575           8.00         9.15
  218.49        2976.00           1578           5.00         2.00
  218.52        2976.25           1581           0.00         2.00
  218.55        2976.50           1585           4.00         2.00
  218.58        2976.75           1588           5.00         2.00
  218.60        2977.00           1591           0.00         2.00
  218.63        2977.25           1595           4.00         2.00
  218.66        2977.50           1598           0.00         2.00
  218.69        2977.75           1601           5.00         2.00
  218.71        2978.00           1605           5.00         2.00
  218.74        2978.25           1608           0.00         2.00
  218.77        2978.50           1611           3.00         2.00
  218.79        2978.75           1615           5.00         2.00
  218.82        2979.00           1618           0.00         2.00
  218.85        2979.25           1621           0.00         2.00
  218.87        2979.50           1625           8.00         9.15
  218.90        2979.75           1628           4.00         2.00
  218.93        2980.00           1631           8.00         9.15
  218.96        2980.25           1635           5.00         2.00
  218.98        2980.50           1638           0.00         2.00
  219.01        2980.75           1641           8.00         9.15
  219.04        2981.00           1645           6.00         2.00
  219.06        2981.25           1648           8.00         9.15
  219.09        2981.50           1651           8.00         9.15
  219.12        2981.75           1655           4.00         2.00
  219.15        2982.00           1658           0.00         2.00
  219.17        2982.25           1661           3.00         2.00
  219.20        2982.50           1665           0.00         2.00
  219.23        2982.75           1668           8.00         9.15
  219.25        2983.00           1671           7.00         4.80
  219.28        2983.25           1675           6.00         2.00
  219.31        2983.50           1678           3.00         2.00
  219.34        2983.75           1681           5.00         2.00
  219.36        2984.00           1685           4.00         2.00
HS scan finished at 03:39:33
end
