************************************************************
  HS Scan of (1) Internal mercury lamp
************************************************************
Integration time is 0.2294 seconds per sample
dh020317Tamanrasset 22.79-5.529 2.695419pr865
************************************************************
Dead Time -------------------------  2.8E-08 
Number of Cycles Used -------------  4 
Starting Wavelength (Angstroms) ---  2950 
Final Wavelength (Angstoms) -------  2984 
Wavelength Increment (Angstroms) --  .25 
Filter Wheel #1 Position ---------- (1) Ground quartz diffuser (ND=2.32)
Filter Wheel #2 Position ---------- (1) Neutral Density 0.494



************************************************************
HS scan start time = 03:42:16
Dark Count =  5.2 


Time (GMT)  Wavelength (Ang)  Step Number  Raw Counts  Counts/Second

  222.62        2950.00           1233           0.00         2.00
  222.68        2950.25           1236           8.00        12.21
  222.71        2950.50           1239           1.00         2.00
  222.73        2950.75           1242           0.00         2.00
  222.76        2951.00           1246           4.00         2.00
  222.79        2951.25           1249           4.00         2.00
  222.81        2951.50           1252           5.00         2.00
  222.84        2951.75           1256           6.00         3.49
  222.87        2952.00           1259           7.00         7.85
  222.90        2952.25           1262           0.00         2.00
  222.92        2952.50           1266           0.00         2.00
  222.95        2952.75           1269           6.00         3.49
  222.98        2953.00           1272           0.00         2.00
  223.00        2953.25           1276           3.00         2.00
  223.03        2953.50           1279           8.00        12.21
  223.06        2953.75           1282           8.00        12.21
  223.09        2954.00           1286           8.00        12.21
  223.11        2954.25           1289           0.00         2.00
  223.14        2954.50           1292           0.00         2.00
  223.17        2954.75           1295           0.00         2.00
  223.19        2955.00           1299           4.00         2.00
  223.22        2955.25           1302           0.00         2.00
  223.25        2955.50           1305           6.00         3.49
  223.28        2955.75           1309           0.00         2.00
  223.30        2956.00           1312           4.00         2.00
  223.33        2956.25           1315           8.00        12.21
  223.36        2956.50           1319           4.00         2.00
  223.38        2956.75           1322           0.00         2.00
  223.41        2957.00           1325           0.00         2.00
  223.44        2957.25           1329           0.00         2.00
  223.46        2957.50           1332           8.00        12.21
  223.49        2957.75           1335           8.00        12.21
  223.52        2958.00           1339           0.00         2.00
  223.55        2958.25           1342           8.00        12.21
  223.57        2958.50           1345           8.00        12.21
  223.60        2958.75           1348           3.00         2.00
  223.63        2959.00           1352           8.00        12.21
  223.65        2959.25           1355           4.00         2.00
  223.68        2959.50           1358           9.00        16.56
  223.71        2959.75           1362           0.00         2.00
  223.74        2960.00           1365           5.00         2.00
  223.76        2960.25           1368           8.00        12.21
  223.79        2960.50           1372           8.00        12.21
  223.82        2960.75           1375           2.00         2.00
  223.84        2961.00           1378           8.00        12.21
  223.87        2961.25           1382           0.00         2.00
  223.90        2961.50           1385           8.00        12.21
  223.93        2961.75           1388           5.00         2.00
  223.95        2962.00           1392           0.00         2.00
  223.98        2962.25           1395           0.00         2.00
  224.01        2962.50           1398           5.00         2.00
  224.03        2962.75           1402           6.00         3.49
  224.06        2963.00           1405           5.00         2.00
  224.09        2963.25           1408           8.00        12.21
  224.12        2963.50           1412           8.00        12.21
  224.14        2963.75           1415           8.00        12.21
  224.17        2964.00           1418           4.00         2.00
  224.20        2964.25           1422           0.00         2.00
  224.22        2964.50           1425           0.00         2.00
  224.25        2964.75           1428           0.00         2.00
  224.28        2965.00           1431           0.00         2.00
  224.31        2965.25           1435           8.00        12.21
  224.33        2965.50           1438           6.00         3.49
  224.36        2965.75           1441           5.00         2.00
  224.39        2966.00           1445           8.00        12.21
  224.41        2966.25           1448           0.00         2.00
  224.44        2966.50           1451           6.00         3.49
  224.47        2966.75           1455           1.00         2.00
  224.50        2967.00           1458           0.00         2.00
  224.52        2967.25           1461           0.00         2.00
  224.55        2967.50           1465           6.00         3.49
  224.58        2967.75           1468           8.00        12.21
  224.60        2968.00           1471           7.00         7.85
  224.63        2968.25           1475           0.00         2.00
  224.66        2968.50           1478           8.00        12.21
  224.69        2968.75           1481           3.00         2.00
  224.71        2969.00           1485           3.00         2.00
  224.74        2969.25           1488           8.00        12.21
  224.77        2969.50           1491           0.00         2.00
  224.79        2969.75           1495           4.00         2.00
  224.82        2970.00           1498           4.00         2.00
  224.85        2970.25           1501           0.00         2.00
  224.87        2970.50           1505           0.00         2.00
  224.90        2970.75           1508           3.00         2.00
  224.93        2971.00           1511           8.00        12.21
  224.96        2971.25           1515           8.00        12.21
  224.98        2971.50           1518           0.00         2.00
  225.01        2971.75           1521           8.00        12.21
  225.04        2972.00           1525           2.00         2.00
  225.06        2972.25           1528           0.00         2.00
  225.09        2972.50           1531           6.00         3.49
  225.12        2972.75           1535           8.00        12.21
  225.15        2973.00           1538           8.00        12.21
  225.17        2973.25           1541           3.00         2.00
  225.20        2973.50           1545           0.00         2.00
  225.23        2973.75           1548           7.00         7.85
  225.25        2974.00           1551           0.00         2.00
  225.28        2974.25           1555           8.00        12.21
  225.31        2974.50           1558           6.00         3.49
  225.34        2974.75           1561           0.00         2.00
  225.36        2975.00           1565           3.00         2.00
  225.39        2975.25           1568           0.00         2.00
  225.42        2975.50           1571           4.00         2.00
  225.44        2975.75           1575           0.00         2.00
  225.47        2976.00           1578           7.00         7.85
  225.50        2976.25           1581           1.00         2.00
  225.53        2976.50           1585           4.00         2.00
  225.55        2976.75           1588           7.00         7.85
  225.58        2977.00           1591           8.00        12.21
  225.61        2977.25           1595           1.00         2.00
  225.63        2977.50           1598           8.00        12.21
  225.66        2977.75           1601           8.00        12.21
  225.69        2978.00           1605           3.00         2.00
  225.71        2978.25           1608           0.00         2.00
  225.74        2978.50           1611           5.00         2.00
  225.77        2978.75           1615           8.00        12.21
  225.80        2979.00           1618           3.00         2.00
  225.82        2979.25           1621           8.00        12.21
  225.85        2979.50           1625           5.00         2.00
  225.88        2979.75           1628           1.00         2.00
  225.91        2980.00           1631           7.00         7.85
  225.93        2980.25           1635           8.00        12.21
  225.96        2980.50           1638           0.00         2.00
  225.99        2980.75           1641           3.00         2.00
  226.01        2981.00           1645           0.00         2.00
  226.04        2981.25           1648           1.00         2.00
  226.07        2981.50           1651           6.00         3.49
  226.09        2981.75           1655           8.00        12.21
  226.12        2982.00           1658           8.00        12.21
  226.15        2982.25           1661           0.00         2.00
  226.18        2982.50           1665           8.00        12.21
  226.20        2982.75           1668           8.00        12.21
  226.23        2983.00           1671           8.00        12.21
  226.26        2983.25           1675           8.00        12.21
  226.28        2983.50           1678           3.00         2.00
  226.31        2983.75           1681           5.00         2.00
  226.34        2984.00           1685           7.00         7.85
HS scan finished at 03:46:32
end
