************************************************************
  HS Scan of (1) Internal mercury lamp
************************************************************
Integration time is 0.2294 seconds per sample
dh080317Tamanrasset 22.79-5.529 2.726009pr865
************************************************************
Dead Time -------------------------  2.8E-08 
Number of Cycles Used -------------  4 
Starting Wavelength (Angstroms) ---  2950 
Final Wavelength (Angstoms) -------  2984 
Wavelength Increment (Angstroms) --  .25 
Filter Wheel #1 Position ---------- (1) Ground quartz diffuser (ND=2.32)
Filter Wheel #2 Position ---------- (1) Neutral Density 0.494



************************************************************
HS scan start time = 03:37:32
Dark Count =  4.1 


Time (GMT)  Wavelength (Ang)  Step Number  Raw Counts  Counts/Second

  217.89        2950.00           1233           0.00         2.00
  217.96        2950.25           1236           8.00        17.00
  217.99        2950.50           1239           5.00         3.92
  218.01        2950.75           1242           6.00         8.28
  218.04        2951.00           1246           0.00         2.00
  218.07        2951.25           1249           8.00        17.00
  218.09        2951.50           1252           3.00         2.00
  218.12        2951.75           1256           8.00        17.00
  218.15        2952.00           1259           8.00        17.00
  218.18        2952.25           1262           0.00         2.00
  218.20        2952.50           1266           0.00         2.00
  218.23        2952.75           1269           1.00         2.00
  218.26        2953.00           1272           0.00         2.00
  218.28        2953.25           1276           5.00         3.92
  218.31        2953.50           1279           8.00        17.00
  218.34        2953.75           1282           8.00        17.00
  218.36        2954.00           1286           6.00         8.28
  218.39        2954.25           1289           0.00         2.00
  218.42        2954.50           1292           2.00         2.00
  218.45        2954.75           1295           0.00         2.00
  218.47        2955.00           1299           2.00         2.00
  218.50        2955.25           1302           8.00        17.00
  218.53        2955.50           1305           8.00        17.00
  218.55        2955.75           1309           4.00         2.00
  218.58        2956.00           1312           8.00        17.00
  218.61        2956.25           1315           7.00        12.64
  218.64        2956.50           1319           8.00        17.00
  218.66        2956.75           1322           4.00         2.00
  218.69        2957.00           1325           0.00         2.00
  218.72        2957.25           1329           6.00         8.28
  218.74        2957.50           1332           6.00         8.28
  218.77        2957.75           1335           8.00        17.00
  218.80        2958.00           1339           8.00        17.00
  218.83        2958.25           1342           0.00         2.00
  218.85        2958.50           1345           0.00         2.00
  218.88        2958.75           1348           6.00         8.28
  218.91        2959.00           1352           6.00         8.28
  218.93        2959.25           1355           8.00        17.00
  218.96        2959.50           1358           0.00         2.00
  218.99        2959.75           1362           8.00        17.00
  219.02        2960.00           1365           2.00         2.00
  219.04        2960.25           1368           3.00         2.00
  219.07        2960.50           1372           8.00        17.00
  219.10        2960.75           1375           2.00         2.00
  219.12        2961.00           1378           2.00         2.00
  219.15        2961.25           1382           8.00        17.00
  219.18        2961.50           1385           0.00         2.00
  219.21        2961.75           1388           0.00         2.00
  219.23        2962.00           1392           5.00         3.92
  219.26        2962.25           1395           0.00         2.00
  219.29        2962.50           1398           2.00         2.00
  219.31        2962.75           1402           8.00        17.00
  219.34        2963.00           1405           3.00         2.00
  219.37        2963.25           1408           8.00        17.00
  219.40        2963.50           1412           8.00        17.00
  219.42        2963.75           1415           4.00         2.00
  219.45        2964.00           1418           0.00         2.00
  219.48        2964.25           1422           5.00         3.92
  219.50        2964.50           1425           8.00        17.00
  219.53        2964.75           1428           0.00         2.00
  219.56        2965.00           1431           0.00         2.00
  219.58        2965.25           1435           0.00         2.00
  219.61        2965.50           1438           0.00         2.00
  219.64        2965.75           1441           0.00         2.00
  219.67        2966.00           1445           0.00         2.00
  219.69        2966.25           1448           8.00        17.00
  219.72        2966.50           1451           7.00        12.64
  219.75        2966.75           1455           0.00         2.00
  219.77        2967.00           1458           4.00         2.00
  219.80        2967.25           1461           0.00         2.00
  219.83        2967.50           1465           8.00        17.00
  219.86        2967.75           1468           0.00         2.00
  219.88        2968.00           1471           7.00        12.64
  219.91        2968.25           1475           8.00        17.00
  219.94        2968.50           1478           4.00         2.00
  219.97        2968.75           1481           6.00         8.28
  219.99        2969.00           1485           0.00         2.00
  220.02        2969.25           1488           8.00        17.00
  220.05        2969.50           1491           5.00         3.92
  220.07        2969.75           1495           8.00        17.00
  220.10        2970.00           1498           3.00         2.00
  220.13        2970.25           1501           0.00         2.00
  220.16        2970.50           1505           8.00        17.00
  220.18        2970.75           1508           1.00         2.00
  220.21        2971.00           1511           3.00         2.00
  220.24        2971.25           1515           0.00         2.00
  220.26        2971.50           1518           8.00        17.00
  220.29        2971.75           1521           3.00         2.00
  220.32        2972.00           1525           0.00         2.00
  220.34        2972.25           1528           8.00        17.00
  220.37        2972.50           1531           5.00         3.92
  220.40        2972.75           1535           8.00        17.00
  220.43        2973.00           1538           6.00         8.28
  220.45        2973.25           1541           6.00         8.28
  220.48        2973.50           1545           8.00        17.00
  220.51        2973.75           1548           0.00         2.00
  220.53        2974.00           1551           8.00        17.00
  220.56        2974.25           1555           0.00         2.00
  220.59        2974.50           1558           2.00         2.00
  220.62        2974.75           1561           5.00         3.92
  220.64        2975.00           1565           6.00         8.28
  220.67        2975.25           1568           8.00        17.00
  220.70        2975.50           1571           2.00         2.00
  220.72        2975.75           1575           3.00         2.00
  220.75        2976.00           1578           0.00         2.00
  220.78        2976.25           1581           2.00         2.00
  220.81        2976.50           1585           8.00        17.00
  220.83        2976.75           1588           7.00        12.64
  220.86        2977.00           1591           5.00         3.92
  220.89        2977.25           1595           8.00        17.00
  220.91        2977.50           1598           8.00        17.00
  220.94        2977.75           1601           0.00         2.00
  220.97        2978.00           1605           0.00         2.00
  221.00        2978.25           1608           8.00        17.00
  221.02        2978.50           1611           0.00         2.00
  221.05        2978.75           1615           6.00         8.28
  221.08        2979.00           1618           8.00        17.00
  221.10        2979.25           1621           3.00         2.00
  221.13        2979.50           1625           9.00        21.36
  221.16        2979.75           1628           4.00         2.00
  221.19        2980.00           1631           5.00         3.92
  221.21        2980.25           1635           0.00         2.00
  221.24        2980.50           1638           8.00        17.00
  221.27        2980.75           1641           8.00        17.00
  221.29        2981.00           1645           7.00        12.64
  221.32        2981.25           1648           6.00         8.28
  221.35        2981.50           1651           3.00         2.00
  221.37        2981.75           1655           2.00         2.00
  221.40        2982.00           1658           0.00         2.00
  221.43        2982.25           1661           4.00         2.00
  221.46        2982.50           1665           3.00         2.00
  221.48        2982.75           1668           1.00         2.00
  221.51        2983.00           1671           1.00         2.00
  221.54        2983.25           1675           8.00        17.00
  221.57        2983.50           1678           0.00         2.00
  221.59        2983.75           1681           8.00        17.00
  221.62        2984.00           1685           7.00        12.64
HS scan finished at 03:41:48
end
