************************************************************
  HS Scan of (1) Internal mercury lamp
************************************************************
Integration time is 0.2294 seconds per sample
dh040317Tamanrasset 22.79-5.529 2.710714pr865
************************************************************
Dead Time -------------------------  2.8E-08 
Number of Cycles Used -------------  4 
Starting Wavelength (Angstroms) ---  2950 
Final Wavelength (Angstoms) -------  2984 
Wavelength Increment (Angstroms) --  .25 
Filter Wheel #1 Position ---------- (1) Ground quartz diffuser (ND=2.32)
Filter Wheel #2 Position ---------- (1) Neutral Density 0.494



************************************************************
HS scan start time = 03:41:16
Dark Count =  6.2 


Time (GMT)  Wavelength (Ang)  Step Number  Raw Counts  Counts/Second

  221.62        2950.00           1233           2.00         2.00
  221.68        2950.25           1236           6.00         2.00
  221.71        2950.50           1239           0.00         2.00
  221.74        2950.75           1242           7.00         3.49
  221.76        2951.00           1246           2.00         2.00
  221.79        2951.25           1249           6.00         2.00
  221.82        2951.50           1252           0.00         2.00
  221.84        2951.75           1256           8.00         7.85
  221.87        2952.00           1259           3.00         2.00
  221.90        2952.25           1262           8.00         7.85
  221.93        2952.50           1266           8.00         7.85
  221.95        2952.75           1269           8.00         7.85
  221.98        2953.00           1272           8.00         7.85
  222.01        2953.25           1276           0.00         2.00
  222.03        2953.50           1279           8.00         7.85
  222.06        2953.75           1282           8.00         7.85
  222.09        2954.00           1286           8.00         7.85
  222.12        2954.25           1289           3.00         2.00
  222.14        2954.50           1292           8.00         7.85
  222.17        2954.75           1295           9.00        12.21
  222.20        2955.00           1299           0.00         2.00
  222.22        2955.25           1302           8.00         7.85
  222.25        2955.50           1305           8.00         7.85
  222.28        2955.75           1309           6.00         2.00
  222.30        2956.00           1312           8.00         7.85
  222.33        2956.25           1315           6.00         2.00
  222.36        2956.50           1319           7.00         3.49
  222.39        2956.75           1322           0.00         2.00
  222.41        2957.00           1325           8.00         7.85
  222.44        2957.25           1329           8.00         7.85
  222.47        2957.50           1332           0.00         2.00
  222.49        2957.75           1335           5.00         2.00
  222.52        2958.00           1339           8.00         7.85
  222.55        2958.25           1342           1.00         2.00
  222.58        2958.50           1345           0.00         2.00
  222.60        2958.75           1348           0.00         2.00
  222.63        2959.00           1352           0.00         2.00
  222.66        2959.25           1355           8.00         7.85
  222.68        2959.50           1358           8.00         7.85
  222.71        2959.75           1362           2.00         2.00
  222.74        2960.00           1365           6.00         2.00
  222.77        2960.25           1368           0.00         2.00
  222.79        2960.50           1372           8.00         7.85
  222.82        2960.75           1375           2.00         2.00
  222.85        2961.00           1378           8.00         7.85
  222.87        2961.25           1382           0.00         2.00
  222.90        2961.50           1385           8.00         7.85
  222.93        2961.75           1388           0.00         2.00
  222.96        2962.00           1392           2.00         2.00
  222.98        2962.25           1395           7.00         3.49
  223.01        2962.50           1398           7.00         3.49
  223.04        2962.75           1402           0.00         2.00
  223.06        2963.00           1405           0.00         2.00
  223.09        2963.25           1408           3.00         2.00
  223.12        2963.50           1412           8.00         7.85
  223.15        2963.75           1415           0.00         2.00
  223.17        2964.00           1418           5.00         2.00
  223.20        2964.25           1422           0.00         2.00
  223.23        2964.50           1425           8.00         7.85
  223.25        2964.75           1428           1.00         2.00
  223.28        2965.00           1431           6.00         2.00
  223.31        2965.25           1435           4.00         2.00
  223.33        2965.50           1438           8.00         7.85
  223.36        2965.75           1441           3.00         2.00
  223.39        2966.00           1445           7.00         3.49
  223.42        2966.25           1448           0.00         2.00
  223.44        2966.50           1451           5.00         2.00
  223.47        2966.75           1455           0.00         2.00
  223.50        2967.00           1458           0.00         2.00
  223.53        2967.25           1461           0.00         2.00
  223.55        2967.50           1465           6.00         2.00
  223.58        2967.75           1468           1.00         2.00
  223.61        2968.00           1471           8.00         7.85
  223.63        2968.25           1475           0.00         2.00
  223.66        2968.50           1478           5.00         2.00
  223.69        2968.75           1481           2.00         2.00
  223.72        2969.00           1485           0.00         2.00
  223.74        2969.25           1488           8.00         7.85
  223.77        2969.50           1491           0.00         2.00
  223.80        2969.75           1495           1.00         2.00
  223.82        2970.00           1498           1.00         2.00
  223.85        2970.25           1501           8.00         7.85
  223.88        2970.50           1505           8.00         7.85
  223.91        2970.75           1508           4.00         2.00
  223.93        2971.00           1511           0.00         2.00
  223.96        2971.25           1515           8.00         7.85
  223.99        2971.50           1518           4.00         2.00
  224.01        2971.75           1521           0.00         2.00
  224.04        2972.00           1525           5.00         2.00
  224.07        2972.25           1528           6.00         2.00
  224.09        2972.50           1531           8.00         7.85
  224.12        2972.75           1535           3.00         2.00
  224.15        2973.00           1538           5.00         2.00
  224.18        2973.25           1541           6.00         2.00
  224.20        2973.50           1545           8.00         7.85
  224.23        2973.75           1548           0.00         2.00
  224.26        2974.00           1551           0.00         2.00
  224.28        2974.25           1555           3.00         2.00
  224.31        2974.50           1558           4.00         2.00
  224.34        2974.75           1561           0.00         2.00
  224.37        2975.00           1565           0.00         2.00
  224.39        2975.25           1568           0.00         2.00
  224.42        2975.50           1571           8.00         7.85
  224.45        2975.75           1575           8.00         7.85
  224.47        2976.00           1578           5.00         2.00
  224.50        2976.25           1581           8.00         7.85
  224.53        2976.50           1585           4.00         2.00
  224.56        2976.75           1588           1.00         2.00
  224.58        2977.00           1591           7.00         3.49
  224.61        2977.25           1595           1.00         2.00
  224.64        2977.50           1598           5.00         2.00
  224.66        2977.75           1601           8.00         7.85
  224.69        2978.00           1605           8.00         7.85
  224.72        2978.25           1608           4.00         2.00
  224.75        2978.50           1611           3.00         2.00
  224.77        2978.75           1615           5.00         2.00
  224.80        2979.00           1618           8.00         7.85
  224.83        2979.25           1621           2.00         2.00
  224.85        2979.50           1625           8.00         7.85
  224.88        2979.75           1628           8.00         7.85
  224.91        2980.00           1631           4.00         2.00
  224.93        2980.25           1635           4.00         2.00
  224.96        2980.50           1638           8.00         7.85
  224.99        2980.75           1641           4.00         2.00
  225.02        2981.00           1645           8.00         7.85
  225.04        2981.25           1648           8.00         7.85
  225.07        2981.50           1651           4.00         2.00
  225.10        2981.75           1655           1.00         2.00
  225.12        2982.00           1658           0.00         2.00
  225.15        2982.25           1661           0.00         2.00
  225.18        2982.50           1665           0.00         2.00
  225.21        2982.75           1668           0.00         2.00
  225.23        2983.00           1671           8.00         7.85
  225.26        2983.25           1675           7.00         3.49
  225.29        2983.50           1678           4.00         2.00
  225.31        2983.75           1681           0.00         2.00
  225.34        2984.00           1685           8.00         7.85
HS scan finished at 03:45:32
end
