************************************************************
  HS Scan of (1) Internal mercury lamp
************************************************************
Integration time is 0.2294 seconds per sample
dh070317Tamanrasset 22.79-5.529 2.736205pr865
************************************************************
Dead Time -------------------------  2.8E-08 
Number of Cycles Used -------------  4 
Starting Wavelength (Angstroms) ---  2950 
Final Wavelength (Angstoms) -------  2984 
Wavelength Increment (Angstroms) --  .25 
Filter Wheel #1 Position ---------- (1) Ground quartz diffuser (ND=2.32)
Filter Wheel #2 Position ---------- (1) Neutral Density 0.494



************************************************************
HS scan start time = 03:38:17
Dark Count =  4.9 


Time (GMT)  Wavelength (Ang)  Step Number  Raw Counts  Counts/Second

  218.64        2950.00           1233           0.00         2.00
  218.70        2950.25           1236           0.00         2.00
  218.73        2950.50           1239           8.00        13.51
  218.76        2950.75           1242           4.00         2.00
  218.78        2951.00           1246           5.00         2.00
  218.81        2951.25           1249           0.00         2.00
  218.84        2951.50           1252           8.00        13.51
  218.87        2951.75           1256           8.00        13.51
  218.89        2952.00           1259           6.00         4.80
  218.92        2952.25           1262           8.00        13.51
  218.95        2952.50           1266           7.00         9.15
  218.97        2952.75           1269           8.00        13.51
  219.00        2953.00           1272           0.00         2.00
  219.03        2953.25           1276           2.00         2.00
  219.06        2953.50           1279           4.00         2.00
  219.08        2953.75           1282           0.00         2.00
  219.11        2954.00           1286           1.00         2.00
  219.14        2954.25           1289           5.00         2.00
  219.16        2954.50           1292           0.00         2.00
  219.19        2954.75           1295           8.00        13.51
  219.22        2955.00           1299           0.00         2.00
  219.25        2955.25           1302           3.00         2.00
  219.27        2955.50           1305           0.00         2.00
  219.30        2955.75           1309           8.00        13.51
  219.33        2956.00           1312           7.00         9.15
  219.35        2956.25           1315           2.00         2.00
  219.38        2956.50           1319           0.00         2.00
  219.41        2956.75           1322           7.00         9.15
  219.44        2957.00           1325           5.00         2.00
  219.46        2957.25           1329           8.00        13.51
  219.49        2957.50           1332           6.00         4.80
  219.52        2957.75           1335           3.00         2.00
  219.54        2958.00           1339           0.00         2.00
  219.57        2958.25           1342           0.00         2.00
  219.60        2958.50           1345           4.00         2.00
  219.63        2958.75           1348           8.00        13.51
  219.65        2959.00           1352           4.00         2.00
  219.68        2959.25           1355           0.00         2.00
  219.71        2959.50           1358           5.00         2.00
  219.73        2959.75           1362           0.00         2.00
  219.76        2960.00           1365           4.00         2.00
  219.79        2960.25           1368           3.00         2.00
  219.82        2960.50           1372           6.00         4.80
  219.84        2960.75           1375           5.00         2.00
  219.87        2961.00           1378           4.00         2.00
  219.90        2961.25           1382           3.00         2.00
  219.92        2961.50           1385           3.00         2.00
  219.95        2961.75           1388           8.00        13.51
  219.98        2962.00           1392           5.00         2.00
  220.01        2962.25           1395           5.00         2.00
  220.03        2962.50           1398           0.00         2.00
  220.06        2962.75           1402           8.00        13.51
  220.09        2963.00           1405           4.00         2.00
  220.11        2963.25           1408           5.00         2.00
  220.14        2963.50           1412           7.00         9.15
  220.17        2963.75           1415           2.00         2.00
  220.19        2964.00           1418           3.00         2.00
  220.22        2964.25           1422           6.00         4.80
  220.25        2964.50           1425           6.00         4.80
  220.28        2964.75           1428           5.00         2.00
  220.30        2965.00           1431           1.00         2.00
  220.33        2965.25           1435           8.00        13.51
  220.36        2965.50           1438           8.00        13.51
  220.38        2965.75           1441           8.00        13.51
  220.41        2966.00           1445           8.00        13.51
  220.44        2966.25           1448           7.00         9.15
  220.47        2966.50           1451           4.00         2.00
  220.49        2966.75           1455           8.00        13.51
  220.52        2967.00           1458           1.00         2.00
  220.55        2967.25           1461           0.00         2.00
  220.57        2967.50           1465           4.00         2.00
  220.60        2967.75           1468           6.00         4.80
  220.63        2968.00           1471           0.00         2.00
  220.66        2968.25           1475           4.00         2.00
  220.68        2968.50           1478           8.00        13.51
  220.71        2968.75           1481           3.00         2.00
  220.74        2969.00           1485           0.00         2.00
  220.76        2969.25           1488           8.00        13.51
  220.79        2969.50           1491           7.00         9.15
  220.82        2969.75           1495           0.00         2.00
  220.85        2970.00           1498           0.00         2.00
  220.87        2970.25           1501           3.00         2.00
  220.90        2970.50           1505           8.00        13.51
  220.93        2970.75           1508           6.00         4.80
  220.95        2971.00           1511           2.00         2.00
  220.98        2971.25           1515           6.00         4.80
  221.01        2971.50           1518           8.00        13.51
  221.03        2971.75           1521           1.00         2.00
  221.06        2972.00           1525           0.00         2.00
  221.09        2972.25           1528           8.00        13.51
  221.12        2972.50           1531           2.00         2.00
  221.14        2972.75           1535           8.00        13.51
  221.17        2973.00           1538           0.00         2.00
  221.20        2973.25           1541           4.00         2.00
  221.22        2973.50           1545           8.00        13.51
  221.25        2973.75           1548           2.00         2.00
  221.28        2974.00           1551           0.00         2.00
  221.31        2974.25           1555           8.00        13.51
  221.33        2974.50           1558           5.00         2.00
  221.36        2974.75           1561           6.00         4.80
  221.39        2975.00           1565           0.00         2.00
  221.41        2975.25           1568           6.00         4.80
  221.44        2975.50           1571           5.00         2.00
  221.47        2975.75           1575           5.00         2.00
  221.50        2976.00           1578           8.00        13.51
  221.52        2976.25           1581           2.00         2.00
  221.55        2976.50           1585           6.00         4.80
  221.58        2976.75           1588           7.00         9.15
  221.60        2977.00           1591           0.00         2.00
  221.63        2977.25           1595           5.00         2.00
  221.66        2977.50           1598           1.00         2.00
  221.69        2977.75           1601           4.00         2.00
  221.71        2978.00           1605           0.00         2.00
  221.74        2978.25           1608           5.00         2.00
  221.77        2978.50           1611           8.00        13.51
  221.79        2978.75           1615           2.00         2.00
  221.82        2979.00           1618           2.00         2.00
  221.85        2979.25           1621           8.00        13.51
  221.88        2979.50           1625           5.00         2.00
  221.90        2979.75           1628           8.00        13.51
  221.93        2980.00           1631           0.00         2.00
  221.96        2980.25           1635           5.00         2.00
  221.98        2980.50           1638           0.00         2.00
  222.01        2980.75           1641           6.00         4.80
  222.04        2981.00           1645           2.00         2.00
  222.06        2981.25           1648           3.00         2.00
  222.09        2981.50           1651           8.00        13.51
  222.12        2981.75           1655           8.00        13.51
  222.15        2982.00           1658           7.00         9.15
  222.17        2982.25           1661           8.00        13.51
  222.20        2982.50           1665           1.00         2.00
  222.23        2982.75           1668           8.00        13.51
  222.25        2983.00           1671           0.00         2.00
  222.28        2983.25           1675           0.00         2.00
  222.31        2983.50           1678           0.00         2.00
  222.34        2983.75           1681           0.00         2.00
  222.36        2984.00           1685           6.00         4.80
HS scan finished at 03:42:33
end
