************************************************************
  HS Scan of (1) Internal mercury lamp
************************************************************
Integration time is 0.2294 seconds per sample
dh030317Tamanrasset 22.79-5.529 2.705615pr865
************************************************************
Dead Time -------------------------  2.8E-08 
Number of Cycles Used -------------  4 
Starting Wavelength (Angstroms) ---  2950 
Final Wavelength (Angstoms) -------  2984 
Wavelength Increment (Angstroms) --  .25 
Filter Wheel #1 Position ---------- (1) Ground quartz diffuser (ND=2.32)
Filter Wheel #2 Position ---------- (1) Neutral Density 0.494



************************************************************
HS scan start time = 03:41:16
Dark Count =  6.1 


Time (GMT)  Wavelength (Ang)  Step Number  Raw Counts  Counts/Second

  221.62        2950.00           1233           8.00         8.28
  221.68        2950.25           1236           1.00         2.00
  221.71        2950.50           1239           0.00         2.00
  221.73        2950.75           1242           4.00         2.00
  221.76        2951.00           1246           7.00         3.92
  221.79        2951.25           1249           8.00         8.28
  221.81        2951.50           1252           0.00         2.00
  221.84        2951.75           1256           0.00         2.00
  221.87        2952.00           1259           3.00         2.00
  221.90        2952.25           1262           8.00         8.28
  221.92        2952.50           1266           6.00         2.00
  221.95        2952.75           1269           6.00         2.00
  221.98        2953.00           1272           0.00         2.00
  222.00        2953.25           1276           0.00         2.00
  222.03        2953.50           1279           4.00         2.00
  222.06        2953.75           1282           0.00         2.00
  222.09        2954.00           1286           0.00         2.00
  222.11        2954.25           1289           8.00         8.28
  222.14        2954.50           1292           7.00         3.92
  222.17        2954.75           1295           7.00         3.92
  222.19        2955.00           1299           8.00         8.28
  222.22        2955.25           1302           0.00         2.00
  222.25        2955.50           1305           0.00         2.00
  222.27        2955.75           1309           8.00         8.28
  222.30        2956.00           1312           8.00         8.28
  222.33        2956.25           1315           4.00         2.00
  222.36        2956.50           1319           8.00         8.28
  222.38        2956.75           1322           5.00         2.00
  222.41        2957.00           1325           5.00         2.00
  222.44        2957.25           1329           0.00         2.00
  222.46        2957.50           1332           7.00         3.92
  222.49        2957.75           1335           6.00         2.00
  222.52        2958.00           1339           1.00         2.00
  222.55        2958.25           1342           8.00         8.28
  222.57        2958.50           1345           1.00         2.00
  222.60        2958.75           1348           0.00         2.00
  222.63        2959.00           1352           8.00         8.28
  222.65        2959.25           1355           2.00         2.00
  222.68        2959.50           1358           8.00         8.28
  222.71        2959.75           1362           8.00         8.28
  222.74        2960.00           1365           0.00         2.00
  222.76        2960.25           1368           0.00         2.00
  222.79        2960.50           1372           2.00         2.00
  222.82        2960.75           1375           0.00         2.00
  222.84        2961.00           1378           8.00         8.28
  222.87        2961.25           1382           0.00         2.00
  222.90        2961.50           1385           8.00         8.28
  222.93        2961.75           1388           2.00         2.00
  222.95        2962.00           1392           8.00         8.28
  222.98        2962.25           1395           1.00         2.00
  223.01        2962.50           1398           8.00         8.28
  223.03        2962.75           1402           0.00         2.00
  223.06        2963.00           1405           8.00         8.28
  223.09        2963.25           1408           6.00         2.00
  223.12        2963.50           1412           2.00         2.00
  223.14        2963.75           1415           0.00         2.00
  223.17        2964.00           1418           0.00         2.00
  223.20        2964.25           1422           0.00         2.00
  223.22        2964.50           1425           8.00         8.28
  223.25        2964.75           1428           1.00         2.00
  223.28        2965.00           1431           5.00         2.00
  223.31        2965.25           1435           6.00         2.00
  223.33        2965.50           1438           1.00         2.00
  223.36        2965.75           1441           4.00         2.00
  223.39        2966.00           1445           8.00         8.28
  223.41        2966.25           1448           5.00         2.00
  223.44        2966.50           1451           8.00         8.28
  223.47        2966.75           1455           0.00         2.00
  223.49        2967.00           1458           5.00         2.00
  223.52        2967.25           1461           8.00         8.28
  223.55        2967.50           1465           4.00         2.00
  223.58        2967.75           1468           2.00         2.00
  223.60        2968.00           1471           4.00         2.00
  223.63        2968.25           1475           6.00         2.00
  223.66        2968.50           1478           8.00         8.28
  223.68        2968.75           1481           6.00         2.00
  223.71        2969.00           1485           6.00         2.00
  223.74        2969.25           1488           8.00         8.28
  223.77        2969.50           1491           0.00         2.00
  223.79        2969.75           1495           4.00         2.00
  223.82        2970.00           1498           3.00         2.00
  223.85        2970.25           1501           6.00         2.00
  223.87        2970.50           1505           3.00         2.00
  223.90        2970.75           1508           2.00         2.00
  223.93        2971.00           1511           4.00         2.00
  223.96        2971.25           1515           8.00         8.28
  223.98        2971.50           1518           8.00         8.28
  224.01        2971.75           1521           8.00         8.28
  224.04        2972.00           1525           8.00         8.28
  224.06        2972.25           1528           8.00         8.28
  224.09        2972.50           1531           2.00         2.00
  224.12        2972.75           1535           3.00         2.00
  224.15        2973.00           1538           3.00         2.00
  224.17        2973.25           1541           8.00         8.28
  224.20        2973.50           1545           8.00         8.28
  224.23        2973.75           1548           8.00         8.28
  224.25        2974.00           1551           1.00         2.00
  224.28        2974.25           1555           8.00         8.28
  224.31        2974.50           1558           8.00         8.28
  224.33        2974.75           1561           4.00         2.00
  224.36        2975.00           1565           0.00         2.00
  224.39        2975.25           1568           6.00         2.00
  224.42        2975.50           1571           8.00         8.28
  224.44        2975.75           1575           5.00         2.00
  224.47        2976.00           1578           8.00         8.28
  224.50        2976.25           1581           8.00         8.28
  224.52        2976.50           1585           1.00         2.00
  224.55        2976.75           1588           0.00         2.00
  224.58        2977.00           1591           1.00         2.00
  224.61        2977.25           1595           8.00         8.28
  224.63        2977.50           1598           3.00         2.00
  224.66        2977.75           1601           0.00         2.00
  224.69        2978.00           1605           0.00         2.00
  224.71        2978.25           1608           0.00         2.00
  224.74        2978.50           1611           8.00         8.28
  224.77        2978.75           1615           8.00         8.28
  224.80        2979.00           1618           0.00         2.00
  224.82        2979.25           1621           0.00         2.00
  224.85        2979.50           1625           8.00         8.28
  224.88        2979.75           1628           8.00         8.28
  224.90        2980.00           1631           0.00         2.00
  224.93        2980.25           1635           6.00         2.00
  224.96        2980.50           1638           4.00         2.00
  224.99        2980.75           1641           4.00         2.00
  225.01        2981.00           1645           8.00         8.28
  225.04        2981.25           1648           5.00         2.00
  225.07        2981.50           1651           8.00         8.28
  225.09        2981.75           1655           0.00         2.00
  225.12        2982.00           1658           3.00         2.00
  225.15        2982.25           1661           8.00         8.28
  225.17        2982.50           1665           5.00         2.00
  225.20        2982.75           1668           2.00         2.00
  225.23        2983.00           1671           8.00         8.28
  225.26        2983.25           1675           8.00         8.28
  225.28        2983.50           1678           8.00         8.28
  225.31        2983.75           1681           7.00         3.92
  225.34        2984.00           1685           2.00         2.00
HS scan finished at 03:45:32
end
