************************************************************
  HS Scan of (1) Internal mercury lamp
************************************************************
Integration time is 0.2294 seconds per sample
dh070319Tamanrasset 22.79-5.529 4.974364pr865
************************************************************
Dead Time -------------------------  2.8E-08 
Number of Cycles Used -------------  4 
Starting Wavelength (Angstroms) ---  2950 
Final Wavelength (Angstoms) -------  2984 
Wavelength Increment (Angstroms) --  .25 
Filter Wheel #1 Position ---------- (1) Ground quartz diffuser (ND=2.32)
Filter Wheel #2 Position ---------- (1) Neutral Density 0.494



************************************************************
HS scan start time = 04:06:46
Dark Count =  2.8 


Time (GMT)  Wavelength (Ang)  Step Number  Raw Counts  Counts/Second

  247.12        2950.00           1233          21.00        79.34
  247.19        2950.25           1236          16.00        57.54
  247.21        2950.50           1239          22.00        83.70
  247.24        2950.75           1242          19.00        70.62
  247.27        2951.00           1246          18.00        66.26
  247.29        2951.25           1249          18.00        66.26
  247.32        2951.50           1252          19.00        70.62
  247.35        2951.75           1256          18.00        66.26
  247.38        2952.00           1259          21.00        79.34
  247.40        2952.25           1262          21.00        79.34
  247.43        2952.50           1266          17.00        61.90
  247.46        2952.75           1269          20.00        74.98
  247.48        2953.00           1272          16.00        57.54
  247.51        2953.25           1276          20.00        74.98
  247.54        2953.50           1279          22.00        83.70
  247.57        2953.75           1282          22.00        83.70
  247.59        2954.00           1286          18.00        66.26
  247.62        2954.25           1289          21.00        79.34
  247.65        2954.50           1292          21.00        79.34
  247.68        2954.75           1295          13.00        44.46
  247.70        2955.00           1299          16.00        57.54
  247.73        2955.25           1302          24.00        92.42
  247.76        2955.50           1305          17.00        61.90
  247.78        2955.75           1309          18.00        66.26
  247.81        2956.00           1312          20.00        74.98
  247.84        2956.25           1315          19.00        70.62
  247.87        2956.50           1319          21.00        79.34
  247.89        2956.75           1322          19.00        70.62
  247.92        2957.00           1325          14.00        48.82
  247.95        2957.25           1329          14.00        48.82
  247.97        2957.50           1332          22.00        83.70
  248.00        2957.75           1335          15.00        53.18
  248.03        2958.00           1339          15.00        53.18
  248.06        2958.25           1342          20.00        74.98
  248.08        2958.50           1345          18.00        66.26
  248.11        2958.75           1348          23.00        88.06
  248.14        2959.00           1352          18.00        66.26
  248.17        2959.25           1355          16.00        57.54
  248.19        2959.50           1358          16.00        57.54
  248.22        2959.75           1362          17.00        61.90
  248.25        2960.00           1365          27.00       105.49
  248.27        2960.25           1368          21.00        79.34
  248.30        2960.50           1372          26.00       101.13
  248.33        2960.75           1375          29.00       114.21
  248.36        2961.00           1378          63.00       262.43
  248.38        2961.25           1382         316.00      1365.35
  248.41        2961.50           1385         774.00      3362.13
  248.44        2961.75           1388        1655.00      7203.72
  248.47        2962.00           1392        3558.00     15504.55
  248.49        2962.25           1395        5352.00     23333.46
  248.52        2962.50           1398        7327.00     31956.22
  248.55        2962.75           1402        9858.00     43012.54
  248.57        2963.00           1405       11994.00     52348.69
  248.60        2963.25           1408       14035.00     61274.17
  248.63        2963.50           1412       16697.00     72922.06
  248.66        2963.75           1415       18758.00     81945.44
  248.68        2964.00           1418       20754.00     90688.58
  248.71        2964.25           1422       23795.00    104017.40
  248.74        2964.50           1425       25722.00    112468.70
  248.77        2964.75           1428       27729.00    121275.10
  248.79        2965.00           1431       29800.00    130366.90
  248.82        2965.25           1435       32428.00    141910.60
  248.85        2965.50           1438       34883.00    152701.20
  248.87        2965.75           1441       36849.00    161347.20
  248.90        2966.00           1445       39929.00    174900.60
  248.93        2966.25           1448       41723.00    182799.90
  248.96        2966.50           1451       42890.00    187940.20
  248.98        2966.75           1455       44382.00    194514.20
  249.01        2967.00           1458       44876.00    196691.40
  249.04        2967.25           1461       44959.00    197057.30
  249.07        2967.50           1465       44741.00    196096.40
  249.09        2967.75           1468       44670.00    195783.50
  249.12        2968.00           1471       43754.00    191746.90
  249.15        2968.25           1475       42071.00    184332.60
  249.17        2968.50           1478       40430.00    177106.30
  249.20        2968.75           1481       38472.00    168487.90
  249.23        2969.00           1485       35393.00    154943.60
  249.26        2969.25           1488       33130.00    144995.50
  249.28        2969.50           1491       30899.00    135193.50
  249.31        2969.75           1495       28044.00    122657.70
  249.34        2970.00           1498       25974.00    113574.20
  249.37        2970.25           1501       23930.00    104609.40
  249.39        2970.50           1505       21214.00     92704.14
  249.42        2970.75           1508       18969.00     82869.49
  249.45        2971.00           1511       16883.00     73736.21
  249.47        2971.25           1515       14058.00     61374.78
  249.50        2971.50           1518       11998.00     52366.18
  249.53        2971.75           1521        9878.00     43099.94
  249.56        2972.00           1525        7177.00     31301.18
  249.58        2972.25           1528        5275.00     22997.37
  249.61        2972.50           1531        3392.00     14780.31
  249.64        2972.75           1535        1522.00      6623.72
  249.67        2973.00           1538         619.00      2686.34
  249.69        2973.25           1541         216.00       929.41
  249.72        2973.50           1545          57.00       236.27
  249.75        2973.75           1548          31.00       122.93
  249.77        2974.00           1551          26.00       101.13
  249.80        2974.25           1555          31.00       122.93
  249.83        2974.50           1558          26.00       101.13
  249.86        2974.75           1561          20.00        74.98
  249.88        2975.00           1565          20.00        74.98
  249.91        2975.25           1568          19.00        70.62
  249.94        2975.50           1571          19.00        70.62
  249.96        2975.75           1575          23.00        88.06
  249.99        2976.00           1578          18.00        66.26
  250.02        2976.25           1581          19.00        70.62
  250.05        2976.50           1585          21.00        79.34
  250.07        2976.75           1588          19.00        70.62
  250.10        2977.00           1591          16.00        57.54
  250.13        2977.25           1595          19.00        70.62
  250.15        2977.50           1598          19.00        70.62
  250.18        2977.75           1601          20.00        74.98
  250.21        2978.00           1605          24.00        92.42
  250.24        2978.25           1608          22.00        83.70
  250.26        2978.50           1611          19.00        70.62
  250.29        2978.75           1615          20.00        74.98
  250.32        2979.00           1618          24.00        92.42
  250.34        2979.25           1621          24.00        92.42
  250.37        2979.50           1625          18.00        66.26
  250.40        2979.75           1628          19.00        70.62
  250.43        2980.00           1631          18.00        66.26
  250.45        2980.25           1635          22.00        83.70
  250.48        2980.50           1638          20.00        74.98
  250.51        2980.75           1641          19.00        70.62
  250.53        2981.00           1645          19.00        70.62
  250.56        2981.25           1648          19.00        70.62
  250.59        2981.50           1651          23.00        88.06
  250.62        2981.75           1655          19.00        70.62
  250.64        2982.00           1658          17.00        61.90
  250.67        2982.25           1661          20.00        74.98
  250.70        2982.50           1665          17.00        61.90
  250.72        2982.75           1668          23.00        88.06
  250.75        2983.00           1671          17.00        61.90
  250.78        2983.25           1675          19.00        70.62
  250.81        2983.50           1678          21.00        79.34
  250.83        2983.75           1681          18.00        66.26
  250.86        2984.00           1685          17.00        61.90
HS scan finished at 04:11:03
end
