************************************************************
  HS Scan of (1) Internal mercury lamp
************************************************************
Integration time is 0.2294 seconds per sample
dh050317Tamanrasset 22.79-5.529 2.746401pr865
************************************************************
Dead Time -------------------------  2.8E-08 
Number of Cycles Used -------------  4 
Starting Wavelength (Angstroms) ---  2950 
Final Wavelength (Angstoms) -------  2984 
Wavelength Increment (Angstroms) --  .25 
Filter Wheel #1 Position ---------- (1) Ground quartz diffuser (ND=2.32)
Filter Wheel #2 Position ---------- (1) Neutral Density 0.494



************************************************************
HS scan start time = 03:40:17
Dark Count =  2.7 


Time (GMT)  Wavelength (Ang)  Step Number  Raw Counts  Counts/Second

  220.64        2950.00           1233           8.00        23.10
  220.71        2950.25           1236           6.00        14.39
  220.74        2950.50           1239           8.00        23.10
  220.76        2950.75           1242           8.00        23.10
  220.79        2951.00           1246           6.00        14.39
  220.82        2951.25           1249           8.00        23.10
  220.84        2951.50           1252           7.00        18.74
  220.87        2951.75           1256           7.00        18.74
  220.90        2952.00           1259           8.00        23.10
  220.92        2952.25           1262           8.00        23.10
  220.95        2952.50           1266           6.00        14.39
  220.98        2952.75           1269           7.00        18.74
  221.01        2953.00           1272           0.00         2.00
  221.03        2953.25           1276           0.00         2.00
  221.06        2953.50           1279           0.00         2.00
  221.09        2953.75           1282           5.00        10.03
  221.12        2954.00           1286           3.00         2.00
  221.14        2954.25           1289           8.00        23.10
  221.17        2954.50           1292           7.00        18.74
  221.20        2954.75           1295           7.00        18.74
  221.22        2955.00           1299           0.00         2.00
  221.25        2955.25           1302           7.00        18.74
  221.28        2955.50           1305           0.00         2.00
  221.31        2955.75           1309           8.00        23.10
  221.33        2956.00           1312           0.00         2.00
  221.36        2956.25           1315           5.00        10.03
  221.39        2956.50           1319           2.00         2.00
  221.41        2956.75           1322           6.00        14.39
  221.44        2957.00           1325           0.00         2.00
  221.47        2957.25           1329           3.00         2.00
  221.50        2957.50           1332           5.00        10.03
  221.52        2957.75           1335           0.00         2.00
  221.55        2958.00           1339           8.00        23.10
  221.58        2958.25           1342           3.00         2.00
  221.60        2958.50           1345           1.00         2.00
  221.63        2958.75           1348           7.00        18.74
  221.66        2959.00           1352           1.00         2.00
  221.68        2959.25           1355           8.00        23.10
  221.71        2959.50           1358           0.00         2.00
  221.74        2959.75           1362           4.00         5.67
  221.77        2960.00           1365           9.00        27.46
  221.79        2960.25           1368           8.00        23.10
  221.82        2960.50           1372           0.00         2.00
  221.85        2960.75           1375           8.00        23.10
  221.87        2961.00           1378           4.00         5.67
  221.90        2961.25           1382           8.00        23.10
  221.93        2961.50           1385           8.00        23.10
  221.96        2961.75           1388           8.00        23.10
  221.98        2962.00           1392           4.00         5.67
  222.01        2962.25           1395           1.00         2.00
  222.04        2962.50           1398           8.00        23.10
  222.06        2962.75           1402           1.00         2.00
  222.09        2963.00           1405           1.00         2.00
  222.12        2963.25           1408           8.00        23.10
  222.15        2963.50           1412           3.00         2.00
  222.17        2963.75           1415           8.00        23.10
  222.20        2964.00           1418           0.00         2.00
  222.23        2964.25           1422           0.00         2.00
  222.25        2964.50           1425           5.00        10.03
  222.28        2964.75           1428           1.00         2.00
  222.31        2965.00           1431           6.00        14.39
  222.34        2965.25           1435           3.00         2.00
  222.36        2965.50           1438           3.00         2.00
  222.39        2965.75           1441           2.00         2.00
  222.42        2966.00           1445           0.00         2.00
  222.44        2966.25           1448           8.00        23.10
  222.47        2966.50           1451           6.00        14.39
  222.50        2966.75           1455           1.00         2.00
  222.53        2967.00           1458           3.00         2.00
  222.55        2967.25           1461           0.00         2.00
  222.58        2967.50           1465           0.00         2.00
  222.61        2967.75           1468           0.00         2.00
  222.63        2968.00           1471           7.00        18.74
  222.66        2968.25           1475           6.00        14.39
  222.69        2968.50           1478           0.00         2.00
  222.71        2968.75           1481           8.00        23.10
  222.74        2969.00           1485           0.00         2.00
  222.77        2969.25           1488           3.00         2.00
  222.80        2969.50           1491           8.00        23.10
  222.82        2969.75           1495           8.00        23.10
  222.85        2970.00           1498           0.00         2.00
  222.88        2970.25           1501           0.00         2.00
  222.90        2970.50           1505           3.00         2.00
  222.93        2970.75           1508           8.00        23.10
  222.96        2971.00           1511           5.00        10.03
  222.99        2971.25           1515           2.00         2.00
  223.01        2971.50           1518           0.00         2.00
  223.04        2971.75           1521           7.00        18.74
  223.07        2972.00           1525           8.00        23.10
  223.09        2972.25           1528           0.00         2.00
  223.12        2972.50           1531           5.00        10.03
  223.15        2972.75           1535           0.00         2.00
  223.18        2973.00           1538           8.00        23.10
  223.20        2973.25           1541           6.00        14.39
  223.23        2973.50           1545           1.00         2.00
  223.26        2973.75           1548           8.00        23.10
  223.28        2974.00           1551           6.00        14.39
  223.31        2974.25           1555           1.00         2.00
  223.34        2974.50           1558           8.00        23.10
  223.37        2974.75           1561           8.00        23.10
  223.39        2975.00           1565           6.00        14.39
  223.42        2975.25           1568           0.00         2.00
  223.45        2975.50           1571           8.00        23.10
  223.47        2975.75           1575           0.00         2.00
  223.50        2976.00           1578           8.00        23.10
  223.53        2976.25           1581           3.00         2.00
  223.56        2976.50           1585           6.00        14.39
  223.58        2976.75           1588           0.00         2.00
  223.61        2977.00           1591           8.00        23.10
  223.64        2977.25           1595           8.00        23.10
  223.66        2977.50           1598           8.00        23.10
  223.69        2977.75           1601           0.00         2.00
  223.72        2978.00           1605           5.00        10.03
  223.75        2978.25           1608           8.00        23.10
  223.77        2978.50           1611           5.00        10.03
  223.80        2978.75           1615           0.00         2.00
  223.83        2979.00           1618           0.00         2.00
  223.85        2979.25           1621           2.00         2.00
  223.88        2979.50           1625           8.00        23.10
  223.91        2979.75           1628           8.00        23.10
  223.94        2980.00           1631           4.00         5.67
  223.96        2980.25           1635           6.00        14.39
  223.99        2980.50           1638           5.00        10.03
  224.02        2980.75           1641           3.00         2.00
  224.04        2981.00           1645           6.00        14.39
  224.07        2981.25           1648           0.00         2.00
  224.10        2981.50           1651           0.00         2.00
  224.13        2981.75           1655           0.00         2.00
  224.15        2982.00           1658           6.00        14.39
  224.18        2982.25           1661           5.00        10.03
  224.21        2982.50           1665           8.00        23.10
  224.23        2982.75           1668           7.00        18.74
  224.26        2983.00           1671           0.00         2.00
  224.29        2983.25           1675           8.00        23.10
  224.32        2983.50           1678           8.00        23.10
  224.34        2983.75           1681           4.00         5.67
  224.37        2984.00           1685           8.00        23.10
HS scan finished at 03:44:33
end
