************************************************************
  HS Scan of (1) Internal mercury lamp
************************************************************
Integration time is 0.2294 seconds per sample
dh090317Tamanrasset 22.79-5.529 2.761697pr865
************************************************************
Dead Time -------------------------  2.8E-08 
Number of Cycles Used -------------  4 
Starting Wavelength (Angstroms) ---  2950 
Final Wavelength (Angstoms) -------  2984 
Wavelength Increment (Angstroms) --  .25 
Filter Wheel #1 Position ---------- (1) Ground quartz diffuser (ND=2.32)
Filter Wheel #2 Position ---------- (1) Neutral Density 0.494



************************************************************
HS scan start time = 03:36:16
Dark Count =  4.5 


Time (GMT)  Wavelength (Ang)  Step Number  Raw Counts  Counts/Second

  216.63        2950.00           1233           8.00        15.26
  216.69        2950.25           1236           0.00         2.00
  216.72        2950.50           1239           8.00        15.26
  216.74        2950.75           1242           5.00         2.18
  216.77        2951.00           1246           5.00         2.18
  216.80        2951.25           1249           6.00         6.54
  216.83        2951.50           1252           7.00        10.90
  216.85        2951.75           1256           0.00         2.00
  216.88        2952.00           1259           6.00         6.54
  216.91        2952.25           1262           5.00         2.18
  216.93        2952.50           1266           0.00         2.00
  216.96        2952.75           1269           8.00        15.26
  216.99        2953.00           1272           6.00         6.54
  217.02        2953.25           1276           0.00         2.00
  217.04        2953.50           1279           3.00         2.00
  217.07        2953.75           1282           5.00         2.18
  217.10        2954.00           1286           0.00         2.00
  217.12        2954.25           1289           8.00        15.26
  217.15        2954.50           1292           8.00        15.26
  217.18        2954.75           1295           3.00         2.00
  217.21        2955.00           1299           0.00         2.00
  217.23        2955.25           1302           4.00         2.00
  217.26        2955.50           1305           8.00        15.26
  217.29        2955.75           1309           0.00         2.00
  217.32        2956.00           1312           4.00         2.00
  217.34        2956.25           1315           0.00         2.00
  217.37        2956.50           1319           2.00         2.00
  217.40        2956.75           1322           8.00        15.26
  217.42        2957.00           1325           0.00         2.00
  217.45        2957.25           1329           6.00         6.54
  217.48        2957.50           1332           8.00        15.26
  217.51        2957.75           1335           8.00        15.26
  217.53        2958.00           1339           0.00         2.00
  217.56        2958.25           1342           8.00        15.26
  217.59        2958.50           1345           6.00         6.54
  217.61        2958.75           1348           3.00         2.00
  217.64        2959.00           1352           8.00        15.26
  217.67        2959.25           1355           0.00         2.00
  217.69        2959.50           1358           0.00         2.00
  217.72        2959.75           1362           4.00         2.00
  217.75        2960.00           1365           7.00        10.90
  217.78        2960.25           1368           1.00         2.00
  217.80        2960.50           1372           8.00        15.26
  217.83        2960.75           1375           7.00        10.90
  217.86        2961.00           1378           8.00        15.26
  217.88        2961.25           1382           0.00         2.00
  217.91        2961.50           1385           5.00         2.18
  217.94        2961.75           1388           1.00         2.00
  217.97        2962.00           1392           0.00         2.00
  217.99        2962.25           1395           6.00         6.54
  218.02        2962.50           1398           0.00         2.00
  218.05        2962.75           1402           0.00         2.00
  218.07        2963.00           1405           8.00        15.26
  218.10        2963.25           1408           0.00         2.00
  218.13        2963.50           1412           0.00         2.00
  218.16        2963.75           1415           0.00         2.00
  218.18        2964.00           1418           8.00        15.26
  218.21        2964.25           1422           1.00         2.00
  218.24        2964.50           1425           0.00         2.00
  218.26        2964.75           1428           2.00         2.00
  218.29        2965.00           1431           8.00        15.26
  218.32        2965.25           1435           7.00        10.90
  218.35        2965.50           1438           0.00         2.00
  218.37        2965.75           1441           2.00         2.00
  218.40        2966.00           1445           8.00        15.26
  218.43        2966.25           1448           0.00         2.00
  218.46        2966.50           1451           8.00        15.26
  218.48        2966.75           1455           4.00         2.00
  218.51        2967.00           1458           4.00         2.00
  218.54        2967.25           1461           8.00        15.26
  218.57        2967.50           1465           8.00        15.26
  218.59        2967.75           1468           5.00         2.18
  218.62        2968.00           1471           8.00        15.26
  218.65        2968.25           1475           0.00         2.00
  218.67        2968.50           1478           0.00         2.00
  218.70        2968.75           1481           8.00        15.26
  218.73        2969.00           1485           0.00         2.00
  218.75        2969.25           1488           4.00         2.00
  218.78        2969.50           1491           0.00         2.00
  218.81        2969.75           1495           0.00         2.00
  218.84        2970.00           1498           3.00         2.00
  218.86        2970.25           1501           8.00        15.26
  218.89        2970.50           1505           8.00        15.26
  218.92        2970.75           1508           0.00         2.00
  218.94        2971.00           1511           0.00         2.00
  218.97        2971.25           1515           2.00         2.00
  219.00        2971.50           1518           2.00         2.00
  219.03        2971.75           1521           4.00         2.00
  219.05        2972.00           1525           3.00         2.00
  219.08        2972.25           1528           4.00         2.00
  219.11        2972.50           1531           0.00         2.00
  219.13        2972.75           1535           8.00        15.26
  219.16        2973.00           1538           1.00         2.00
  219.19        2973.25           1541           4.00         2.00
  219.22        2973.50           1545           2.00         2.00
  219.24        2973.75           1548           7.00        10.90
  219.27        2974.00           1551           4.00         2.00
  219.30        2974.25           1555           5.00         2.18
  219.32        2974.50           1558           3.00         2.00
  219.35        2974.75           1561           0.00         2.00
  219.38        2975.00           1565           2.00         2.00
  219.41        2975.25           1568           6.00         6.54
  219.43        2975.50           1571           3.00         2.00
  219.46        2975.75           1575           4.00         2.00
  219.49        2976.00           1578           0.00         2.00
  219.51        2976.25           1581           7.00        10.90
  219.54        2976.50           1585           8.00        15.26
  219.57        2976.75           1588           5.00         2.18
  219.60        2977.00           1591           3.00         2.00
  219.62        2977.25           1595           8.00        15.26
  219.65        2977.50           1598           8.00        15.26
  219.68        2977.75           1601           8.00        15.26
  219.70        2978.00           1605           3.00         2.00
  219.73        2978.25           1608           8.00        15.26
  219.76        2978.50           1611           8.00        15.26
  219.79        2978.75           1615           4.00         2.00
  219.81        2979.00           1618           0.00         2.00
  219.84        2979.25           1621           0.00         2.00
  219.87        2979.50           1625           0.00         2.00
  219.89        2979.75           1628           4.00         2.00
  219.92        2980.00           1631           5.00         2.18
  219.95        2980.25           1635           2.00         2.00
  219.98        2980.50           1638           8.00        15.26
  220.00        2980.75           1641           8.00        15.26
  220.03        2981.00           1645           8.00        15.26
  220.06        2981.25           1648           0.00         2.00
  220.08        2981.50           1651           8.00        15.26
  220.11        2981.75           1655           1.00         2.00
  220.14        2982.00           1658           1.00         2.00
  220.17        2982.25           1661           0.00         2.00
  220.19        2982.50           1665           8.00        15.26
  220.22        2982.75           1668           8.00        15.26
  220.25        2983.00           1671           8.00        15.26
  220.27        2983.25           1675           0.00         2.00
  220.30        2983.50           1678           7.00        10.90
  220.33        2983.75           1681           8.00        15.26
  220.36        2984.00           1685           0.00         2.00
HS scan finished at 03:40:33
end
