************************************************************
  HS Scan of (1) Internal mercury lamp
************************************************************
Integration time is 0.2294 seconds per sample
dh060317Tamanrasset 22.79-5.529 2.736205pr865
************************************************************
Dead Time -------------------------  2.8E-08 
Number of Cycles Used -------------  4 
Starting Wavelength (Angstroms) ---  2950 
Final Wavelength (Angstoms) -------  2984 
Wavelength Increment (Angstroms) --  .25 
Filter Wheel #1 Position ---------- (1) Ground quartz diffuser (ND=2.32)
Filter Wheel #2 Position ---------- (1) Neutral Density 0.494



************************************************************
HS scan start time = 03:39:14
Dark Count =  6.1 


Time (GMT)  Wavelength (Ang)  Step Number  Raw Counts  Counts/Second

  219.60        2950.00           1233           8.00         8.28
  219.66        2950.25           1236           0.00         2.00
  219.69        2950.50           1239           8.00         8.28
  219.72        2950.75           1242           0.00         2.00
  219.74        2951.00           1246           8.00         8.28
  219.77        2951.25           1249           8.00         8.28
  219.80        2951.50           1252           0.00         2.00
  219.82        2951.75           1256           3.00         2.00
  219.85        2952.00           1259           8.00         8.28
  219.88        2952.25           1262           8.00         8.28
  219.90        2952.50           1266           8.00         8.28
  219.93        2952.75           1269           8.00         8.28
  219.96        2953.00           1272           4.00         2.00
  219.99        2953.25           1276           8.00         8.28
  220.01        2953.50           1279           0.00         2.00
  220.04        2953.75           1282           0.00         2.00
  220.07        2954.00           1286           8.00         8.28
  220.09        2954.25           1289           0.00         2.00
  220.12        2954.50           1292           0.00         2.00
  220.15        2954.75           1295           8.00         8.28
  220.18        2955.00           1299           0.00         2.00
  220.20        2955.25           1302           4.00         2.00
  220.23        2955.50           1305           6.00         2.00
  220.26        2955.75           1309           8.00         8.28
  220.28        2956.00           1312           0.00         2.00
  220.31        2956.25           1315           4.00         2.00
  220.34        2956.50           1319           0.00         2.00
  220.37        2956.75           1322           0.00         2.00
  220.39        2957.00           1325           0.00         2.00
  220.42        2957.25           1329           6.00         2.00
  220.45        2957.50           1332           0.00         2.00
  220.47        2957.75           1335           6.00         2.00
  220.50        2958.00           1339           8.00         8.28
  220.53        2958.25           1342           0.00         2.00
  220.56        2958.50           1345           8.00         8.28
  220.58        2958.75           1348           8.00         8.28
  220.61        2959.00           1352           4.00         2.00
  220.64        2959.25           1355           8.00         8.28
  220.66        2959.50           1358           5.00         2.00
  220.69        2959.75           1362           8.00         8.28
  220.72        2960.00           1365           1.00         2.00
  220.75        2960.25           1368           0.00         2.00
  220.77        2960.50           1372           8.00         8.28
  220.80        2960.75           1375           5.00         2.00
  220.83        2961.00           1378           8.00         8.28
  220.85        2961.25           1382           8.00         8.28
  220.88        2961.50           1385           8.00         8.28
  220.91        2961.75           1388           8.00         8.28
  220.94        2962.00           1392           0.00         2.00
  220.96        2962.25           1395           7.00         3.92
  220.99        2962.50           1398           8.00         8.28
  221.02        2962.75           1402           8.00         8.28
  221.04        2963.00           1405           8.00         8.28
  221.07        2963.25           1408           8.00         8.28
  221.10        2963.50           1412           8.00         8.28
  221.12        2963.75           1415           0.00         2.00
  221.15        2964.00           1418           8.00         8.28
  221.18        2964.25           1422           3.00         2.00
  221.21        2964.50           1425           4.00         2.00
  221.23        2964.75           1428           1.00         2.00
  221.26        2965.00           1431           6.00         2.00
  221.29        2965.25           1435           8.00         8.28
  221.31        2965.50           1438           3.00         2.00
  221.34        2965.75           1441           0.00         2.00
  221.37        2966.00           1445           3.00         2.00
  221.40        2966.25           1448           8.00         8.28
  221.42        2966.50           1451           4.00         2.00
  221.45        2966.75           1455           0.00         2.00
  221.48        2967.00           1458           2.00         2.00
  221.50        2967.25           1461           8.00         8.28
  221.53        2967.50           1465           7.00         3.92
  221.56        2967.75           1468           8.00         8.28
  221.59        2968.00           1471           6.00         2.00
  221.61        2968.25           1475           8.00         8.28
  221.64        2968.50           1478           3.00         2.00
  221.67        2968.75           1481           7.00         3.92
  221.69        2969.00           1485           9.00        12.64
  221.72        2969.25           1488           8.00         8.28
  221.75        2969.50           1491           8.00         8.28
  221.78        2969.75           1495           3.00         2.00
  221.80        2970.00           1498           0.00         2.00
  221.83        2970.25           1501           0.00         2.00
  221.86        2970.50           1505           3.00         2.00
  221.89        2970.75           1508           6.00         2.00
  221.91        2971.00           1511           0.00         2.00
  221.94        2971.25           1515           8.00         8.28
  221.97        2971.50           1518           1.00         2.00
  221.99        2971.75           1521           3.00         2.00
  222.02        2972.00           1525           0.00         2.00
  222.05        2972.25           1528           8.00         8.28
  222.08        2972.50           1531           8.00         8.28
  222.10        2972.75           1535           8.00         8.28
  222.13        2973.00           1538           7.00         3.92
  222.16        2973.25           1541           8.00         8.28
  222.18        2973.50           1545           1.00         2.00
  222.21        2973.75           1548           8.00         8.28
  222.24        2974.00           1551           8.00         8.28
  222.26        2974.25           1555           7.00         3.92
  222.29        2974.50           1558           7.00         3.92
  222.32        2974.75           1561           7.00         3.92
  222.35        2975.00           1565           8.00         8.28
  222.37        2975.25           1568           8.00         8.28
  222.40        2975.50           1571           7.00         3.92
  222.43        2975.75           1575           6.00         2.00
  222.45        2976.00           1578           0.00         2.00
  222.48        2976.25           1581           7.00         3.92
  222.51        2976.50           1585           6.00         2.00
  222.54        2976.75           1588           6.00         2.00
  222.56        2977.00           1591           4.00         2.00
  222.59        2977.25           1595           4.00         2.00
  222.62        2977.50           1598           0.00         2.00
  222.64        2977.75           1601           0.00         2.00
  222.67        2978.00           1605           8.00         8.28
  222.70        2978.25           1608           8.00         8.28
  222.73        2978.50           1611           7.00         3.92
  222.75        2978.75           1615           0.00         2.00
  222.78        2979.00           1618           5.00         2.00
  222.81        2979.25           1621           8.00         8.28
  222.83        2979.50           1625           3.00         2.00
  222.86        2979.75           1628           0.00         2.00
  222.89        2980.00           1631           7.00         3.92
  222.92        2980.25           1635           8.00         8.28
  222.94        2980.50           1638           3.00         2.00
  222.97        2980.75           1641           8.00         8.28
  223.00        2981.00           1645           1.00         2.00
  223.02        2981.25           1648           5.00         2.00
  223.05        2981.50           1651           6.00         2.00
  223.08        2981.75           1655           5.00         2.00
  223.11        2982.00           1658           8.00         8.28
  223.13        2982.25           1661           8.00         8.28
  223.16        2982.50           1665           8.00         8.28
  223.19        2982.75           1668           0.00         2.00
  223.21        2983.00           1671           0.00         2.00
  223.24        2983.25           1675           0.00         2.00
  223.27        2983.50           1678           8.00         8.28
  223.30        2983.75           1681           6.00         2.00
  223.32        2984.00           1685           8.00         8.28
HS scan finished at 03:43:31
end
