************************************************************
  HS Scan of (1) Internal mercury lamp
************************************************************
Integration time is 0.2294 seconds per sample
dh190317Tamanrasset 22.79-5.529 2.802483pr865
************************************************************
Dead Time -------------------------  2.8E-08 
Number of Cycles Used -------------  4 
Starting Wavelength (Angstroms) ---  2950 
Final Wavelength (Angstoms) -------  2984 
Wavelength Increment (Angstroms) --  .25 
Filter Wheel #1 Position ---------- (1) Ground quartz diffuser (ND=2.32)
Filter Wheel #2 Position ---------- (1) Neutral Density 0.494



************************************************************
HS scan start time = 03:27:15
Dark Count =  5.5 


Time (GMT)  Wavelength (Ang)  Step Number  Raw Counts  Counts/Second

  207.61        2950.00           1233           4.00         2.00
  207.68        2950.25           1236           8.00        10.90
  207.70        2950.50           1239           8.00        10.90
  207.73        2950.75           1242           1.00         2.00
  207.76        2951.00           1246           8.00        10.90
  207.78        2951.25           1249           0.00         2.00
  207.81        2951.50           1252           8.00        10.90
  207.84        2951.75           1256           0.00         2.00
  207.87        2952.00           1259           3.00         2.00
  207.89        2952.25           1262           7.00         6.54
  207.92        2952.50           1266           8.00        10.90
  207.95        2952.75           1269           4.00         2.00
  207.97        2953.00           1272           0.00         2.00
  208.00        2953.25           1276           8.00        10.90
  208.03        2953.50           1279           0.00         2.00
  208.06        2953.75           1282           1.00         2.00
  208.08        2954.00           1286           5.00         2.00
  208.11        2954.25           1289           4.00         2.00
  208.14        2954.50           1292           0.00         2.00
  208.16        2954.75           1295           5.00         2.00
  208.19        2955.00           1299           8.00        10.90
  208.22        2955.25           1302           6.00         2.18
  208.25        2955.50           1305           3.00         2.00
  208.27        2955.75           1309           0.00         2.00
  208.30        2956.00           1312           0.00         2.00
  208.33        2956.25           1315           8.00        10.90
  208.35        2956.50           1319           6.00         2.18
  208.38        2956.75           1322           7.00         6.54
  208.41        2957.00           1325           4.00         2.00
  208.44        2957.25           1329           7.00         6.54
  208.46        2957.50           1332           2.00         2.00
  208.49        2957.75           1335           4.00         2.00
  208.52        2958.00           1339           5.00         2.00
  208.54        2958.25           1342           6.00         2.18
  208.57        2958.50           1345           8.00        10.90
  208.60        2958.75           1348           4.00         2.00
  208.62        2959.00           1352           8.00        10.90
  208.65        2959.25           1355           0.00         2.00
  208.68        2959.50           1358           7.00         6.54
  208.71        2959.75           1362           3.00         2.00
  208.73        2960.00           1365           5.00         2.00
  208.76        2960.25           1368           8.00        10.90
  208.79        2960.50           1372           3.00         2.00
  208.81        2960.75           1375           5.00         2.00
  208.84        2961.00           1378           6.00         2.18
  208.87        2961.25           1382           8.00        10.90
  208.90        2961.50           1385           5.00         2.00
  208.92        2961.75           1388           3.00         2.00
  208.95        2962.00           1392           6.00         2.18
  208.98        2962.25           1395           8.00        10.90
  209.00        2962.50           1398           8.00        10.90
  209.03        2962.75           1402           0.00         2.00
  209.06        2963.00           1405           8.00        10.90
  209.09        2963.25           1408           0.00         2.00
  209.11        2963.50           1412           1.00         2.00
  209.14        2963.75           1415           1.00         2.00
  209.17        2964.00           1418           3.00         2.00
  209.19        2964.25           1422           0.00         2.00
  209.22        2964.50           1425           6.00         2.18
  209.25        2964.75           1428           7.00         6.54
  209.28        2965.00           1431           6.00         2.18
  209.30        2965.25           1435           0.00         2.00
  209.33        2965.50           1438           4.00         2.00
  209.36        2965.75           1441           4.00         2.00
  209.38        2966.00           1445           9.00        15.26
  209.41        2966.25           1448           4.00         2.00
  209.44        2966.50           1451           4.00         2.00
  209.47        2966.75           1455           8.00        10.90
  209.49        2967.00           1458           5.00         2.00
  209.52        2967.25           1461           2.00         2.00
  209.55        2967.50           1465           0.00         2.00
  209.57        2967.75           1468           0.00         2.00
  209.60        2968.00           1471           4.00         2.00
  209.63        2968.25           1475           2.00         2.00
  209.66        2968.50           1478           0.00         2.00
  209.68        2968.75           1481           4.00         2.00
  209.71        2969.00           1485           8.00        10.90
  209.74        2969.25           1488           8.00        10.90
  209.76        2969.50           1491           0.00         2.00
  209.79        2969.75           1495           0.00         2.00
  209.82        2970.00           1498           6.00         2.18
  209.85        2970.25           1501           6.00         2.18
  209.87        2970.50           1505           6.00         2.18
  209.90        2970.75           1508           6.00         2.18
  209.93        2971.00           1511           3.00         2.00
  209.95        2971.25           1515           0.00         2.00
  209.98        2971.50           1518           5.00         2.00
  210.01        2971.75           1521           8.00        10.90
  210.03        2972.00           1525           1.00         2.00
  210.06        2972.25           1528           2.00         2.00
  210.09        2972.50           1531           1.00         2.00
  210.12        2972.75           1535           5.00         2.00
  210.14        2973.00           1538           1.00         2.00
  210.17        2973.25           1541           8.00        10.90
  210.20        2973.50           1545           8.00        10.90
  210.22        2973.75           1548           8.00        10.90
  210.25        2974.00           1551           2.00         2.00
  210.28        2974.25           1555           8.00        10.90
  210.31        2974.50           1558           7.00         6.54
  210.33        2974.75           1561           4.00         2.00
  210.36        2975.00           1565           6.00         2.18
  210.39        2975.25           1568           0.00         2.00
  210.41        2975.50           1571           2.00         2.00
  210.44        2975.75           1575           8.00        10.90
  210.47        2976.00           1578           0.00         2.00
  210.50        2976.25           1581           8.00        10.90
  210.52        2976.50           1585           0.00         2.00
  210.55        2976.75           1588           7.00         6.54
  210.58        2977.00           1591           0.00         2.00
  210.60        2977.25           1595           3.00         2.00
  210.63        2977.50           1598           5.00         2.00
  210.66        2977.75           1601           4.00         2.00
  210.69        2978.00           1605           8.00        10.90
  210.71        2978.25           1608           0.00         2.00
  210.74        2978.50           1611           8.00        10.90
  210.77        2978.75           1615           0.00         2.00
  210.79        2979.00           1618           8.00        10.90
  210.82        2979.25           1621           8.00        10.90
  210.85        2979.50           1625           1.00         2.00
  210.88        2979.75           1628           4.00         2.00
  210.90        2980.00           1631           7.00         6.54
  210.93        2980.25           1635           2.00         2.00
  210.96        2980.50           1638           3.00         2.00
  210.98        2980.75           1641           0.00         2.00
  211.01        2981.00           1645           0.00         2.00
  211.04        2981.25           1648           8.00        10.90
  211.07        2981.50           1651           4.00         2.00
  211.09        2981.75           1655           3.00         2.00
  211.12        2982.00           1658           2.00         2.00
  211.15        2982.25           1661           8.00        10.90
  211.17        2982.50           1665           5.00         2.00
  211.20        2982.75           1668           8.00        10.90
  211.23        2983.00           1671           0.00         2.00
  211.26        2983.25           1675           8.00        10.90
  211.28        2983.50           1678           0.00         2.00
  211.31        2983.75           1681           4.00         2.00
  211.34        2984.00           1685           0.00         2.00
HS scan finished at 03:31:32
end
