************************************************************
  HS Scan of (1) Internal mercury lamp
************************************************************
Integration time is 0.2294 seconds per sample
dh200317Tamanrasset 22.79-5.529 2.935039pr865
************************************************************
Dead Time -------------------------  2.8E-08 
Number of Cycles Used -------------  4 
Starting Wavelength (Angstroms) ---  2950 
Final Wavelength (Angstoms) -------  2984 
Wavelength Increment (Angstroms) --  .25 
Filter Wheel #1 Position ---------- (1) Ground quartz diffuser (ND=2.32)
Filter Wheel #2 Position ---------- (1) Neutral Density 0.494



************************************************************
HS scan start time = 03:26:28
Dark Count =  4.6 


Time (GMT)  Wavelength (Ang)  Step Number  Raw Counts  Counts/Second

  206.83        2950.00           1233           8.00        14.82
  206.89        2950.25           1236           0.00         2.00
  206.92        2950.50           1239           4.00         2.00
  206.95        2950.75           1242           1.00         2.00
  206.97        2951.00           1246           7.00        10.46
  207.00        2951.25           1249           3.00         2.00
  207.03        2951.50           1252           0.00         2.00
  207.06        2951.75           1256           7.00        10.46
  207.08        2952.00           1259           3.00         2.00
  207.11        2952.25           1262           7.00        10.46
  207.14        2952.50           1266           0.00         2.00
  207.16        2952.75           1269           7.00        10.46
  207.19        2953.00           1272           5.00         2.00
  207.22        2953.25           1276           0.00         2.00
  207.25        2953.50           1279           1.00         2.00
  207.27        2953.75           1282           2.00         2.00
  207.30        2954.00           1286           8.00        14.82
  207.33        2954.25           1289           0.00         2.00
  207.35        2954.50           1292           8.00        14.82
  207.38        2954.75           1295           5.00         2.00
  207.41        2955.00           1299           2.00         2.00
  207.44        2955.25           1302           2.00         2.00
  207.46        2955.50           1305           4.00         2.00
  207.49        2955.75           1309           0.00         2.00
  207.52        2956.00           1312           3.00         2.00
  207.54        2956.25           1315           6.00         6.10
  207.57        2956.50           1319           7.00        10.46
  207.60        2956.75           1322           5.00         2.00
  207.63        2957.00           1325           8.00        14.82
  207.65        2957.25           1329           5.00         2.00
  207.68        2957.50           1332           4.00         2.00
  207.71        2957.75           1335           7.00        10.46
  207.73        2958.00           1339           7.00        10.46
  207.76        2958.25           1342           0.00         2.00
  207.79        2958.50           1345           5.00         2.00
  207.82        2958.75           1348           3.00         2.00
  207.84        2959.00           1352           7.00        10.46
  207.87        2959.25           1355           6.00         6.10
  207.90        2959.50           1358           6.00         6.10
  207.92        2959.75           1362           8.00        14.82
  207.95        2960.00           1365           8.00        14.82
  207.98        2960.25           1368           5.00         2.00
  208.01        2960.50           1372           0.00         2.00
  208.03        2960.75           1375           8.00        14.82
  208.06        2961.00           1378           6.00         6.10
  208.09        2961.25           1382           4.00         2.00
  208.11        2961.50           1385           3.00         2.00
  208.14        2961.75           1388           0.00         2.00
  208.17        2962.00           1392           4.00         2.00
  208.20        2962.25           1395           4.00         2.00
  208.22        2962.50           1398           3.00         2.00
  208.25        2962.75           1402           0.00         2.00
  208.28        2963.00           1405           5.00         2.00
  208.30        2963.25           1408           0.00         2.00
  208.33        2963.50           1412           6.00         6.10
  208.36        2963.75           1415           0.00         2.00
  208.39        2964.00           1418           1.00         2.00
  208.41        2964.25           1422           8.00        14.82
  208.44        2964.50           1425           6.00         6.10
  208.47        2964.75           1428           7.00        10.46
  208.49        2965.00           1431           8.00        14.82
  208.52        2965.25           1435           2.00         2.00
  208.55        2965.50           1438           8.00        14.82
  208.58        2965.75           1441           5.00         2.00
  208.60        2966.00           1445           4.00         2.00
  208.63        2966.25           1448           6.00         6.10
  208.66        2966.50           1451           8.00        14.82
  208.68        2966.75           1455           4.00         2.00
  208.71        2967.00           1458           0.00         2.00
  208.74        2967.25           1461           3.00         2.00
  208.76        2967.50           1465           6.00         6.10
  208.79        2967.75           1468           5.00         2.00
  208.82        2968.00           1471           8.00        14.82
  208.85        2968.25           1475           3.00         2.00
  208.87        2968.50           1478           0.00         2.00
  208.90        2968.75           1481           4.00         2.00
  208.93        2969.00           1485           7.00        10.46
  208.95        2969.25           1488           7.00        10.46
  208.98        2969.50           1491           8.00        14.82
  209.01        2969.75           1495           8.00        14.82
  209.04        2970.00           1498           1.00         2.00
  209.06        2970.25           1501           4.00         2.00
  209.09        2970.50           1505           5.00         2.00
  209.12        2970.75           1508           8.00        14.82
  209.15        2971.00           1511           0.00         2.00
  209.17        2971.25           1515           0.00         2.00
  209.20        2971.50           1518           8.00        14.82
  209.23        2971.75           1521           8.00        14.82
  209.25        2972.00           1525           5.00         2.00
  209.28        2972.25           1528           5.00         2.00
  209.31        2972.50           1531           0.00         2.00
  209.34        2972.75           1535           8.00        14.82
  209.36        2973.00           1538           0.00         2.00
  209.39        2973.25           1541           7.00        10.46
  209.42        2973.50           1545           8.00        14.82
  209.44        2973.75           1548           3.00         2.00
  209.47        2974.00           1551           4.00         2.00
  209.50        2974.25           1555           3.00         2.00
  209.53        2974.50           1558           6.00         6.10
  209.55        2974.75           1561           6.00         6.10
  209.58        2975.00           1565           4.00         2.00
  209.61        2975.25           1568           4.00         2.00
  209.63        2975.50           1571           2.00         2.00
  209.66        2975.75           1575           6.00         6.10
  209.69        2976.00           1578           4.00         2.00
  209.72        2976.25           1581           8.00        14.82
  209.74        2976.50           1585           5.00         2.00
  209.77        2976.75           1588           5.00         2.00
  209.80        2977.00           1591           8.00        14.82
  209.82        2977.25           1595           7.00        10.46
  209.85        2977.50           1598           5.00         2.00
  209.88        2977.75           1601           5.00         2.00
  209.91        2978.00           1605           4.00         2.00
  209.93        2978.25           1608           8.00        14.82
  209.96        2978.50           1611           4.00         2.00
  209.99        2978.75           1615           5.00         2.00
  210.01        2979.00           1618           8.00        14.82
  210.04        2979.25           1621           8.00        14.82
  210.07        2979.50           1625           6.00         6.10
  210.09        2979.75           1628           2.00         2.00
  210.12        2980.00           1631           6.00         6.10
  210.15        2980.25           1635           7.00        10.46
  210.18        2980.50           1638           0.00         2.00
  210.20        2980.75           1641           4.00         2.00
  210.23        2981.00           1645           5.00         2.00
  210.26        2981.25           1648           8.00        14.82
  210.28        2981.50           1651           5.00         2.00
  210.31        2981.75           1655           6.00         6.10
  210.34        2982.00           1658           1.00         2.00
  210.37        2982.25           1661           6.00         6.10
  210.39        2982.50           1665           4.00         2.00
  210.42        2982.75           1668           2.00         2.00
  210.45        2983.00           1671           8.00        14.82
  210.47        2983.25           1675           4.00         2.00
  210.50        2983.50           1678           4.00         2.00
  210.53        2983.75           1681           8.00        14.82
  210.56        2984.00           1685           5.00         2.00
HS scan finished at 03:30:45
end
