************************************************************
  HS Scan of (1) Internal mercury lamp
************************************************************
Integration time is 0.2294 seconds per sample
dh180317Tamanrasset 22.79-5.529 2.848368pr865
************************************************************
Dead Time -------------------------  2.8E-08 
Number of Cycles Used -------------  4 
Starting Wavelength (Angstroms) ---  2950 
Final Wavelength (Angstoms) -------  2984 
Wavelength Increment (Angstroms) --  .25 
Filter Wheel #1 Position ---------- (1) Ground quartz diffuser (ND=2.32)
Filter Wheel #2 Position ---------- (1) Neutral Density 0.494



************************************************************
HS scan start time = 03:28:18
Dark Count =  4.1 


Time (GMT)  Wavelength (Ang)  Step Number  Raw Counts  Counts/Second

  208.66        2950.00           1233           8.00        17.00
  208.72        2950.25           1236           8.00        17.00
  208.75        2950.50           1239           4.00         2.00
  208.77        2950.75           1242           5.00         3.92
  208.80        2951.00           1246           4.00         2.00
  208.83        2951.25           1249           8.00        17.00
  208.86        2951.50           1252           6.00         8.28
  208.88        2951.75           1256           4.00         2.00
  208.91        2952.00           1259           5.00         3.92
  208.94        2952.25           1262           0.00         2.00
  208.96        2952.50           1266           8.00        17.00
  208.99        2952.75           1269           6.00         8.28
  209.02        2953.00           1272           3.00         2.00
  209.05        2953.25           1276           0.00         2.00
  209.07        2953.50           1279           2.00         2.00
  209.10        2953.75           1282           3.00         2.00
  209.13        2954.00           1286           2.00         2.00
  209.15        2954.25           1289           2.00         2.00
  209.18        2954.50           1292           2.00         2.00
  209.21        2954.75           1295           8.00        17.00
  209.24        2955.00           1299           8.00        17.00
  209.26        2955.25           1302           2.00         2.00
  209.29        2955.50           1305           8.00        17.00
  209.32        2955.75           1309           8.00        17.00
  209.34        2956.00           1312           7.00        12.64
  209.37        2956.25           1315           8.00        17.00
  209.40        2956.50           1319           7.00        12.64
  209.43        2956.75           1322           2.00         2.00
  209.45        2957.00           1325           8.00        17.00
  209.48        2957.25           1329           8.00        17.00
  209.51        2957.50           1332           0.00         2.00
  209.53        2957.75           1335           7.00        12.64
  209.56        2958.00           1339           4.00         2.00
  209.59        2958.25           1342           6.00         8.28
  209.61        2958.50           1345           0.00         2.00
  209.64        2958.75           1348           0.00         2.00
  209.67        2959.00           1352           4.00         2.00
  209.70        2959.25           1355           8.00        17.00
  209.72        2959.50           1358           2.00         2.00
  209.75        2959.75           1362           8.00        17.00
  209.78        2960.00           1365           2.00         2.00
  209.80        2960.25           1368           8.00        17.00
  209.83        2960.50           1372           6.00         8.28
  209.86        2960.75           1375           2.00         2.00
  209.89        2961.00           1378           7.00        12.64
  209.91        2961.25           1382           7.00        12.64
  209.94        2961.50           1385           4.00         2.00
  209.97        2961.75           1388           6.00         8.28
  209.99        2962.00           1392           4.00         2.00
  210.02        2962.25           1395           2.00         2.00
  210.05        2962.50           1398           8.00        17.00
  210.08        2962.75           1402           1.00         2.00
  210.10        2963.00           1405           8.00        17.00
  210.13        2963.25           1408           6.00         8.28
  210.16        2963.50           1412           7.00        12.64
  210.18        2963.75           1415           3.00         2.00
  210.21        2964.00           1418           4.00         2.00
  210.24        2964.25           1422           6.00         8.28
  210.27        2964.50           1425           0.00         2.00
  210.29        2964.75           1428           0.00         2.00
  210.32        2965.00           1431           8.00        17.00
  210.35        2965.25           1435           0.00         2.00
  210.37        2965.50           1438           8.00        17.00
  210.40        2965.75           1441           9.00        21.36
  210.43        2966.00           1445           2.00         2.00
  210.46        2966.25           1448           2.00         2.00
  210.48        2966.50           1451           0.00         2.00
  210.51        2966.75           1455           1.00         2.00
  210.54        2967.00           1458           3.00         2.00
  210.56        2967.25           1461           4.00         2.00
  210.59        2967.50           1465           0.00         2.00
  210.62        2967.75           1468           8.00        17.00
  210.65        2968.00           1471           1.00         2.00
  210.67        2968.25           1475           8.00        17.00
  210.70        2968.50           1478           2.00         2.00
  210.73        2968.75           1481           5.00         3.92
  210.75        2969.00           1485           0.00         2.00
  210.78        2969.25           1488           0.00         2.00
  210.81        2969.50           1491           7.00        12.64
  210.84        2969.75           1495           5.00         3.92
  210.86        2970.00           1498           6.00         8.28
  210.89        2970.25           1501           0.00         2.00
  210.92        2970.50           1505           0.00         2.00
  210.94        2970.75           1508           8.00        17.00
  210.97        2971.00           1511           3.00         2.00
  211.00        2971.25           1515           3.00         2.00
  211.03        2971.50           1518           7.00        12.64
  211.05        2971.75           1521           7.00        12.64
  211.08        2972.00           1525           4.00         2.00
  211.11        2972.25           1528           8.00        17.00
  211.13        2972.50           1531           5.00         3.92
  211.16        2972.75           1535           4.00         2.00
  211.19        2973.00           1538           1.00         2.00
  211.21        2973.25           1541           1.00         2.00
  211.24        2973.50           1545           1.00         2.00
  211.27        2973.75           1548           3.00         2.00
  211.30        2974.00           1551           4.00         2.00
  211.32        2974.25           1555           8.00        17.00
  211.35        2974.50           1558           6.00         8.28
  211.38        2974.75           1561           0.00         2.00
  211.40        2975.00           1565           1.00         2.00
  211.43        2975.25           1568           0.00         2.00
  211.46        2975.50           1571           8.00        17.00
  211.49        2975.75           1575           3.00         2.00
  211.51        2976.00           1578           6.00         8.28
  211.54        2976.25           1581           3.00         2.00
  211.57        2976.50           1585           5.00         3.92
  211.59        2976.75           1588           0.00         2.00
  211.62        2977.00           1591           8.00        17.00
  211.65        2977.25           1595           8.00        17.00
  211.68        2977.50           1598           7.00        12.64
  211.70        2977.75           1601           2.00         2.00
  211.73        2978.00           1605           7.00        12.64
  211.76        2978.25           1608           8.00        17.00
  211.78        2978.50           1611           6.00         8.28
  211.81        2978.75           1615           0.00         2.00
  211.84        2979.00           1618           3.00         2.00
  211.87        2979.25           1621           0.00         2.00
  211.89        2979.50           1625           8.00        17.00
  211.92        2979.75           1628           3.00         2.00
  211.95        2980.00           1631           3.00         2.00
  211.97        2980.25           1635           7.00        12.64
  212.00        2980.50           1638           9.00        21.36
  212.03        2980.75           1641           8.00        17.00
  212.06        2981.00           1645           0.00         2.00
  212.08        2981.25           1648           0.00         2.00
  212.11        2981.50           1651           2.00         2.00
  212.14        2981.75           1655           2.00         2.00
  212.16        2982.00           1658           7.00        12.64
  212.19        2982.25           1661           1.00         2.00
  212.22        2982.50           1665           8.00        17.00
  212.25        2982.75           1668           8.00        17.00
  212.27        2983.00           1671           2.00         2.00
  212.30        2983.25           1675           3.00         2.00
  212.33        2983.50           1678           8.00        17.00
  212.35        2983.75           1681           5.00         3.92
  212.38        2984.00           1685           2.00         2.00
HS scan finished at 03:32:34
end
