************************************************************
  HS Scan of (1) Internal mercury lamp
************************************************************
Integration time is 0.2294 seconds per sample
dh110317Tamanrasset 22.79-5.529 2.715812pr865
************************************************************
Dead Time -------------------------  2.8E-08 
Number of Cycles Used -------------  4 
Starting Wavelength (Angstroms) ---  2950 
Final Wavelength (Angstoms) -------  2984 
Wavelength Increment (Angstroms) --  .25 
Filter Wheel #1 Position ---------- (1) Ground quartz diffuser (ND=2.32)
Filter Wheel #2 Position ---------- (1) Neutral Density 0.494



************************************************************
HS scan start time = 03:34:17
Dark Count =  4.8 


Time (GMT)  Wavelength (Ang)  Step Number  Raw Counts  Counts/Second

  214.64        2950.00           1233           5.00         2.00
  214.70        2950.25           1236           8.00        13.95
  214.73        2950.50           1239           4.00         2.00
  214.75        2950.75           1242           8.00        13.95
  214.78        2951.00           1246           4.00         2.00
  214.81        2951.25           1249           0.00         2.00
  214.84        2951.50           1252           2.00         2.00
  214.86        2951.75           1256           8.00        13.95
  214.89        2952.00           1259           8.00        13.95
  214.92        2952.25           1262           0.00         2.00
  214.94        2952.50           1266           8.00        13.95
  214.97        2952.75           1269           0.00         2.00
  215.00        2953.00           1272           0.00         2.00
  215.02        2953.25           1276           4.00         2.00
  215.05        2953.50           1279           1.00         2.00
  215.08        2953.75           1282           0.00         2.00
  215.11        2954.00           1286           5.00         2.00
  215.13        2954.25           1289           8.00        13.95
  215.16        2954.50           1292           8.00        13.95
  215.19        2954.75           1295           8.00        13.95
  215.21        2955.00           1299           8.00        13.95
  215.24        2955.25           1302           0.00         2.00
  215.27        2955.50           1305           1.00         2.00
  215.30        2955.75           1309           8.00        13.95
  215.32        2956.00           1312           6.00         5.23
  215.35        2956.25           1315           0.00         2.00
  215.38        2956.50           1319           8.00        13.95
  215.40        2956.75           1322           2.00         2.00
  215.43        2957.00           1325           8.00        13.95
  215.46        2957.25           1329           8.00        13.95
  215.49        2957.50           1332           6.00         5.23
  215.51        2957.75           1335           8.00        13.95
  215.54        2958.00           1339           6.00         5.23
  215.57        2958.25           1342           8.00        13.95
  215.59        2958.50           1345           1.00         2.00
  215.62        2958.75           1348           0.00         2.00
  215.65        2959.00           1352           1.00         2.00
  215.68        2959.25           1355           0.00         2.00
  215.70        2959.50           1358           8.00        13.95
  215.73        2959.75           1362           2.00         2.00
  215.76        2960.00           1365           7.00         9.59
  215.78        2960.25           1368           2.00         2.00
  215.81        2960.50           1372           8.00        13.95
  215.84        2960.75           1375           5.00         2.00
  215.87        2961.00           1378           1.00         2.00
  215.89        2961.25           1382           6.00         5.23
  215.92        2961.50           1385           5.00         2.00
  215.95        2961.75           1388           5.00         2.00
  215.97        2962.00           1392           0.00         2.00
  216.00        2962.25           1395           4.00         2.00
  216.03        2962.50           1398           2.00         2.00
  216.06        2962.75           1402           2.00         2.00
  216.08        2963.00           1405           8.00        13.95
  216.11        2963.25           1408           0.00         2.00
  216.14        2963.50           1412           0.00         2.00
  216.16        2963.75           1415           3.00         2.00
  216.19        2964.00           1418           1.00         2.00
  216.22        2964.25           1422           5.00         2.00
  216.25        2964.50           1425           0.00         2.00
  216.27        2964.75           1428           1.00         2.00
  216.30        2965.00           1431           8.00        13.95
  216.33        2965.25           1435           3.00         2.00
  216.35        2965.50           1438           3.00         2.00
  216.38        2965.75           1441           5.00         2.00
  216.41        2966.00           1445           8.00        13.95
  216.44        2966.25           1448           1.00         2.00
  216.46        2966.50           1451           0.00         2.00
  216.49        2966.75           1455           0.00         2.00
  216.52        2967.00           1458           8.00        13.95
  216.54        2967.25           1461           0.00         2.00
  216.57        2967.50           1465           0.00         2.00
  216.60        2967.75           1468           8.00        13.95
  216.63        2968.00           1471           8.00        13.95
  216.65        2968.25           1475           0.00         2.00
  216.68        2968.50           1478           6.00         5.23
  216.71        2968.75           1481           8.00        13.95
  216.73        2969.00           1485           5.00         2.00
  216.76        2969.25           1488           0.00         2.00
  216.79        2969.50           1491           0.00         2.00
  216.82        2969.75           1495           0.00         2.00
  216.84        2970.00           1498           0.00         2.00
  216.87        2970.25           1501           6.00         5.23
  216.90        2970.50           1505           8.00        13.95
  216.92        2970.75           1508           0.00         2.00
  216.95        2971.00           1511           0.00         2.00
  216.98        2971.25           1515           8.00        13.95
  217.01        2971.50           1518           8.00        13.95
  217.03        2971.75           1521           8.00        13.95
  217.06        2972.00           1525           8.00        13.95
  217.09        2972.25           1528           1.00         2.00
  217.11        2972.50           1531           8.00        13.95
  217.14        2972.75           1535           4.00         2.00
  217.17        2973.00           1538           8.00        13.95
  217.20        2973.25           1541           8.00        13.95
  217.22        2973.50           1545           1.00         2.00
  217.25        2973.75           1548           2.00         2.00
  217.28        2974.00           1551           1.00         2.00
  217.30        2974.25           1555           8.00        13.95
  217.33        2974.50           1558           7.00         9.59
  217.36        2974.75           1561           0.00         2.00
  217.39        2975.00           1565           8.00        13.95
  217.41        2975.25           1568           0.00         2.00
  217.44        2975.50           1571           0.00         2.00
  217.47        2975.75           1575           6.00         5.23
  217.49        2976.00           1578           2.00         2.00
  217.52        2976.25           1581           5.00         2.00
  217.55        2976.50           1585           0.00         2.00
  217.58        2976.75           1588           2.00         2.00
  217.60        2977.00           1591           2.00         2.00
  217.63        2977.25           1595           0.00         2.00
  217.66        2977.50           1598           0.00         2.00
  217.68        2977.75           1601           3.00         2.00
  217.71        2978.00           1605           0.00         2.00
  217.74        2978.25           1608           2.00         2.00
  217.76        2978.50           1611           0.00         2.00
  217.79        2978.75           1615           0.00         2.00
  217.82        2979.00           1618           0.00         2.00
  217.85        2979.25           1621           3.00         2.00
  217.87        2979.50           1625           0.00         2.00
  217.90        2979.75           1628           8.00        13.95
  217.93        2980.00           1631           1.00         2.00
  217.95        2980.25           1635           0.00         2.00
  217.98        2980.50           1638           8.00        13.95
  218.01        2980.75           1641           8.00        13.95
  218.04        2981.00           1645           4.00         2.00
  218.06        2981.25           1648           8.00        13.95
  218.09        2981.50           1651           4.00         2.00
  218.12        2981.75           1655           8.00        13.95
  218.14        2982.00           1658           8.00        13.95
  218.17        2982.25           1661           4.00         2.00
  218.20        2982.50           1665           0.00         2.00
  218.23        2982.75           1668           1.00         2.00
  218.25        2983.00           1671           0.00         2.00
  218.28        2983.25           1675           4.00         2.00
  218.31        2983.50           1678           0.00         2.00
  218.33        2983.75           1681           6.00         5.23
  218.36        2984.00           1685           8.00        13.95
HS scan finished at 03:38:33
end
