************************************************************
  HS Scan of (1) Internal mercury lamp
************************************************************
Integration time is 0.2294 seconds per sample
dh210317Tamanrasset 22.79-5.529 2.817778pr865
************************************************************
Dead Time -------------------------  2.8E-08 
Number of Cycles Used -------------  4 
Starting Wavelength (Angstroms) ---  2950 
Final Wavelength (Angstoms) -------  2984 
Wavelength Increment (Angstroms) --  .25 
Filter Wheel #1 Position ---------- (1) Ground quartz diffuser (ND=2.32)
Filter Wheel #2 Position ---------- (1) Neutral Density 0.494



************************************************************
HS scan start time = 03:25:18
Dark Count =  3.8 


Time (GMT)  Wavelength (Ang)  Step Number  Raw Counts  Counts/Second

  205.65        2950.00           1233           0.00         2.00
  205.71        2950.25           1236           8.00        18.31
  205.74        2950.50           1239           8.00        18.31
  205.77        2950.75           1242           8.00        18.31
  205.80        2951.00           1246           2.00         2.00
  205.82        2951.25           1249           0.00         2.00
  205.85        2951.50           1252           3.00         2.00
  205.88        2951.75           1256           6.00         9.59
  205.90        2952.00           1259           2.00         2.00
  205.93        2952.25           1262           0.00         2.00
  205.96        2952.50           1266           5.00         5.23
  205.99        2952.75           1269           8.00        18.31
  206.01        2953.00           1272           8.00        18.31
  206.04        2953.25           1276           5.00         5.23
  206.07        2953.50           1279           0.00         2.00
  206.09        2953.75           1282           7.00        13.95
  206.12        2954.00           1286           5.00         5.23
  206.15        2954.25           1289           7.00        13.95
  206.18        2954.50           1292           8.00        18.31
  206.20        2954.75           1295           4.00         2.00
  206.23        2955.00           1299           5.00         5.23
  206.26        2955.25           1302           6.00         9.59
  206.28        2955.50           1305           8.00        18.31
  206.31        2955.75           1309           8.00        18.31
  206.34        2956.00           1312           8.00        18.31
  206.37        2956.25           1315           8.00        18.31
  206.39        2956.50           1319           8.00        18.31
  206.42        2956.75           1322           4.00         2.00
  206.45        2957.00           1325           5.00         5.23
  206.47        2957.25           1329           0.00         2.00
  206.50        2957.50           1332           8.00        18.31
  206.53        2957.75           1335           7.00        13.95
  206.55        2958.00           1339           0.00         2.00
  206.58        2958.25           1342           8.00        18.31
  206.61        2958.50           1345           8.00        18.31
  206.64        2958.75           1348           8.00        18.31
  206.66        2959.00           1352           5.00         5.23
  206.69        2959.25           1355           6.00         9.59
  206.72        2959.50           1358           7.00        13.95
  206.74        2959.75           1362           0.00         2.00
  206.77        2960.00           1365           6.00         9.59
  206.80        2960.25           1368           8.00        18.31
  206.83        2960.50           1372           1.00         2.00
  206.85        2960.75           1375           0.00         2.00
  206.88        2961.00           1378           0.00         2.00
  206.91        2961.25           1382           8.00        18.31
  206.93        2961.50           1385           0.00         2.00
  206.96        2961.75           1388           0.00         2.00
  206.99        2962.00           1392           7.00        13.95
  207.02        2962.25           1395           8.00        18.31
  207.04        2962.50           1398           0.00         2.00
  207.07        2962.75           1402           1.00         2.00
  207.10        2963.00           1405           8.00        18.31
  207.12        2963.25           1408           3.00         2.00
  207.15        2963.50           1412           8.00        18.31
  207.18        2963.75           1415           3.00         2.00
  207.21        2964.00           1418           7.00        13.95
  207.23        2964.25           1422           4.00         2.00
  207.26        2964.50           1425           7.00        13.95
  207.29        2964.75           1428           0.00         2.00
  207.31        2965.00           1431           0.00         2.00
  207.34        2965.25           1435           2.00         2.00
  207.37        2965.50           1438           5.00         5.23
  207.39        2965.75           1441           0.00         2.00
  207.42        2966.00           1445           2.00         2.00
  207.45        2966.25           1448           6.00         9.59
  207.48        2966.50           1451           7.00        13.95
  207.50        2966.75           1455           2.00         2.00
  207.53        2967.00           1458           8.00        18.31
  207.56        2967.25           1461           8.00        18.31
  207.59        2967.50           1465           2.00         2.00
  207.61        2967.75           1468           6.00         9.59
  207.64        2968.00           1471           8.00        18.31
  207.67        2968.25           1475           8.00        18.31
  207.69        2968.50           1478           7.00        13.95
  207.72        2968.75           1481           0.00         2.00
  207.75        2969.00           1485           0.00         2.00
  207.77        2969.25           1488           8.00        18.31
  207.80        2969.50           1491           5.00         5.23
  207.83        2969.75           1495           0.00         2.00
  207.86        2970.00           1498           6.00         9.59
  207.88        2970.25           1501           2.00         2.00
  207.91        2970.50           1505           2.00         2.00
  207.94        2970.75           1508           4.00         2.00
  207.96        2971.00           1511           1.00         2.00
  207.99        2971.25           1515           5.00         5.23
  208.02        2971.50           1518           8.00        18.31
  208.05        2971.75           1521           3.00         2.00
  208.07        2972.00           1525           8.00        18.31
  208.10        2972.25           1528           0.00         2.00
  208.13        2972.50           1531           0.00         2.00
  208.15        2972.75           1535           3.00         2.00
  208.18        2973.00           1538           0.00         2.00
  208.21        2973.25           1541           0.00         2.00
  208.24        2973.50           1545           0.00         2.00
  208.26        2973.75           1548           8.00        18.31
  208.29        2974.00           1551           1.00         2.00
  208.32        2974.25           1555           3.00         2.00
  208.34        2974.50           1558           8.00        18.31
  208.37        2974.75           1561           4.00         2.00
  208.40        2975.00           1565           0.00         2.00
  208.42        2975.25           1568           4.00         2.00
  208.45        2975.50           1571           0.00         2.00
  208.48        2975.75           1575           6.00         9.59
  208.51        2976.00           1578           8.00        18.31
  208.53        2976.25           1581           5.00         5.23
  208.56        2976.50           1585           0.00         2.00
  208.59        2976.75           1588           4.00         2.00
  208.61        2977.00           1591           8.00        18.31
  208.64        2977.25           1595           0.00         2.00
  208.67        2977.50           1598           8.00        18.31
  208.70        2977.75           1601           5.00         5.23
  208.72        2978.00           1605           3.00         2.00
  208.75        2978.25           1608           1.00         2.00
  208.78        2978.50           1611           8.00        18.31
  208.80        2978.75           1615           5.00         5.23
  208.83        2979.00           1618           2.00         2.00
  208.86        2979.25           1621           5.00         5.23
  208.89        2979.50           1625           0.00         2.00
  208.91        2979.75           1628           0.00         2.00
  208.94        2980.00           1631           6.00         9.59
  208.97        2980.25           1635           8.00        18.31
  208.99        2980.50           1638           8.00        18.31
  209.02        2980.75           1641           8.00        18.31
  209.05        2981.00           1645           2.00         2.00
  209.07        2981.25           1648           6.00         9.59
  209.10        2981.50           1651           0.00         2.00
  209.13        2981.75           1655           8.00        18.31
  209.16        2982.00           1658           8.00        18.31
  209.18        2982.25           1661           6.00         9.59
  209.21        2982.50           1665           0.00         2.00
  209.24        2982.75           1668           8.00        18.31
  209.27        2983.00           1671           6.00         9.59
  209.29        2983.25           1675           3.00         2.00
  209.32        2983.50           1678           4.00         2.00
  209.35        2983.75           1681           8.00        18.31
  209.37        2984.00           1685           8.00        18.31
HS scan finished at 03:29:34
end
