************************************************************
  HS Scan of (1) Internal mercury lamp
************************************************************
Integration time is 0.2294 seconds per sample
dh230317Tamanrasset 22.79-5.529 2.7515pr865
************************************************************
Dead Time -------------------------  2.8E-08 
Number of Cycles Used -------------  4 
Starting Wavelength (Angstroms) ---  2950 
Final Wavelength (Angstoms) -------  2984 
Wavelength Increment (Angstroms) --  .25 
Filter Wheel #1 Position ---------- (1) Ground quartz diffuser (ND=2.32)
Filter Wheel #2 Position ---------- (1) Neutral Density 0.494



************************************************************
HS scan start time = 03:23:29
Dark Count =  3.9 


Time (GMT)  Wavelength (Ang)  Step Number  Raw Counts  Counts/Second

  203.85        2950.00           1233           6.00         9.15
  203.91        2950.25           1236           8.00        17.87
  203.94        2950.50           1239           8.00        17.87
  203.96        2950.75           1242           8.00        17.87
  203.99        2951.00           1246           0.00         2.00
  204.02        2951.25           1249           8.00        17.87
  204.05        2951.50           1252           0.00         2.00
  204.07        2951.75           1256           0.00         2.00
  204.10        2952.00           1259           0.00         2.00
  204.13        2952.25           1262           3.00         2.00
  204.15        2952.50           1266           8.00        17.87
  204.18        2952.75           1269           0.00         2.00
  204.21        2953.00           1272           6.00         9.15
  204.24        2953.25           1276           4.00         2.00
  204.26        2953.50           1279           9.00        22.23
  204.29        2953.75           1282           0.00         2.00
  204.32        2954.00           1286           5.00         4.80
  204.34        2954.25           1289           6.00         9.15
  204.37        2954.50           1292           6.00         9.15
  204.40        2954.75           1295           3.00         2.00
  204.43        2955.00           1299           8.00        17.87
  204.45        2955.25           1302           1.00         2.00
  204.48        2955.50           1305           8.00        17.87
  204.51        2955.75           1309           0.00         2.00
  204.53        2956.00           1312           8.00        17.87
  204.56        2956.25           1315           1.00         2.00
  204.59        2956.50           1319           1.00         2.00
  204.62        2956.75           1322           6.00         9.15
  204.64        2957.00           1325           1.00         2.00
  204.67        2957.25           1329           0.00         2.00
  204.70        2957.50           1332           8.00        17.87
  204.72        2957.75           1335           4.00         2.00
  204.75        2958.00           1339           4.00         2.00
  204.78        2958.25           1342           8.00        17.87
  204.81        2958.50           1345           7.00        13.51
  204.83        2958.75           1348           5.00         4.80
  204.86        2959.00           1352           9.00        22.23
  204.89        2959.25           1355           8.00        17.87
  204.91        2959.50           1358           8.00        17.87
  204.94        2959.75           1362           3.00         2.00
  204.97        2960.00           1365           8.00        17.87
  205.00        2960.25           1368           8.00        17.87
  205.02        2960.50           1372           0.00         2.00
  205.05        2960.75           1375           0.00         2.00
  205.08        2961.00           1378           8.00        17.87
  205.11        2961.25           1382           0.00         2.00
  205.13        2961.50           1385           0.00         2.00
  205.16        2961.75           1388           0.00         2.00
  205.19        2962.00           1392           4.00         2.00
  205.21        2962.25           1395           1.00         2.00
  205.24        2962.50           1398           8.00        17.87
  205.27        2962.75           1402           8.00        17.87
  205.29        2963.00           1405           1.00         2.00
  205.32        2963.25           1408           0.00         2.00
  205.35        2963.50           1412           3.00         2.00
  205.38        2963.75           1415           8.00        17.87
  205.40        2964.00           1418           5.00         4.80
  205.43        2964.25           1422           3.00         2.00
  205.46        2964.50           1425           8.00        17.87
  205.48        2964.75           1428           8.00        17.87
  205.51        2965.00           1431           1.00         2.00
  205.54        2965.25           1435           2.00         2.00
  205.57        2965.50           1438           8.00        17.87
  205.59        2965.75           1441           5.00         4.80
  205.62        2966.00           1445           6.00         9.15
  205.65        2966.25           1448           0.00         2.00
  205.67        2966.50           1451           0.00         2.00
  205.70        2966.75           1455           8.00        17.87
  205.73        2967.00           1458           8.00        17.87
  205.76        2967.25           1461           6.00         9.15
  205.78        2967.50           1465           3.00         2.00
  205.81        2967.75           1468           7.00        13.51
  205.84        2968.00           1471           8.00        17.87
  205.86        2968.25           1475           8.00        17.87
  205.89        2968.50           1478           8.00        17.87
  205.92        2968.75           1481           0.00         2.00
  205.95        2969.00           1485           0.00         2.00
  205.97        2969.25           1488           4.00         2.00
  206.00        2969.50           1491           0.00         2.00
  206.03        2969.75           1495           8.00        17.87
  206.06        2970.00           1498           3.00         2.00
  206.08        2970.25           1501           0.00         2.00
  206.11        2970.50           1505           8.00        17.87
  206.14        2970.75           1508           8.00        17.87
  206.16        2971.00           1511           2.00         2.00
  206.19        2971.25           1515           8.00        17.87
  206.22        2971.50           1518           0.00         2.00
  206.25        2971.75           1521           8.00        17.87
  206.27        2972.00           1525           2.00         2.00
  206.30        2972.25           1528           6.00         9.15
  206.33        2972.50           1531           0.00         2.00
  206.35        2972.75           1535           8.00        17.87
  206.38        2973.00           1538           8.00        17.87
  206.41        2973.25           1541           3.00         2.00
  206.44        2973.50           1545           7.00        13.51
  206.46        2973.75           1548           5.00         4.80
  206.49        2974.00           1551           0.00         2.00
  206.52        2974.25           1555           0.00         2.00
  206.54        2974.50           1558           0.00         2.00
  206.57        2974.75           1561           3.00         2.00
  206.60        2975.00           1565           0.00         2.00
  206.63        2975.25           1568           5.00         4.80
  206.65        2975.50           1571           0.00         2.00
  206.68        2975.75           1575           8.00        17.87
  206.71        2976.00           1578           8.00        17.87
  206.73        2976.25           1581           6.00         9.15
  206.76        2976.50           1585           8.00        17.87
  206.79        2976.75           1588           6.00         9.15
  206.82        2977.00           1591           5.00         4.80
  206.84        2977.25           1595           8.00        17.87
  206.87        2977.50           1598           1.00         2.00
  206.90        2977.75           1601           8.00        17.87
  206.92        2978.00           1605           7.00        13.51
  206.95        2978.25           1608           8.00        17.87
  206.98        2978.50           1611           0.00         2.00
  207.01        2978.75           1615           4.00         2.00
  207.03        2979.00           1618           8.00        17.87
  207.06        2979.25           1621           2.00         2.00
  207.09        2979.50           1625           2.00         2.00
  207.11        2979.75           1628           7.00        13.51
  207.14        2980.00           1631           0.00         2.00
  207.17        2980.25           1635           0.00         2.00
  207.20        2980.50           1638           0.00         2.00
  207.22        2980.75           1641           2.00         2.00
  207.25        2981.00           1645           6.00         9.15
  207.28        2981.25           1648           2.00         2.00
  207.30        2981.50           1651           6.00         9.15
  207.33        2981.75           1655           0.00         2.00
  207.36        2982.00           1658           5.00         4.80
  207.39        2982.25           1661           8.00        17.87
  207.41        2982.50           1665           3.00         2.00
  207.44        2982.75           1668           3.00         2.00
  207.47        2983.00           1671           8.00        17.87
  207.49        2983.25           1675           8.00        17.87
  207.52        2983.50           1678           8.00        17.87
  207.55        2983.75           1681           7.00        13.51
  207.58        2984.00           1685           2.00         2.00
HS scan finished at 03:27:46
end
