************************************************************
  HS Scan of (1) Internal mercury lamp
************************************************************
Integration time is 0.2294 seconds per sample
dh230319Tamanrasset 22.79-5.529 4.974364pr865
************************************************************
Dead Time -------------------------  2.8E-08 
Number of Cycles Used -------------  4 
Starting Wavelength (Angstroms) ---  2950 
Final Wavelength (Angstoms) -------  2984 
Wavelength Increment (Angstroms) --  .25 
Filter Wheel #1 Position ---------- (1) Ground quartz diffuser (ND=2.32)
Filter Wheel #2 Position ---------- (1) Neutral Density 0.494



************************************************************
HS scan start time = 03:51:53
Dark Count =  3.8 


Time (GMT)  Wavelength (Ang)  Step Number  Raw Counts  Counts/Second

  232.24        2950.00           1233          14.00        44.46
  232.31        2950.25           1236          15.00        48.82
  232.33        2950.50           1239          19.00        66.26
  232.36        2950.75           1242          22.00        79.34
  232.39        2951.00           1246          13.00        40.10
  232.42        2951.25           1249          21.00        74.98
  232.44        2951.50           1252          17.00        57.54
  232.47        2951.75           1256          18.00        61.90
  232.50        2952.00           1259          21.00        74.98
  232.53        2952.25           1262          17.00        57.54
  232.55        2952.50           1266          20.00        70.62
  232.58        2952.75           1269          16.00        53.18
  232.61        2953.00           1272          26.00        96.77
  232.63        2953.25           1276          20.00        70.62
  232.66        2953.50           1279          19.00        66.26
  232.69        2953.75           1282          18.00        61.90
  232.72        2954.00           1286          20.00        70.62
  232.74        2954.25           1289          15.00        48.82
  232.77        2954.50           1292          17.00        57.54
  232.80        2954.75           1295          19.00        66.26
  232.83        2955.00           1299          17.00        57.54
  232.85        2955.25           1302          17.00        57.54
  232.88        2955.50           1305          18.00        61.90
  232.91        2955.75           1309          16.00        53.18
  232.93        2956.00           1312          20.00        70.62
  232.96        2956.25           1315          22.00        79.34
  232.99        2956.50           1319          20.00        70.62
  233.02        2956.75           1322          17.00        57.54
  233.04        2957.00           1325          17.00        57.54
  233.07        2957.25           1329          16.00        53.18
  233.10        2957.50           1332          19.00        66.26
  233.13        2957.75           1335          20.00        70.62
  233.15        2958.00           1339          16.00        53.18
  233.18        2958.25           1342          16.00        53.18
  233.21        2958.50           1345          20.00        70.62
  233.24        2958.75           1348          17.00        57.54
  233.26        2959.00           1352          19.00        66.26
  233.29        2959.25           1355          15.00        48.82
  233.32        2959.50           1358          22.00        79.34
  233.34        2959.75           1362          21.00        74.98
  233.37        2960.00           1365          20.00        70.62
  233.40        2960.25           1368          27.00       101.13
  233.43        2960.50           1372          28.00       105.49
  233.45        2960.75           1375          34.00       131.65
  233.48        2961.00           1378          58.00       236.27
  233.51        2961.25           1382         310.00      1334.84
  233.54        2961.50           1385         807.00      3501.65
  233.56        2961.75           1388        1682.00      7317.11
  233.59        2962.00           1392        3690.00     16076.11
  233.62        2962.25           1395        5552.00     24202.10
  233.65        2962.50           1398        7741.00     33759.88
  233.67        2962.75           1402       10459.00     45634.57
  233.70        2963.00           1405       12607.00     55024.56
  233.73        2963.25           1408       14962.00     65325.14
  233.76        2963.50           1412       17696.00     77290.88
  233.78        2963.75           1415       19816.00     86574.91
  233.81        2964.00           1418       22103.00     96595.69
  233.84        2964.25           1422       24817.00    108494.70
  233.86        2964.50           1425       26767.00    117049.10
  233.89        2964.75           1428       29103.00    127302.10
  233.92        2965.00           1431       31269.00    136814.30
  233.95        2965.25           1435       34241.00    149874.40
  233.97        2965.50           1438       36586.00    160185.90
  234.00        2965.75           1441       38719.00    169570.40
  234.03        2966.00           1445       41736.00    182852.70
  234.06        2966.25           1448       43467.00    190477.90
  234.08        2966.50           1451       45140.00    197850.60
  234.11        2966.75           1455       46610.00    204331.40
  234.14        2967.00           1458       46787.00    205111.80
  234.17        2967.25           1461       47090.00    206448.00
  234.19        2967.50           1465       46702.00    204737.00
  234.22        2967.75           1468       46527.00    203965.40
  234.25        2968.00           1471       45560.00    199702.10
  234.28        2968.25           1475       44087.00    193209.80
  234.30        2968.50           1478       42109.00    184495.50
  234.33        2968.75           1481       39894.00    174742.20
  234.36        2969.00           1485       36929.00    161694.70
  234.39        2969.25           1488       34497.00    150999.80
  234.41        2969.50           1491       32209.00    140944.00
  234.44        2969.75           1495       29232.00    127868.50
  234.47        2970.00           1498       27128.00    118633.20
  234.50        2970.25           1501       24854.00    108657.00
  234.52        2970.50           1505       21934.00     95855.01
  234.55        2970.75           1508       19745.00     86263.91
  234.58        2971.00           1511       17604.00     76888.10
  234.61        2971.25           1515       14560.00     63566.40
  234.63        2971.50           1518       12512.00     54609.16
  234.66        2971.75           1521       10395.00     45354.87
  234.69        2972.00           1525        7523.00     32807.81
  234.72        2972.25           1528        5476.00     23870.35
  234.74        2972.50           1531        3726.00     16233.18
  234.77        2972.75           1535        1627.00      7077.25
  234.80        2973.00           1538         673.00      2917.41
  234.83        2973.25           1541         211.00       903.25
  234.85        2973.50           1545          45.00       179.60
  234.88        2973.75           1548          40.00       157.80
  234.91        2974.00           1551          25.00        92.42
  234.94        2974.25           1555          22.00        79.34
  234.96        2974.50           1558          24.00        88.06
  234.99        2974.75           1561          30.00       114.21
  235.02        2975.00           1565          21.00        74.98
  235.04        2975.25           1568          16.00        53.18
  235.07        2975.50           1571          19.00        66.26
  235.10        2975.75           1575          24.00        88.06
  235.13        2976.00           1578          20.00        70.62
  235.15        2976.25           1581          19.00        66.26
  235.18        2976.50           1585          20.00        70.62
  235.21        2976.75           1588          23.00        83.70
  235.24        2977.00           1591          19.00        66.26
  235.26        2977.25           1595          19.00        66.26
  235.29        2977.50           1598          18.00        61.90
  235.32        2977.75           1601          18.00        61.90
  235.34        2978.00           1605          17.00        57.54
  235.37        2978.25           1608          22.00        79.34
  235.40        2978.50           1611          20.00        70.62
  235.43        2978.75           1615          24.00        88.06
  235.45        2979.00           1618          22.00        79.34
  235.48        2979.25           1621          17.00        57.54
  235.51        2979.50           1625          19.00        66.26
  235.53        2979.75           1628          20.00        70.62
  235.56        2980.00           1631          18.00        61.90
  235.59        2980.25           1635          17.00        57.54
  235.62        2980.50           1638          22.00        79.34
  235.64        2980.75           1641          21.00        74.98
  235.67        2981.00           1645          23.00        83.70
  235.70        2981.25           1648          23.00        83.70
  235.73        2981.50           1651          18.00        61.90
  235.75        2981.75           1655          20.00        70.62
  235.78        2982.00           1658          24.00        88.06
  235.81        2982.25           1661          19.00        66.26
  235.83        2982.50           1665          18.00        61.90
  235.86        2982.75           1668          19.00        66.26
  235.89        2983.00           1671          17.00        57.54
  235.92        2983.25           1675          18.00        61.90
  235.94        2983.50           1678          19.00        66.26
  235.97        2983.75           1681          20.00        70.62
  236.00        2984.00           1685          15.00        48.82
HS scan finished at 03:56:11
end
