************************************************************
  HS Scan of (1) Internal mercury lamp
************************************************************
Integration time is 0.2294 seconds per sample
dh260317Tamanrasset 22.79-5.529 2.756598pr865
************************************************************
Dead Time -------------------------  2.8E-08 
Number of Cycles Used -------------  4 
Starting Wavelength (Angstroms) ---  2950 
Final Wavelength (Angstoms) -------  2984 
Wavelength Increment (Angstroms) --  .25 
Filter Wheel #1 Position ---------- (1) Ground quartz diffuser (ND=2.32)
Filter Wheel #2 Position ---------- (1) Neutral Density 0.494



************************************************************
HS scan start time = 03:20:15
Dark Count =  3.8 


Time (GMT)  Wavelength (Ang)  Step Number  Raw Counts  Counts/Second

  200.61        2950.00           1233           3.00         2.00
  200.68        2950.25           1236           6.00         9.59
  200.70        2950.50           1239           8.00        18.31
  200.73        2950.75           1242           2.00         2.00
  200.76        2951.00           1246           0.00         2.00
  200.79        2951.25           1249           8.00        18.31
  200.81        2951.50           1252           6.00         9.59
  200.84        2951.75           1256           1.00         2.00
  200.87        2952.00           1259           8.00        18.31
  200.89        2952.25           1262           8.00        18.31
  200.92        2952.50           1266           0.00         2.00
  200.95        2952.75           1269           3.00         2.00
  200.98        2953.00           1272           5.00         5.23
  201.00        2953.25           1276           8.00        18.31
  201.03        2953.50           1279           4.00         2.00
  201.06        2953.75           1282           6.00         9.59
  201.08        2954.00           1286           0.00         2.00
  201.11        2954.25           1289           0.00         2.00
  201.14        2954.50           1292           8.00        18.31
  201.17        2954.75           1295           0.00         2.00
  201.19        2955.00           1299           2.00         2.00
  201.22        2955.25           1302           8.00        18.31
  201.25        2955.50           1305           3.00         2.00
  201.27        2955.75           1309           0.00         2.00
  201.30        2956.00           1312           1.00         2.00
  201.33        2956.25           1315           0.00         2.00
  201.36        2956.50           1319           4.00         2.00
  201.38        2956.75           1322           0.00         2.00
  201.41        2957.00           1325           2.00         2.00
  201.44        2957.25           1329           2.00         2.00
  201.46        2957.50           1332           4.00         2.00
  201.49        2957.75           1335           0.00         2.00
  201.52        2958.00           1339           0.00         2.00
  201.54        2958.25           1342           8.00        18.31
  201.57        2958.50           1345           0.00         2.00
  201.60        2958.75           1348           0.00         2.00
  201.63        2959.00           1352           2.00         2.00
  201.65        2959.25           1355           8.00        18.31
  201.68        2959.50           1358           2.00         2.00
  201.71        2959.75           1362           0.00         2.00
  201.73        2960.00           1365           2.00         2.00
  201.76        2960.25           1368           8.00        18.31
  201.79        2960.50           1372           1.00         2.00
  201.82        2960.75           1375           6.00         9.59
  201.84        2961.00           1378           6.00         9.59
  201.87        2961.25           1382           8.00        18.31
  201.90        2961.50           1385           8.00        18.31
  201.92        2961.75           1388           6.00         9.59
  201.95        2962.00           1392           3.00         2.00
  201.98        2962.25           1395           6.00         9.59
  202.01        2962.50           1398           8.00        18.31
  202.03        2962.75           1402           6.00         9.59
  202.06        2963.00           1405           0.00         2.00
  202.09        2963.25           1408           5.00         5.23
  202.11        2963.50           1412           0.00         2.00
  202.14        2963.75           1415           7.00        13.95
  202.17        2964.00           1418           5.00         5.23
  202.20        2964.25           1422           0.00         2.00
  202.22        2964.50           1425           4.00         2.00
  202.25        2964.75           1428           8.00        18.31
  202.28        2965.00           1431           4.00         2.00
  202.30        2965.25           1435           8.00        18.31
  202.33        2965.50           1438           5.00         5.23
  202.36        2965.75           1441           5.00         5.23
  202.39        2966.00           1445           6.00         9.59
  202.41        2966.25           1448           5.00         5.23
  202.44        2966.50           1451           8.00        18.31
  202.47        2966.75           1455           1.00         2.00
  202.49        2967.00           1458           2.00         2.00
  202.52        2967.25           1461           1.00         2.00
  202.55        2967.50           1465           0.00         2.00
  202.58        2967.75           1468           8.00        18.31
  202.60        2968.00           1471           0.00         2.00
  202.63        2968.25           1475           0.00         2.00
  202.66        2968.50           1478           0.00         2.00
  202.68        2968.75           1481           8.00        18.31
  202.71        2969.00           1485           2.00         2.00
  202.74        2969.25           1488           1.00         2.00
  202.77        2969.50           1491           4.00         2.00
  202.79        2969.75           1495           7.00        13.95
  202.82        2970.00           1498           4.00         2.00
  202.85        2970.25           1501           0.00         2.00
  202.87        2970.50           1505           0.00         2.00
  202.90        2970.75           1508           8.00        18.31
  202.93        2971.00           1511           6.00         9.59
  202.96        2971.25           1515           3.00         2.00
  202.98        2971.50           1518           0.00         2.00
  203.01        2971.75           1521           6.00         9.59
  203.04        2972.00           1525           8.00        18.31
  203.06        2972.25           1528           0.00         2.00
  203.09        2972.50           1531           0.00         2.00
  203.12        2972.75           1535           0.00         2.00
  203.15        2973.00           1538           3.00         2.00
  203.17        2973.25           1541           8.00        18.31
  203.20        2973.50           1545           4.00         2.00
  203.23        2973.75           1548           3.00         2.00
  203.26        2974.00           1551           2.00         2.00
  203.28        2974.25           1555           0.00         2.00
  203.31        2974.50           1558           2.00         2.00
  203.34        2974.75           1561           6.00         9.59
  203.36        2975.00           1565           4.00         2.00
  203.39        2975.25           1568           1.00         2.00
  203.42        2975.50           1571           8.00        18.31
  203.44        2975.75           1575           3.00         2.00
  203.47        2976.00           1578           0.00         2.00
  203.50        2976.25           1581           6.00         9.59
  203.53        2976.50           1585           5.00         5.23
  203.55        2976.75           1588           5.00         5.23
  203.58        2977.00           1591           8.00        18.31
  203.61        2977.25           1595           8.00        18.31
  203.63        2977.50           1598           5.00         5.23
  203.66        2977.75           1601           4.00         2.00
  203.69        2978.00           1605           4.00         2.00
  203.72        2978.25           1608           7.00        13.95
  203.74        2978.50           1611           8.00        18.31
  203.77        2978.75           1615           8.00        18.31
  203.80        2979.00           1618           8.00        18.31
  203.82        2979.25           1621           1.00         2.00
  203.85        2979.50           1625           8.00        18.31
  203.88        2979.75           1628           4.00         2.00
  203.91        2980.00           1631           2.00         2.00
  203.93        2980.25           1635           1.00         2.00
  203.96        2980.50           1638           8.00        18.31
  203.99        2980.75           1641           1.00         2.00
  204.01        2981.00           1645           8.00        18.31
  204.04        2981.25           1648           8.00        18.31
  204.07        2981.50           1651           8.00        18.31
  204.10        2981.75           1655           4.00         2.00
  204.12        2982.00           1658           4.00         2.00
  204.15        2982.25           1661           8.00        18.31
  204.18        2982.50           1665           8.00        18.31
  204.20        2982.75           1668           8.00        18.31
  204.23        2983.00           1671           0.00         2.00
  204.26        2983.25           1675           1.00         2.00
  204.29        2983.50           1678           6.00         9.59
  204.31        2983.75           1681           0.00         2.00
  204.34        2984.00           1685           5.00         5.23
HS scan finished at 03:24:32
end
