************************************************************
  HS Scan of (1) Internal mercury lamp
************************************************************
Integration time is 0.2294 seconds per sample
dh280317Tamanrasset 22.79-5.529 2.884056pr865
************************************************************
Dead Time -------------------------  2.8E-08 
Number of Cycles Used -------------  4 
Starting Wavelength (Angstroms) ---  2950 
Final Wavelength (Angstoms) -------  2984 
Wavelength Increment (Angstroms) --  .25 
Filter Wheel #1 Position ---------- (1) Ground quartz diffuser (ND=2.32)
Filter Wheel #2 Position ---------- (1) Neutral Density 0.494



************************************************************
HS scan start time = 03:18:32
Dark Count =  4.8 


Time (GMT)  Wavelength (Ang)  Step Number  Raw Counts  Counts/Second

  198.88        2950.00           1233           2.00         2.00
  198.95        2950.25           1236           0.00         2.00
  198.97        2950.50           1239           1.00         2.00
  199.00        2950.75           1242           0.00         2.00
  199.03        2951.00           1246           8.00        13.95
  199.06        2951.25           1249           8.00        13.95
  199.08        2951.50           1252           8.00        13.95
  199.11        2951.75           1256           5.00         2.00
  199.14        2952.00           1259           8.00        13.95
  199.16        2952.25           1262           8.00        13.95
  199.19        2952.50           1266           1.00         2.00
  199.22        2952.75           1269           5.00         2.00
  199.24        2953.00           1272           8.00        13.95
  199.27        2953.25           1276           5.00         2.00
  199.30        2953.50           1279           5.00         2.00
  199.33        2953.75           1282           6.00         5.23
  199.35        2954.00           1286           8.00        13.95
  199.38        2954.25           1289           7.00         9.59
  199.41        2954.50           1292           0.00         2.00
  199.43        2954.75           1295           8.00        13.95
  199.46        2955.00           1299           8.00        13.95
  199.49        2955.25           1302           7.00         9.59
  199.52        2955.50           1305           6.00         5.23
  199.54        2955.75           1309           1.00         2.00
  199.57        2956.00           1312           2.00         2.00
  199.60        2956.25           1315           8.00        13.95
  199.62        2956.50           1319           0.00         2.00
  199.65        2956.75           1322           8.00        13.95
  199.68        2957.00           1325           2.00         2.00
  199.71        2957.25           1329           7.00         9.59
  199.73        2957.50           1332           8.00        13.95
  199.76        2957.75           1335           3.00         2.00
  199.79        2958.00           1339           3.00         2.00
  199.81        2958.25           1342           3.00         2.00
  199.84        2958.50           1345           1.00         2.00
  199.87        2958.75           1348           8.00        13.95
  199.90        2959.00           1352           4.00         2.00
  199.92        2959.25           1355           6.00         5.23
  199.95        2959.50           1358           4.00         2.00
  199.98        2959.75           1362           3.00         2.00
  200.00        2960.00           1365           2.00         2.00
  200.03        2960.25           1368           5.00         2.00
  200.06        2960.50           1372           7.00         9.59
  200.08        2960.75           1375           1.00         2.00
  200.11        2961.00           1378           4.00         2.00
  200.14        2961.25           1382           5.00         2.00
  200.17        2961.50           1385           8.00        13.95
  200.19        2961.75           1388           3.00         2.00
  200.22        2962.00           1392           7.00         9.59
  200.25        2962.25           1395           7.00         9.59
  200.27        2962.50           1398           8.00        13.95
  200.30        2962.75           1402           0.00         2.00
  200.33        2963.00           1405           3.00         2.00
  200.36        2963.25           1408           8.00        13.95
  200.38        2963.50           1412           4.00         2.00
  200.41        2963.75           1415           0.00         2.00
  200.44        2964.00           1418           7.00         9.59
  200.46        2964.25           1422           5.00         2.00
  200.49        2964.50           1425           4.00         2.00
  200.52        2964.75           1428           0.00         2.00
  200.55        2965.00           1431           5.00         2.00
  200.57        2965.25           1435           5.00         2.00
  200.60        2965.50           1438           6.00         5.23
  200.63        2965.75           1441           3.00         2.00
  200.65        2966.00           1445           5.00         2.00
  200.68        2966.25           1448           8.00        13.95
  200.71        2966.50           1451           4.00         2.00
  200.74        2966.75           1455           5.00         2.00
  200.76        2967.00           1458           3.00         2.00
  200.79        2967.25           1461           0.00         2.00
  200.82        2967.50           1465           8.00        13.95
  200.84        2967.75           1468           3.00         2.00
  200.87        2968.00           1471           2.00         2.00
  200.90        2968.25           1475           8.00        13.95
  200.92        2968.50           1478           1.00         2.00
  200.95        2968.75           1481           4.00         2.00
  200.98        2969.00           1485           0.00         2.00
  201.01        2969.25           1488           0.00         2.00
  201.03        2969.50           1491           3.00         2.00
  201.06        2969.75           1495           3.00         2.00
  201.09        2970.00           1498           5.00         2.00
  201.11        2970.25           1501           0.00         2.00
  201.14        2970.50           1505           3.00         2.00
  201.17        2970.75           1508           6.00         5.23
  201.20        2971.00           1511           5.00         2.00
  201.22        2971.25           1515           2.00         2.00
  201.25        2971.50           1518           0.00         2.00
  201.28        2971.75           1521           5.00         2.00
  201.30        2972.00           1525           5.00         2.00
  201.33        2972.25           1528           5.00         2.00
  201.36        2972.50           1531           8.00        13.95
  201.39        2972.75           1535           8.00        13.95
  201.41        2973.00           1538           2.00         2.00
  201.44        2973.25           1541           1.00         2.00
  201.47        2973.50           1545           1.00         2.00
  201.49        2973.75           1548           8.00        13.95
  201.52        2974.00           1551           1.00         2.00
  201.55        2974.25           1555           6.00         5.23
  201.57        2974.50           1558           3.00         2.00
  201.60        2974.75           1561           2.00         2.00
  201.63        2975.00           1565           0.00         2.00
  201.66        2975.25           1568           8.00        13.95
  201.68        2975.50           1571           5.00         2.00
  201.71        2975.75           1575           4.00         2.00
  201.74        2976.00           1578           0.00         2.00
  201.76        2976.25           1581           1.00         2.00
  201.79        2976.50           1585           8.00        13.95
  201.82        2976.75           1588           0.00         2.00
  201.85        2977.00           1591           5.00         2.00
  201.87        2977.25           1595           5.00         2.00
  201.90        2977.50           1598           7.00         9.59
  201.93        2977.75           1601           7.00         9.59
  201.95        2978.00           1605           7.00         9.59
  201.98        2978.25           1608           0.00         2.00
  202.01        2978.50           1611           7.00         9.59
  202.04        2978.75           1615           5.00         2.00
  202.06        2979.00           1618           1.00         2.00
  202.09        2979.25           1621           8.00        13.95
  202.12        2979.50           1625           3.00         2.00
  202.14        2979.75           1628           9.00        18.31
  202.17        2980.00           1631           0.00         2.00
  202.20        2980.25           1635           8.00        13.95
  202.23        2980.50           1638           7.00         9.59
  202.25        2980.75           1641           5.00         2.00
  202.28        2981.00           1645           4.00         2.00
  202.31        2981.25           1648           0.00         2.00
  202.33        2981.50           1651           8.00        13.95
  202.36        2981.75           1655           4.00         2.00
  202.39        2982.00           1658           6.00         5.23
  202.42        2982.25           1661           1.00         2.00
  202.44        2982.50           1665           8.00        13.95
  202.47        2982.75           1668           1.00         2.00
  202.50        2983.00           1671           7.00         9.59
  202.52        2983.25           1675           4.00         2.00
  202.55        2983.50           1678           8.00        13.95
  202.58        2983.75           1681           8.00        13.95
  202.60        2984.00           1685           7.00         9.59
HS scan finished at 03:22:47
end
