************************************************************
  HS Scan of (1) Internal mercury lamp
************************************************************
Integration time is 0.2294 seconds per sample
dh300317Tamanrasset 22.79-5.529 2.940138pr865
************************************************************
Dead Time -------------------------  2.8E-08 
Number of Cycles Used -------------  4 
Starting Wavelength (Angstroms) ---  2950 
Final Wavelength (Angstoms) -------  2984 
Wavelength Increment (Angstroms) --  .25 
Filter Wheel #1 Position ---------- (1) Ground quartz diffuser (ND=2.32)
Filter Wheel #2 Position ---------- (1) Neutral Density 0.494



************************************************************
HS scan start time = 03:16:17
Dark Count =  4.9 


Time (GMT)  Wavelength (Ang)  Step Number  Raw Counts  Counts/Second

  196.64        2950.00           1233           1.00         2.00
  196.71        2950.25           1236           2.00         2.00
  196.74        2950.50           1239           4.00         2.00
  196.76        2950.75           1242           1.00         2.00
  196.79        2951.00           1246           4.00         2.00
  196.82        2951.25           1249           0.00         2.00
  196.84        2951.50           1252           5.00         2.00
  196.87        2951.75           1256           6.00         4.80
  196.90        2952.00           1259           8.00        13.51
  196.93        2952.25           1262           2.00         2.00
  196.95        2952.50           1266           1.00         2.00
  196.98        2952.75           1269           5.00         2.00
  197.01        2953.00           1272           2.00         2.00
  197.03        2953.25           1276           4.00         2.00
  197.06        2953.50           1279           6.00         4.80
  197.09        2953.75           1282           4.00         2.00
  197.12        2954.00           1286           7.00         9.15
  197.14        2954.25           1289           3.00         2.00
  197.17        2954.50           1292           8.00        13.51
  197.20        2954.75           1295           7.00         9.15
  197.22        2955.00           1299           3.00         2.00
  197.25        2955.25           1302           1.00         2.00
  197.28        2955.50           1305           0.00         2.00
  197.30        2955.75           1309           8.00        13.51
  197.33        2956.00           1312           8.00        13.51
  197.36        2956.25           1315           8.00        13.51
  197.39        2956.50           1319           8.00        13.51
  197.41        2956.75           1322           2.00         2.00
  197.44        2957.00           1325           8.00        13.51
  197.47        2957.25           1329           3.00         2.00
  197.49        2957.50           1332           7.00         9.15
  197.52        2957.75           1335           8.00        13.51
  197.55        2958.00           1339           2.00         2.00
  197.58        2958.25           1342           4.00         2.00
  197.60        2958.50           1345           2.00         2.00
  197.63        2958.75           1348           7.00         9.15
  197.66        2959.00           1352           7.00         9.15
  197.68        2959.25           1355           3.00         2.00
  197.71        2959.50           1358           6.00         4.80
  197.74        2959.75           1362           3.00         2.00
  197.77        2960.00           1365           5.00         2.00
  197.79        2960.25           1368           0.00         2.00
  197.82        2960.50           1372           8.00        13.51
  197.85        2960.75           1375           0.00         2.00
  197.87        2961.00           1378           8.00        13.51
  197.90        2961.25           1382           6.00         4.80
  197.93        2961.50           1385           3.00         2.00
  197.95        2961.75           1388           8.00        13.51
  197.98        2962.00           1392           8.00        13.51
  198.01        2962.25           1395           3.00         2.00
  198.04        2962.50           1398           3.00         2.00
  198.06        2962.75           1402           2.00         2.00
  198.09        2963.00           1405           0.00         2.00
  198.12        2963.25           1408           0.00         2.00
  198.14        2963.50           1412           6.00         4.80
  198.17        2963.75           1415           3.00         2.00
  198.20        2964.00           1418           4.00         2.00
  198.23        2964.25           1422           5.00         2.00
  198.25        2964.50           1425           2.00         2.00
  198.28        2964.75           1428           2.00         2.00
  198.31        2965.00           1431           8.00        13.51
  198.34        2965.25           1435           3.00         2.00
  198.36        2965.50           1438           8.00        13.51
  198.39        2965.75           1441           8.00        13.51
  198.42        2966.00           1445           4.00         2.00
  198.44        2966.25           1448           6.00         4.80
  198.47        2966.50           1451           1.00         2.00
  198.50        2966.75           1455           7.00         9.15
  198.52        2967.00           1458           6.00         4.80
  198.55        2967.25           1461           4.00         2.00
  198.58        2967.50           1465           7.00         9.15
  198.61        2967.75           1468           3.00         2.00
  198.63        2968.00           1471           1.00         2.00
  198.66        2968.25           1475           4.00         2.00
  198.69        2968.50           1478           8.00        13.51
  198.71        2968.75           1481           7.00         9.15
  198.74        2969.00           1485           8.00        13.51
  198.77        2969.25           1488           8.00        13.51
  198.80        2969.50           1491           7.00         9.15
  198.82        2969.75           1495           0.00         2.00
  198.85        2970.00           1498           3.00         2.00
  198.88        2970.25           1501           8.00        13.51
  198.90        2970.50           1505           4.00         2.00
  198.93        2970.75           1508           8.00        13.51
  198.96        2971.00           1511           8.00        13.51
  198.99        2971.25           1515           2.00         2.00
  199.01        2971.50           1518           7.00         9.15
  199.04        2971.75           1521           4.00         2.00
  199.07        2972.00           1525           0.00         2.00
  199.09        2972.25           1528           7.00         9.15
  199.12        2972.50           1531           6.00         4.80
  199.15        2972.75           1535           8.00        13.51
  199.18        2973.00           1538           3.00         2.00
  199.20        2973.25           1541           2.00         2.00
  199.23        2973.50           1545           8.00        13.51
  199.26        2973.75           1548           4.00         2.00
  199.28        2974.00           1551           6.00         4.80
  199.31        2974.25           1555           8.00        13.51
  199.34        2974.50           1558           4.00         2.00
  199.37        2974.75           1561           8.00        13.51
  199.39        2975.00           1565           2.00         2.00
  199.42        2975.25           1568           6.00         4.80
  199.45        2975.50           1571           0.00         2.00
  199.47        2975.75           1575           8.00        13.51
  199.50        2976.00           1578           5.00         2.00
  199.53        2976.25           1581           8.00        13.51
  199.56        2976.50           1585           5.00         2.00
  199.58        2976.75           1588           5.00         2.00
  199.61        2977.00           1591           7.00         9.15
  199.64        2977.25           1595           0.00         2.00
  199.66        2977.50           1598           3.00         2.00
  199.69        2977.75           1601           8.00        13.51
  199.72        2978.00           1605           5.00         2.00
  199.75        2978.25           1608           3.00         2.00
  199.77        2978.50           1611           0.00         2.00
  199.80        2978.75           1615           2.00         2.00
  199.83        2979.00           1618           2.00         2.00
  199.85        2979.25           1621           8.00        13.51
  199.88        2979.50           1625           4.00         2.00
  199.91        2979.75           1628           1.00         2.00
  199.93        2980.00           1631           5.00         2.00
  199.96        2980.25           1635           1.00         2.00
  199.99        2980.50           1638           2.00         2.00
  200.02        2980.75           1641           8.00        13.51
  200.04        2981.00           1645           6.00         4.80
  200.07        2981.25           1648           8.00        13.51
  200.10        2981.50           1651           7.00         9.15
  200.13        2981.75           1655           3.00         2.00
  200.15        2982.00           1658           2.00         2.00
  200.18        2982.25           1661           5.00         2.00
  200.21        2982.50           1665           8.00        13.51
  200.23        2982.75           1668           0.00         2.00
  200.26        2983.00           1671           4.00         2.00
  200.29        2983.25           1675           4.00         2.00
  200.32        2983.50           1678           1.00         2.00
  200.34        2983.75           1681           8.00        13.51
  200.37        2984.00           1685           7.00         9.15
HS scan finished at 03:20:33
end
