************************************************************
  HS Scan of (1) Internal mercury lamp
************************************************************
Integration time is 0.2294 seconds per sample
dh240317Tamanrasset 22.79-5.529 2.731107pr865
************************************************************
Dead Time -------------------------  2.8E-08 
Number of Cycles Used -------------  4 
Starting Wavelength (Angstroms) ---  2950 
Final Wavelength (Angstoms) -------  2984 
Wavelength Increment (Angstroms) --  .25 
Filter Wheel #1 Position ---------- (1) Ground quartz diffuser (ND=2.32)
Filter Wheel #2 Position ---------- (1) Neutral Density 0.494



************************************************************
HS scan start time = 03:22:16
Dark Count =  3.3 


Time (GMT)  Wavelength (Ang)  Step Number  Raw Counts  Counts/Second

  202.63        2950.00           1233           6.00        11.77
  202.69        2950.25           1236           8.00        20.49
  202.72        2950.50           1239           0.00         2.00
  202.75        2950.75           1242           3.00         2.00
  202.77        2951.00           1246           8.00        20.49
  202.80        2951.25           1249           0.00         2.00
  202.83        2951.50           1252           8.00        20.49
  202.86        2951.75           1256           7.00        16.13
  202.88        2952.00           1259           0.00         2.00
  202.91        2952.25           1262           6.00        11.77
  202.94        2952.50           1266           0.00         2.00
  202.96        2952.75           1269           8.00        20.49
  202.99        2953.00           1272           0.00         2.00
  203.02        2953.25           1276           8.00        20.49
  203.05        2953.50           1279           8.00        20.49
  203.07        2953.75           1282           1.00         2.00
  203.10        2954.00           1286           7.00        16.13
  203.13        2954.25           1289           8.00        20.49
  203.15        2954.50           1292           0.00         2.00
  203.18        2954.75           1295           8.00        20.49
  203.21        2955.00           1299           1.00         2.00
  203.24        2955.25           1302           8.00        20.49
  203.26        2955.50           1305           8.00        20.49
  203.29        2955.75           1309           8.00        20.49
  203.32        2956.00           1312           7.00        16.13
  203.34        2956.25           1315           3.00         2.00
  203.37        2956.50           1319           8.00        20.49
  203.40        2956.75           1322           1.00         2.00
  203.43        2957.00           1325           8.00        20.49
  203.45        2957.25           1329           8.00        20.49
  203.48        2957.50           1332           8.00        20.49
  203.51        2957.75           1335           0.00         2.00
  203.53        2958.00           1339           0.00         2.00
  203.56        2958.25           1342           8.00        20.49
  203.59        2958.50           1345           0.00         2.00
  203.61        2958.75           1348           7.00        16.13
  203.64        2959.00           1352           0.00         2.00
  203.67        2959.25           1355           8.00        20.49
  203.70        2959.50           1358           8.00        20.49
  203.72        2959.75           1362           7.00        16.13
  203.75        2960.00           1365           8.00        20.49
  203.78        2960.25           1368           4.00         3.05
  203.80        2960.50           1372           2.00         2.00
  203.83        2960.75           1375           0.00         2.00
  203.86        2961.00           1378           1.00         2.00
  203.89        2961.25           1382           6.00        11.77
  203.91        2961.50           1385           5.00         7.41
  203.94        2961.75           1388           1.00         2.00
  203.97        2962.00           1392           0.00         2.00
  203.99        2962.25           1395           8.00        20.49
  204.02        2962.50           1398           8.00        20.49
  204.05        2962.75           1402           8.00        20.49
  204.08        2963.00           1405           8.00        20.49
  204.10        2963.25           1408           8.00        20.49
  204.13        2963.50           1412           4.00         3.05
  204.16        2963.75           1415           3.00         2.00
  204.18        2964.00           1418           0.00         2.00
  204.21        2964.25           1422           6.00        11.77
  204.24        2964.50           1425           4.00         3.05
  204.27        2964.75           1428           8.00        20.49
  204.29        2965.00           1431           4.00         3.05
  204.32        2965.25           1435           0.00         2.00
  204.35        2965.50           1438           6.00        11.77
  204.37        2965.75           1441           8.00        20.49
  204.40        2966.00           1445           5.00         7.41
  204.43        2966.25           1448           0.00         2.00
  204.46        2966.50           1451           8.00        20.49
  204.48        2966.75           1455           8.00        20.49
  204.51        2967.00           1458           2.00         2.00
  204.54        2967.25           1461           8.00        20.49
  204.56        2967.50           1465           3.00         2.00
  204.59        2967.75           1468           8.00        20.49
  204.62        2968.00           1471           2.00         2.00
  204.65        2968.25           1475           8.00        20.49
  204.67        2968.50           1478           1.00         2.00
  204.70        2968.75           1481           8.00        20.49
  204.73        2969.00           1485           0.00         2.00
  204.75        2969.25           1488           0.00         2.00
  204.78        2969.50           1491           4.00         3.05
  204.81        2969.75           1495           0.00         2.00
  204.84        2970.00           1498           6.00        11.77
  204.86        2970.25           1501           8.00        20.49
  204.89        2970.50           1505           8.00        20.49
  204.92        2970.75           1508           0.00         2.00
  204.94        2971.00           1511           0.00         2.00
  204.97        2971.25           1515           2.00         2.00
  205.00        2971.50           1518           7.00        16.13
  205.03        2971.75           1521           7.00        16.13
  205.05        2972.00           1525           0.00         2.00
  205.08        2972.25           1528           0.00         2.00
  205.11        2972.50           1531           0.00         2.00
  205.13        2972.75           1535           0.00         2.00
  205.16        2973.00           1538           8.00        20.49
  205.19        2973.25           1541           8.00        20.49
  205.22        2973.50           1545           8.00        20.49
  205.24        2973.75           1548           8.00        20.49
  205.27        2974.00           1551           0.00         2.00
  205.30        2974.25           1555           2.00         2.00
  205.32        2974.50           1558           8.00        20.49
  205.35        2974.75           1561           4.00         3.05
  205.38        2975.00           1565           8.00        20.49
  205.41        2975.25           1568           0.00         2.00
  205.43        2975.50           1571           5.00         7.41
  205.46        2975.75           1575           0.00         2.00
  205.49        2976.00           1578           4.00         3.05
  205.51        2976.25           1581           1.00         2.00
  205.54        2976.50           1585           8.00        20.49
  205.57        2976.75           1588           5.00         7.41
  205.59        2977.00           1591           5.00         7.41
  205.62        2977.25           1595           8.00        20.49
  205.65        2977.50           1598           0.00         2.00
  205.68        2977.75           1601           0.00         2.00
  205.70        2978.00           1605           7.00        16.13
  205.73        2978.25           1608           5.00         7.41
  205.76        2978.50           1611           8.00        20.49
  205.78        2978.75           1615           2.00         2.00
  205.81        2979.00           1618           8.00        20.49
  205.84        2979.25           1621           8.00        20.49
  205.87        2979.50           1625           7.00        16.13
  205.89        2979.75           1628           4.00         3.05
  205.92        2980.00           1631           3.00         2.00
  205.95        2980.25           1635           3.00         2.00
  205.97        2980.50           1638           5.00         7.41
  206.00        2980.75           1641           7.00        16.13
  206.03        2981.00           1645           0.00         2.00
  206.06        2981.25           1648           0.00         2.00
  206.08        2981.50           1651           0.00         2.00
  206.11        2981.75           1655           8.00        20.49
  206.14        2982.00           1658           7.00        16.13
  206.16        2982.25           1661           2.00         2.00
  206.19        2982.50           1665           0.00         2.00
  206.22        2982.75           1668           5.00         7.41
  206.25        2983.00           1671           6.00        11.77
  206.27        2983.25           1675           6.00        11.77
  206.30        2983.50           1678           8.00        20.49
  206.33        2983.75           1681           8.00        20.49
  206.35        2984.00           1685           8.00        20.49
HS scan finished at 03:26:33
end
