************************************************************
  HS Scan of (1) Internal mercury lamp
************************************************************
Integration time is 0.2294 seconds per sample
dh250317Tamanrasset 22.79-5.529 2.731107pr865
************************************************************
Dead Time -------------------------  2.8E-08 
Number of Cycles Used -------------  4 
Starting Wavelength (Angstroms) ---  2950 
Final Wavelength (Angstoms) -------  2984 
Wavelength Increment (Angstroms) --  .25 
Filter Wheel #1 Position ---------- (1) Ground quartz diffuser (ND=2.32)
Filter Wheel #2 Position ---------- (1) Neutral Density 0.494



************************************************************
HS scan start time = 03:21:16
Dark Count =  5.5 


Time (GMT)  Wavelength (Ang)  Step Number  Raw Counts  Counts/Second

  201.61        2950.00           1233           0.00         2.00
  201.68        2950.25           1236           0.00         2.00
  201.71        2950.50           1239           8.00        10.90
  201.73        2950.75           1242           4.00         2.00
  201.76        2951.00           1246           8.00        10.90
  201.79        2951.25           1249           8.00        10.90
  201.81        2951.50           1252           8.00        10.90
  201.84        2951.75           1256           1.00         2.00
  201.87        2952.00           1259           7.00         6.54
  201.90        2952.25           1262           2.00         2.00
  201.92        2952.50           1266           8.00        10.90
  201.95        2952.75           1269           4.00         2.00
  201.98        2953.00           1272           5.00         2.00
  202.00        2953.25           1276           8.00        10.90
  202.03        2953.50           1279           1.00         2.00
  202.06        2953.75           1282           8.00        10.90
  202.09        2954.00           1286           0.00         2.00
  202.11        2954.25           1289           8.00        10.90
  202.14        2954.50           1292           5.00         2.00
  202.17        2954.75           1295           8.00        10.90
  202.19        2955.00           1299           7.00         6.54
  202.22        2955.25           1302           0.00         2.00
  202.25        2955.50           1305           6.00         2.18
  202.28        2955.75           1309           6.00         2.18
  202.30        2956.00           1312           0.00         2.00
  202.33        2956.25           1315           5.00         2.00
  202.36        2956.50           1319           4.00         2.00
  202.38        2956.75           1322           0.00         2.00
  202.41        2957.00           1325           0.00         2.00
  202.44        2957.25           1329           8.00        10.90
  202.47        2957.50           1332           8.00        10.90
  202.49        2957.75           1335           0.00         2.00
  202.52        2958.00           1339           4.00         2.00
  202.55        2958.25           1342           8.00        10.90
  202.57        2958.50           1345           6.00         2.18
  202.60        2958.75           1348           0.00         2.00
  202.63        2959.00           1352           3.00         2.00
  202.65        2959.25           1355           0.00         2.00
  202.68        2959.50           1358           4.00         2.00
  202.71        2959.75           1362           8.00        10.90
  202.74        2960.00           1365           8.00        10.90
  202.76        2960.25           1368           3.00         2.00
  202.79        2960.50           1372           8.00        10.90
  202.82        2960.75           1375           8.00        10.90
  202.84        2961.00           1378           8.00        10.90
  202.87        2961.25           1382           6.00         2.18
  202.90        2961.50           1385           1.00         2.00
  202.93        2961.75           1388           8.00        10.90
  202.95        2962.00           1392           8.00        10.90
  202.98        2962.25           1395           8.00        10.90
  203.01        2962.50           1398           0.00         2.00
  203.03        2962.75           1402           4.00         2.00
  203.06        2963.00           1405           8.00        10.90
  203.09        2963.25           1408           4.00         2.00
  203.12        2963.50           1412           0.00         2.00
  203.14        2963.75           1415           8.00        10.90
  203.17        2964.00           1418           0.00         2.00
  203.20        2964.25           1422           8.00        10.90
  203.22        2964.50           1425           8.00        10.90
  203.25        2964.75           1428           5.00         2.00
  203.28        2965.00           1431           8.00        10.90
  203.31        2965.25           1435           0.00         2.00
  203.33        2965.50           1438           3.00         2.00
  203.36        2965.75           1441           2.00         2.00
  203.39        2966.00           1445           7.00         6.54
  203.41        2966.25           1448           4.00         2.00
  203.44        2966.50           1451           2.00         2.00
  203.47        2966.75           1455           2.00         2.00
  203.49        2967.00           1458           8.00        10.90
  203.52        2967.25           1461           8.00        10.90
  203.55        2967.50           1465           5.00         2.00
  203.58        2967.75           1468           8.00        10.90
  203.60        2968.00           1471           8.00        10.90
  203.63        2968.25           1475           0.00         2.00
  203.66        2968.50           1478           8.00        10.90
  203.68        2968.75           1481           6.00         2.18
  203.71        2969.00           1485           8.00        10.90
  203.74        2969.25           1488           2.00         2.00
  203.77        2969.50           1491           2.00         2.00
  203.79        2969.75           1495           4.00         2.00
  203.82        2970.00           1498           7.00         6.54
  203.85        2970.25           1501           2.00         2.00
  203.87        2970.50           1505           8.00        10.90
  203.90        2970.75           1508           2.00         2.00
  203.93        2971.00           1511           8.00        10.90
  203.96        2971.25           1515           0.00         2.00
  203.98        2971.50           1518           2.00         2.00
  204.01        2971.75           1521           1.00         2.00
  204.04        2972.00           1525           3.00         2.00
  204.06        2972.25           1528           8.00        10.90
  204.09        2972.50           1531           8.00        10.90
  204.12        2972.75           1535           8.00        10.90
  204.15        2973.00           1538           4.00         2.00
  204.17        2973.25           1541           3.00         2.00
  204.20        2973.50           1545           0.00         2.00
  204.23        2973.75           1548           8.00        10.90
  204.25        2974.00           1551           8.00        10.90
  204.28        2974.25           1555           3.00         2.00
  204.31        2974.50           1558           6.00         2.18
  204.33        2974.75           1561           0.00         2.00
  204.36        2975.00           1565           8.00        10.90
  204.39        2975.25           1568           7.00         6.54
  204.42        2975.50           1571           0.00         2.00
  204.44        2975.75           1575           5.00         2.00
  204.47        2976.00           1578           6.00         2.18
  204.50        2976.25           1581           8.00        10.90
  204.52        2976.50           1585           0.00         2.00
  204.55        2976.75           1588           7.00         6.54
  204.58        2977.00           1591           5.00         2.00
  204.61        2977.25           1595           8.00        10.90
  204.63        2977.50           1598           0.00         2.00
  204.66        2977.75           1601           0.00         2.00
  204.69        2978.00           1605           0.00         2.00
  204.71        2978.25           1608           0.00         2.00
  204.74        2978.50           1611           4.00         2.00
  204.77        2978.75           1615           0.00         2.00
  204.80        2979.00           1618           7.00         6.54
  204.82        2979.25           1621           8.00        10.90
  204.85        2979.50           1625           7.00         6.54
  204.88        2979.75           1628           0.00         2.00
  204.90        2980.00           1631           2.00         2.00
  204.93        2980.25           1635           1.00         2.00
  204.96        2980.50           1638           4.00         2.00
  204.99        2980.75           1641           8.00        10.90
  205.01        2981.00           1645           8.00        10.90
  205.04        2981.25           1648           3.00         2.00
  205.07        2981.50           1651           0.00         2.00
  205.09        2981.75           1655           8.00        10.90
  205.12        2982.00           1658           2.00         2.00
  205.15        2982.25           1661           0.00         2.00
  205.18        2982.50           1665           6.00         2.18
  205.20        2982.75           1668           1.00         2.00
  205.23        2983.00           1671           8.00        10.90
  205.26        2983.25           1675           8.00        10.90
  205.28        2983.50           1678           0.00         2.00
  205.31        2983.75           1681           5.00         2.00
  205.34        2984.00           1685           0.00         2.00
HS scan finished at 03:25:31
end
