************************************************************
  HS Scan of (1) Internal mercury lamp
************************************************************
Integration time is 0.2294 seconds per sample
dh290317Tamanrasset 22.79-5.529 2.980924pr865
************************************************************
Dead Time -------------------------  2.8E-08 
Number of Cycles Used -------------  4 
Starting Wavelength (Angstroms) ---  2950 
Final Wavelength (Angstoms) -------  2984 
Wavelength Increment (Angstroms) --  .25 
Filter Wheel #1 Position ---------- (1) Ground quartz diffuser (ND=2.32)
Filter Wheel #2 Position ---------- (1) Neutral Density 0.494



************************************************************
HS scan start time = 03:17:17
Dark Count =  6 


Time (GMT)  Wavelength (Ang)  Step Number  Raw Counts  Counts/Second

  197.64        2950.00           1233           0.00         2.00
  197.70        2950.25           1236           3.00         2.00
  197.73        2950.50           1239           6.00         2.00
  197.76        2950.75           1242           5.00         2.00
  197.78        2951.00           1246           1.00         2.00
  197.81        2951.25           1249           5.00         2.00
  197.84        2951.50           1252           0.00         2.00
  197.86        2951.75           1256           3.00         2.00
  197.89        2952.00           1259           7.00         4.36
  197.92        2952.25           1262           1.00         2.00
  197.95        2952.50           1266           7.00         4.36
  197.97        2952.75           1269           0.00         2.00
  198.00        2953.00           1272           4.00         2.00
  198.03        2953.25           1276           6.00         2.00
  198.05        2953.50           1279           8.00         8.72
  198.08        2953.75           1282           0.00         2.00
  198.11        2954.00           1286           6.00         2.00
  198.14        2954.25           1289           9.00        13.08
  198.16        2954.50           1292           5.00         2.00
  198.19        2954.75           1295           0.00         2.00
  198.22        2955.00           1299           0.00         2.00
  198.24        2955.25           1302           6.00         2.00
  198.27        2955.50           1305           7.00         4.36
  198.30        2955.75           1309           6.00         2.00
  198.33        2956.00           1312           5.00         2.00
  198.35        2956.25           1315           5.00         2.00
  198.38        2956.50           1319           8.00         8.72
  198.41        2956.75           1322           4.00         2.00
  198.43        2957.00           1325           6.00         2.00
  198.46        2957.25           1329           0.00         2.00
  198.49        2957.50           1332           8.00         8.72
  198.52        2957.75           1335           4.00         2.00
  198.54        2958.00           1339           8.00         8.72
  198.57        2958.25           1342           8.00         8.72
  198.60        2958.50           1345           2.00         2.00
  198.62        2958.75           1348           1.00         2.00
  198.65        2959.00           1352           8.00         8.72
  198.68        2959.25           1355           6.00         2.00
  198.71        2959.50           1358           4.00         2.00
  198.73        2959.75           1362           3.00         2.00
  198.76        2960.00           1365           2.00         2.00
  198.79        2960.25           1368           8.00         8.72
  198.81        2960.50           1372           8.00         8.72
  198.84        2960.75           1375           7.00         4.36
  198.87        2961.00           1378           3.00         2.00
  198.90        2961.25           1382           5.00         2.00
  198.92        2961.50           1385           5.00         2.00
  198.95        2961.75           1388           1.00         2.00
  198.98        2962.00           1392           3.00         2.00
  199.00        2962.25           1395           7.00         4.36
  199.03        2962.50           1398           3.00         2.00
  199.06        2962.75           1402           5.00         2.00
  199.08        2963.00           1405           0.00         2.00
  199.11        2963.25           1408           6.00         2.00
  199.14        2963.50           1412           5.00         2.00
  199.17        2963.75           1415           8.00         8.72
  199.19        2964.00           1418           4.00         2.00
  199.22        2964.25           1422           3.00         2.00
  199.25        2964.50           1425           8.00         8.72
  199.27        2964.75           1428           6.00         2.00
  199.30        2965.00           1431           9.00        13.08
  199.33        2965.25           1435           3.00         2.00
  199.36        2965.50           1438           5.00         2.00
  199.38        2965.75           1441           4.00         2.00
  199.41        2966.00           1445           5.00         2.00
  199.44        2966.25           1448           3.00         2.00
  199.46        2966.50           1451           5.00         2.00
  199.49        2966.75           1455           6.00         2.00
  199.52        2967.00           1458           8.00         8.72
  199.55        2967.25           1461           8.00         8.72
  199.57        2967.50           1465           4.00         2.00
  199.60        2967.75           1468           3.00         2.00
  199.63        2968.00           1471           4.00         2.00
  199.65        2968.25           1475           8.00         8.72
  199.68        2968.50           1478           8.00         8.72
  199.71        2968.75           1481           8.00         8.72
  199.74        2969.00           1485           4.00         2.00
  199.76        2969.25           1488           7.00         4.36
  199.79        2969.50           1491           2.00         2.00
  199.82        2969.75           1495           3.00         2.00
  199.84        2970.00           1498           5.00         2.00
  199.87        2970.25           1501           3.00         2.00
  199.90        2970.50           1505           0.00         2.00
  199.92        2970.75           1508           8.00         8.72
  199.95        2971.00           1511           6.00         2.00
  199.98        2971.25           1515           8.00         8.72
  200.01        2971.50           1518           4.00         2.00
  200.03        2971.75           1521           4.00         2.00
  200.06        2972.00           1525           3.00         2.00
  200.09        2972.25           1528           5.00         2.00
  200.11        2972.50           1531           7.00         4.36
  200.14        2972.75           1535           0.00         2.00
  200.17        2973.00           1538           2.00         2.00
  200.20        2973.25           1541           7.00         4.36
  200.22        2973.50           1545           3.00         2.00
  200.25        2973.75           1548           8.00         8.72
  200.28        2974.00           1551           0.00         2.00
  200.30        2974.25           1555           6.00         2.00
  200.33        2974.50           1558           3.00         2.00
  200.36        2974.75           1561           6.00         2.00
  200.39        2975.00           1565           5.00         2.00
  200.41        2975.25           1568           6.00         2.00
  200.44        2975.50           1571           1.00         2.00
  200.47        2975.75           1575           8.00         8.72
  200.49        2976.00           1578           4.00         2.00
  200.52        2976.25           1581           2.00         2.00
  200.55        2976.50           1585           3.00         2.00
  200.58        2976.75           1588           5.00         2.00
  200.60        2977.00           1591           4.00         2.00
  200.63        2977.25           1595           8.00         8.72
  200.66        2977.50           1598           9.00        13.08
  200.68        2977.75           1601           4.00         2.00
  200.71        2978.00           1605           8.00         8.72
  200.74        2978.25           1608           8.00         8.72
  200.77        2978.50           1611           0.00         2.00
  200.79        2978.75           1615           7.00         4.36
  200.82        2979.00           1618           6.00         2.00
  200.85        2979.25           1621           1.00         2.00
  200.87        2979.50           1625           8.00         8.72
  200.90        2979.75           1628           3.00         2.00
  200.93        2980.00           1631           1.00         2.00
  200.96        2980.25           1635           5.00         2.00
  200.98        2980.50           1638           7.00         4.36
  201.01        2980.75           1641           6.00         2.00
  201.04        2981.00           1645           6.00         2.00
  201.06        2981.25           1648           8.00         8.72
  201.09        2981.50           1651           7.00         4.36
  201.12        2981.75           1655           2.00         2.00
  201.14        2982.00           1658           3.00         2.00
  201.17        2982.25           1661           5.00         2.00
  201.20        2982.50           1665           4.00         2.00
  201.23        2982.75           1668           8.00         8.72
  201.25        2983.00           1671           6.00         2.00
  201.28        2983.25           1675           3.00         2.00
  201.31        2983.50           1678           8.00         8.72
  201.33        2983.75           1681           5.00         2.00
  201.36        2984.00           1685           8.00         8.72
HS scan finished at 03:21:33
end
