************************************************************
  HS Scan of (1) Internal mercury lamp
************************************************************
Integration time is 0.2294 seconds per sample
dh080417Tamanrasset 22.79-5.529 2.975825pr865
************************************************************
Dead Time -------------------------  2.8E-08 
Number of Cycles Used -------------  4 
Starting Wavelength (Angstroms) ---  2950 
Final Wavelength (Angstoms) -------  2984 
Wavelength Increment (Angstroms) --  .25 
Filter Wheel #1 Position ---------- (1) Ground quartz diffuser (ND=2.32)
Filter Wheel #2 Position ---------- (1) Neutral Density 0.494



************************************************************
HS scan start time = 03:08:17
Dark Count =  4.1 


Time (GMT)  Wavelength (Ang)  Step Number  Raw Counts  Counts/Second

  188.64        2950.00           1233           5.00         3.92
  188.71        2950.25           1236           7.00        12.64
  188.73        2950.50           1239           6.00         8.28
  188.76        2950.75           1242           2.00         2.00
  188.79        2951.00           1246           4.00         2.00
  188.81        2951.25           1249           8.00        17.00
  188.84        2951.50           1252           0.00         2.00
  188.87        2951.75           1256           8.00        17.00
  188.89        2952.00           1259           0.00         2.00
  188.92        2952.25           1262           7.00        12.64
  188.95        2952.50           1266           5.00         3.92
  188.98        2952.75           1269           8.00        17.00
  189.00        2953.00           1272           1.00         2.00
  189.03        2953.25           1276           6.00         8.28
  189.06        2953.50           1279           0.00         2.00
  189.08        2953.75           1282           8.00        17.00
  189.11        2954.00           1286           0.00         2.00
  189.14        2954.25           1289           8.00        17.00
  189.17        2954.50           1292           6.00         8.28
  189.19        2954.75           1295           6.00         8.28
  189.22        2955.00           1299           5.00         3.92
  189.25        2955.25           1302           3.00         2.00
  189.27        2955.50           1305           4.00         2.00
  189.30        2955.75           1309           8.00        17.00
  189.33        2956.00           1312           8.00        17.00
  189.36        2956.25           1315           4.00         2.00
  189.38        2956.50           1319           4.00         2.00
  189.41        2956.75           1322           5.00         3.92
  189.44        2957.00           1325           3.00         2.00
  189.46        2957.25           1329           8.00        17.00
  189.49        2957.50           1332           6.00         8.28
  189.52        2957.75           1335           0.00         2.00
  189.55        2958.00           1339           7.00        12.64
  189.57        2958.25           1342           8.00        17.00
  189.60        2958.50           1345           2.00         2.00
  189.63        2958.75           1348           7.00        12.64
  189.65        2959.00           1352           5.00         3.92
  189.68        2959.25           1355           8.00        17.00
  189.71        2959.50           1358           7.00        12.64
  189.74        2959.75           1362           7.00        12.64
  189.76        2960.00           1365           7.00        12.64
  189.79        2960.25           1368           5.00         3.92
  189.82        2960.50           1372           5.00         3.92
  189.84        2960.75           1375           4.00         2.00
  189.87        2961.00           1378           4.00         2.00
  189.90        2961.25           1382           4.00         2.00
  189.93        2961.50           1385           1.00         2.00
  189.95        2961.75           1388           3.00         2.00
  189.98        2962.00           1392           5.00         3.92
  190.01        2962.25           1395           7.00        12.64
  190.03        2962.50           1398           0.00         2.00
  190.06        2962.75           1402           3.00         2.00
  190.09        2963.00           1405           5.00         3.92
  190.11        2963.25           1408           4.00         2.00
  190.14        2963.50           1412           7.00        12.64
  190.17        2963.75           1415           6.00         8.28
  190.20        2964.00           1418           7.00        12.64
  190.22        2964.25           1422           8.00        17.00
  190.25        2964.50           1425           3.00         2.00
  190.28        2964.75           1428           1.00         2.00
  190.30        2965.00           1431           0.00         2.00
  190.33        2965.25           1435           3.00         2.00
  190.36        2965.50           1438           3.00         2.00
  190.39        2965.75           1441           3.00         2.00
  190.41        2966.00           1445           7.00        12.64
  190.44        2966.25           1448           3.00         2.00
  190.47        2966.50           1451           6.00         8.28
  190.49        2966.75           1455           7.00        12.64
  190.52        2967.00           1458           4.00         2.00
  190.55        2967.25           1461           7.00        12.64
  190.58        2967.50           1465           5.00         3.92
  190.60        2967.75           1468           3.00         2.00
  190.63        2968.00           1471           5.00         3.92
  190.66        2968.25           1475           7.00        12.64
  190.68        2968.50           1478           1.00         2.00
  190.71        2968.75           1481           4.00         2.00
  190.74        2969.00           1485           7.00        12.64
  190.76        2969.25           1488           6.00         8.28
  190.79        2969.50           1491           2.00         2.00
  190.82        2969.75           1495           8.00        17.00
  190.85        2970.00           1498           6.00         8.28
  190.87        2970.25           1501           6.00         8.28
  190.90        2970.50           1505           8.00        17.00
  190.93        2970.75           1508           7.00        12.64
  190.95        2971.00           1511           4.00         2.00
  190.98        2971.25           1515           0.00         2.00
  191.01        2971.50           1518           0.00         2.00
  191.04        2971.75           1521           7.00        12.64
  191.06        2972.00           1525           6.00         8.28
  191.09        2972.25           1528           4.00         2.00
  191.12        2972.50           1531           4.00         2.00
  191.14        2972.75           1535           5.00         3.92
  191.17        2973.00           1538           3.00         2.00
  191.20        2973.25           1541           8.00        17.00
  191.23        2973.50           1545           8.00        17.00
  191.25        2973.75           1548           4.00         2.00
  191.28        2974.00           1551           8.00        17.00
  191.31        2974.25           1555           7.00        12.64
  191.33        2974.50           1558           0.00         2.00
  191.36        2974.75           1561           8.00        17.00
  191.39        2975.00           1565           3.00         2.00
  191.41        2975.25           1568           8.00        17.00
  191.44        2975.50           1571           6.00         8.28
  191.47        2975.75           1575           4.00         2.00
  191.50        2976.00           1578           3.00         2.00
  191.52        2976.25           1581           4.00         2.00
  191.55        2976.50           1585           3.00         2.00
  191.58        2976.75           1588           7.00        12.64
  191.61        2977.00           1591           8.00        17.00
  191.63        2977.25           1595           7.00        12.64
  191.66        2977.50           1598           4.00         2.00
  191.69        2977.75           1601           6.00         8.28
  191.71        2978.00           1605           6.00         8.28
  191.74        2978.25           1608           8.00        17.00
  191.77        2978.50           1611           6.00         8.28
  191.79        2978.75           1615           8.00        17.00
  191.82        2979.00           1618           1.00         2.00
  191.85        2979.25           1621           1.00         2.00
  191.88        2979.50           1625           5.00         3.92
  191.90        2979.75           1628           5.00         3.92
  191.93        2980.00           1631           4.00         2.00
  191.96        2980.25           1635           2.00         2.00
  191.98        2980.50           1638           6.00         8.28
  192.01        2980.75           1641           6.00         8.28
  192.04        2981.00           1645           6.00         8.28
  192.07        2981.25           1648           3.00         2.00
  192.09        2981.50           1651           8.00        17.00
  192.12        2981.75           1655           0.00         2.00
  192.15        2982.00           1658           7.00        12.64
  192.17        2982.25           1661           1.00         2.00
  192.20        2982.50           1665           7.00        12.64
  192.23        2982.75           1668           7.00        12.64
  192.26        2983.00           1671           6.00         8.28
  192.28        2983.25           1675           4.00         2.00
  192.31        2983.50           1678           4.00         2.00
  192.34        2983.75           1681           4.00         2.00
  192.37        2984.00           1685           3.00         2.00
HS scan finished at 03:12:33
end
