************************************************************
  HS Scan of (1) Internal mercury lamp
************************************************************
Integration time is 0.2294 seconds per sample
dh040417Tamanrasset 22.79-5.529 2.822876pr865
************************************************************
Dead Time -------------------------  2.8E-08 
Number of Cycles Used -------------  4 
Starting Wavelength (Angstroms) ---  2950 
Final Wavelength (Angstoms) -------  2984 
Wavelength Increment (Angstroms) --  .25 
Filter Wheel #1 Position ---------- (1) Ground quartz diffuser (ND=2.32)
Filter Wheel #2 Position ---------- (1) Neutral Density 0.494



************************************************************
HS scan start time = 03:11:18
Dark Count =  2.7 


Time (GMT)  Wavelength (Ang)  Step Number  Raw Counts  Counts/Second

  191.65        2950.00           1233           8.00        23.10
  191.72        2950.25           1236           0.00         2.00
  191.74        2950.50           1239           2.00         2.00
  191.77        2950.75           1242           0.00         2.00
  191.80        2951.00           1246           8.00        23.10
  191.82        2951.25           1249           6.00        14.39
  191.85        2951.50           1252           8.00        23.10
  191.88        2951.75           1256           0.00         2.00
  191.91        2952.00           1259           4.00         5.67
  191.93        2952.25           1262           6.00        14.39
  191.96        2952.50           1266           3.00         2.00
  191.99        2952.75           1269           8.00        23.10
  192.01        2953.00           1272           3.00         2.00
  192.04        2953.25           1276           0.00         2.00
  192.07        2953.50           1279           0.00         2.00
  192.10        2953.75           1282           8.00        23.10
  192.12        2954.00           1286           0.00         2.00
  192.15        2954.25           1289           2.00         2.00
  192.18        2954.50           1292           3.00         2.00
  192.21        2954.75           1295           2.00         2.00
  192.23        2955.00           1299           1.00         2.00
  192.26        2955.25           1302           0.00         2.00
  192.29        2955.50           1305           7.00        18.74
  192.31        2955.75           1309           0.00         2.00
  192.34        2956.00           1312           3.00         2.00
  192.37        2956.25           1315           8.00        23.10
  192.39        2956.50           1319           0.00         2.00
  192.42        2956.75           1322           1.00         2.00
  192.45        2957.00           1325           6.00        14.39
  192.48        2957.25           1329           2.00         2.00
  192.50        2957.50           1332           0.00         2.00
  192.53        2957.75           1335           8.00        23.10
  192.56        2958.00           1339           0.00         2.00
  192.58        2958.25           1342           0.00         2.00
  192.61        2958.50           1345           3.00         2.00
  192.64        2958.75           1348           7.00        18.74
  192.67        2959.00           1352           8.00        23.10
  192.69        2959.25           1355           8.00        23.10
  192.72        2959.50           1358           0.00         2.00
  192.75        2959.75           1362           0.00         2.00
  192.78        2960.00           1365           3.00         2.00
  192.80        2960.25           1368           4.00         5.67
  192.83        2960.50           1372           5.00        10.03
  192.86        2960.75           1375           6.00        14.39
  192.88        2961.00           1378           8.00        23.10
  192.91        2961.25           1382           0.00         2.00
  192.94        2961.50           1385           8.00        23.10
  192.97        2961.75           1388           1.00         2.00
  192.99        2962.00           1392           8.00        23.10
  193.02        2962.25           1395           5.00        10.03
  193.05        2962.50           1398           0.00         2.00
  193.07        2962.75           1402           5.00        10.03
  193.10        2963.00           1405           6.00        14.39
  193.13        2963.25           1408           1.00         2.00
  193.15        2963.50           1412           6.00        14.39
  193.18        2963.75           1415           7.00        18.74
  193.21        2964.00           1418           0.00         2.00
  193.24        2964.25           1422           3.00         2.00
  193.26        2964.50           1425           7.00        18.74
  193.29        2964.75           1428           8.00        23.10
  193.32        2965.00           1431           1.00         2.00
  193.34        2965.25           1435           7.00        18.74
  193.37        2965.50           1438           0.00         2.00
  193.40        2965.75           1441           1.00         2.00
  193.43        2966.00           1445           5.00        10.03
  193.45        2966.25           1448           8.00        23.10
  193.48        2966.50           1451           0.00         2.00
  193.51        2966.75           1455           0.00         2.00
  193.53        2967.00           1458           6.00        14.39
  193.56        2967.25           1461           8.00        23.10
  193.59        2967.50           1465           3.00         2.00
  193.62        2967.75           1468           7.00        18.74
  193.64        2968.00           1471           6.00        14.39
  193.67        2968.25           1475           0.00         2.00
  193.70        2968.50           1478           1.00         2.00
  193.72        2968.75           1481           5.00        10.03
  193.75        2969.00           1485           5.00        10.03
  193.78        2969.25           1488           0.00         2.00
  193.81        2969.50           1491           8.00        23.10
  193.83        2969.75           1495           8.00        23.10
  193.86        2970.00           1498           6.00        14.39
  193.89        2970.25           1501           0.00         2.00
  193.91        2970.50           1505           8.00        23.10
  193.94        2970.75           1508           8.00        23.10
  193.97        2971.00           1511           5.00        10.03
  193.99        2971.25           1515           8.00        23.10
  194.02        2971.50           1518           3.00         2.00
  194.05        2971.75           1521           4.00         5.67
  194.08        2972.00           1525           0.00         2.00
  194.10        2972.25           1528           1.00         2.00
  194.13        2972.50           1531           8.00        23.10
  194.16        2972.75           1535           6.00        14.39
  194.18        2973.00           1538           0.00         2.00
  194.21        2973.25           1541           4.00         5.67
  194.24        2973.50           1545           8.00        23.10
  194.27        2973.75           1548           4.00         5.67
  194.29        2974.00           1551           0.00         2.00
  194.32        2974.25           1555           8.00        23.10
  194.35        2974.50           1558           8.00        23.10
  194.37        2974.75           1561           4.00         5.67
  194.40        2975.00           1565           3.00         2.00
  194.43        2975.25           1568           6.00        14.39
  194.46        2975.50           1571           5.00        10.03
  194.48        2975.75           1575           1.00         2.00
  194.51        2976.00           1578           0.00         2.00
  194.54        2976.25           1581           0.00         2.00
  194.56        2976.50           1585           8.00        23.10
  194.59        2976.75           1588           5.00        10.03
  194.62        2977.00           1591           0.00         2.00
  194.64        2977.25           1595           6.00        14.39
  194.67        2977.50           1598           8.00        23.10
  194.70        2977.75           1601           4.00         5.67
  194.73        2978.00           1605           8.00        23.10
  194.75        2978.25           1608           8.00        23.10
  194.78        2978.50           1611           0.00         2.00
  194.81        2978.75           1615           5.00        10.03
  194.83        2979.00           1618           6.00        14.39
  194.86        2979.25           1621           8.00        23.10
  194.89        2979.50           1625           7.00        18.74
  194.92        2979.75           1628           3.00         2.00
  194.94        2980.00           1631           8.00        23.10
  194.97        2980.25           1635           7.00        18.74
  195.00        2980.50           1638           8.00        23.10
  195.02        2980.75           1641           4.00         5.67
  195.05        2981.00           1645           2.00         2.00
  195.08        2981.25           1648           8.00        23.10
  195.11        2981.50           1651           3.00         2.00
  195.13        2981.75           1655           5.00        10.03
  195.16        2982.00           1658           5.00        10.03
  195.19        2982.25           1661           7.00        18.74
  195.21        2982.50           1665           1.00         2.00
  195.24        2982.75           1668           4.00         5.67
  195.27        2983.00           1671           0.00         2.00
  195.30        2983.25           1675           7.00        18.74
  195.32        2983.50           1678           8.00        23.10
  195.35        2983.75           1681           5.00        10.03
  195.38        2984.00           1685           2.00         2.00
HS scan finished at 03:15:34
end
