************************************************************
  HS Scan of (1) Internal mercury lamp
************************************************************
Integration time is 0.2294 seconds per sample
dh050417Tamanrasset 22.79-5.529 2.914646pr865
************************************************************
Dead Time -------------------------  2.8E-08 
Number of Cycles Used -------------  4 
Starting Wavelength (Angstroms) ---  2950 
Final Wavelength (Angstoms) -------  2984 
Wavelength Increment (Angstroms) --  .25 
Filter Wheel #1 Position ---------- (1) Ground quartz diffuser (ND=2.32)
Filter Wheel #2 Position ---------- (1) Neutral Density 0.494



************************************************************
HS scan start time = 03:10:19
Dark Count =  4.1 


Time (GMT)  Wavelength (Ang)  Step Number  Raw Counts  Counts/Second

  190.67        2950.00           1233           0.00         2.00
  190.73        2950.25           1236           5.00         3.92
  190.76        2950.50           1239           3.00         2.00
  190.78        2950.75           1242           8.00        17.00
  190.81        2951.00           1246           8.00        17.00
  190.84        2951.25           1249           3.00         2.00
  190.86        2951.50           1252           8.00        17.00
  190.89        2951.75           1256           2.00         2.00
  190.92        2952.00           1259           1.00         2.00
  190.95        2952.25           1262           5.00         3.92
  190.97        2952.50           1266           8.00        17.00
  191.00        2952.75           1269           4.00         2.00
  191.03        2953.00           1272           0.00         2.00
  191.05        2953.25           1276           8.00        17.00
  191.08        2953.50           1279           7.00        12.64
  191.11        2953.75           1282           5.00         3.92
  191.14        2954.00           1286           8.00        17.00
  191.16        2954.25           1289           3.00         2.00
  191.19        2954.50           1292           2.00         2.00
  191.22        2954.75           1295           2.00         2.00
  191.24        2955.00           1299           4.00         2.00
  191.27        2955.25           1302           3.00         2.00
  191.30        2955.50           1305           5.00         3.92
  191.33        2955.75           1309           6.00         8.28
  191.35        2956.00           1312           2.00         2.00
  191.38        2956.25           1315           1.00         2.00
  191.41        2956.50           1319           8.00        17.00
  191.43        2956.75           1322           8.00        17.00
  191.46        2957.00           1325           7.00        12.64
  191.49        2957.25           1329           2.00         2.00
  191.52        2957.50           1332           2.00         2.00
  191.54        2957.75           1335           8.00        17.00
  191.57        2958.00           1339           8.00        17.00
  191.60        2958.25           1342           8.00        17.00
  191.62        2958.50           1345           2.00         2.00
  191.65        2958.75           1348           5.00         3.92
  191.68        2959.00           1352           5.00         3.92
  191.71        2959.25           1355           2.00         2.00
  191.73        2959.50           1358           6.00         8.28
  191.76        2959.75           1362           3.00         2.00
  191.79        2960.00           1365           5.00         3.92
  191.81        2960.25           1368           8.00        17.00
  191.84        2960.50           1372           8.00        17.00
  191.87        2960.75           1375           0.00         2.00
  191.90        2961.00           1378           8.00        17.00
  191.92        2961.25           1382           8.00        17.00
  191.95        2961.50           1385           8.00        17.00
  191.98        2961.75           1388           0.00         2.00
  192.01        2962.00           1392           7.00        12.64
  192.03        2962.25           1395           7.00        12.64
  192.06        2962.50           1398           8.00        17.00
  192.09        2962.75           1402           8.00        17.00
  192.11        2963.00           1405           3.00         2.00
  192.14        2963.25           1408           3.00         2.00
  192.17        2963.50           1412           8.00        17.00
  192.20        2963.75           1415           1.00         2.00
  192.22        2964.00           1418           6.00         8.28
  192.25        2964.25           1422           3.00         2.00
  192.28        2964.50           1425           5.00         3.92
  192.31        2964.75           1428           0.00         2.00
  192.33        2965.00           1431           3.00         2.00
  192.36        2965.25           1435           0.00         2.00
  192.39        2965.50           1438           3.00         2.00
  192.41        2965.75           1441           8.00        17.00
  192.44        2966.00           1445           8.00        17.00
  192.47        2966.25           1448           2.00         2.00
  192.50        2966.50           1451           0.00         2.00
  192.52        2966.75           1455           6.00         8.28
  192.55        2967.00           1458           8.00        17.00
  192.58        2967.25           1461           5.00         3.92
  192.60        2967.50           1465           0.00         2.00
  192.63        2967.75           1468           6.00         8.28
  192.66        2968.00           1471           8.00        17.00
  192.69        2968.25           1475           4.00         2.00
  192.71        2968.50           1478           6.00         8.28
  192.74        2968.75           1481           3.00         2.00
  192.77        2969.00           1485           6.00         8.28
  192.79        2969.25           1488           4.00         2.00
  192.82        2969.50           1491           4.00         2.00
  192.85        2969.75           1495           8.00        17.00
  192.88        2970.00           1498           5.00         3.92
  192.90        2970.25           1501           8.00        17.00
  192.93        2970.50           1505           2.00         2.00
  192.96        2970.75           1508           8.00        17.00
  192.98        2971.00           1511           7.00        12.64
  193.01        2971.25           1515           4.00         2.00
  193.04        2971.50           1518           5.00         3.92
  193.06        2971.75           1521           0.00         2.00
  193.09        2972.00           1525           8.00        17.00
  193.12        2972.25           1528           4.00         2.00
  193.15        2972.50           1531           7.00        12.64
  193.17        2972.75           1535           7.00        12.64
  193.20        2973.00           1538           6.00         8.28
  193.23        2973.25           1541           4.00         2.00
  193.25        2973.50           1545           4.00         2.00
  193.28        2973.75           1548           4.00         2.00
  193.31        2974.00           1551           7.00        12.64
  193.34        2974.25           1555           8.00        17.00
  193.36        2974.50           1558           3.00         2.00
  193.39        2974.75           1561           6.00         8.28
  193.42        2975.00           1565           3.00         2.00
  193.45        2975.25           1568           6.00         8.28
  193.47        2975.50           1571           8.00        17.00
  193.50        2975.75           1575           0.00         2.00
  193.53        2976.00           1578           4.00         2.00
  193.55        2976.25           1581           4.00         2.00
  193.58        2976.50           1585           4.00         2.00
  193.61        2976.75           1588           3.00         2.00
  193.63        2977.00           1591           8.00        17.00
  193.66        2977.25           1595           1.00         2.00
  193.69        2977.50           1598           0.00         2.00
  193.72        2977.75           1601           0.00         2.00
  193.74        2978.00           1605           0.00         2.00
  193.77        2978.25           1608           0.00         2.00
  193.80        2978.50           1611           0.00         2.00
  193.82        2978.75           1615           5.00         3.92
  193.85        2979.00           1618           6.00         8.28
  193.88        2979.25           1621           6.00         8.28
  193.91        2979.50           1625           0.00         2.00
  193.93        2979.75           1628           1.00         2.00
  193.96        2980.00           1631           8.00        17.00
  193.99        2980.25           1635           6.00         8.28
  194.01        2980.50           1638           0.00         2.00
  194.04        2980.75           1641           8.00        17.00
  194.07        2981.00           1645           8.00        17.00
  194.10        2981.25           1648           4.00         2.00
  194.12        2981.50           1651           3.00         2.00
  194.15        2981.75           1655           2.00         2.00
  194.18        2982.00           1658           2.00         2.00
  194.20        2982.25           1661           8.00        17.00
  194.23        2982.50           1665           1.00         2.00
  194.26        2982.75           1668           6.00         8.28
  194.29        2983.00           1671           3.00         2.00
  194.31        2983.25           1675           8.00        17.00
  194.34        2983.50           1678           4.00         2.00
  194.37        2983.75           1681           0.00         2.00
  194.39        2984.00           1685           4.00         2.00
HS scan finished at 03:14:35
end
