************************************************************
  HS Scan of (1) Internal mercury lamp
************************************************************
Integration time is 0.2294 seconds per sample
dh070417Tamanrasset 22.79-5.529 2.965629pr865
************************************************************
Dead Time -------------------------  2.8E-08 
Number of Cycles Used -------------  4 
Starting Wavelength (Angstroms) ---  2950 
Final Wavelength (Angstoms) -------  2984 
Wavelength Increment (Angstroms) --  .25 
Filter Wheel #1 Position ---------- (1) Ground quartz diffuser (ND=2.32)
Filter Wheel #2 Position ---------- (1) Neutral Density 0.494



************************************************************
HS scan start time = 03:08:16
Dark Count =  5.5 


Time (GMT)  Wavelength (Ang)  Step Number  Raw Counts  Counts/Second

  188.62        2950.00           1233           8.00        10.90
  188.68        2950.25           1236           3.00         2.00
  188.71        2950.50           1239           6.00         2.18
  188.73        2950.75           1242           2.00         2.00
  188.76        2951.00           1246           6.00         2.18
  188.79        2951.25           1249           8.00        10.90
  188.82        2951.50           1252           0.00         2.00
  188.84        2951.75           1256           2.00         2.00
  188.87        2952.00           1259           5.00         2.00
  188.90        2952.25           1262           3.00         2.00
  188.92        2952.50           1266           4.00         2.00
  188.95        2952.75           1269           3.00         2.00
  188.98        2953.00           1272           0.00         2.00
  189.01        2953.25           1276           5.00         2.00
  189.03        2953.50           1279           6.00         2.18
  189.06        2953.75           1282           1.00         2.00
  189.09        2954.00           1286           8.00        10.90
  189.11        2954.25           1289           2.00         2.00
  189.14        2954.50           1292           8.00        10.90
  189.17        2954.75           1295           0.00         2.00
  189.20        2955.00           1299           7.00         6.54
  189.22        2955.25           1302           8.00        10.90
  189.25        2955.50           1305           3.00         2.00
  189.28        2955.75           1309           1.00         2.00
  189.30        2956.00           1312           5.00         2.00
  189.33        2956.25           1315           8.00        10.90
  189.36        2956.50           1319           3.00         2.00
  189.39        2956.75           1322           8.00        10.90
  189.41        2957.00           1325           2.00         2.00
  189.44        2957.25           1329           0.00         2.00
  189.47        2957.50           1332           4.00         2.00
  189.49        2957.75           1335           3.00         2.00
  189.52        2958.00           1339           8.00        10.90
  189.55        2958.25           1342           0.00         2.00
  189.58        2958.50           1345           7.00         6.54
  189.60        2958.75           1348           8.00        10.90
  189.63        2959.00           1352           6.00         2.18
  189.66        2959.25           1355           6.00         2.18
  189.69        2959.50           1358           3.00         2.00
  189.71        2959.75           1362           4.00         2.00
  189.74        2960.00           1365           3.00         2.00
  189.77        2960.25           1368           7.00         6.54
  189.79        2960.50           1372           5.00         2.00
  189.82        2960.75           1375           8.00        10.90
  189.85        2961.00           1378           4.00         2.00
  189.88        2961.25           1382           0.00         2.00
  189.90        2961.50           1385           2.00         2.00
  189.93        2961.75           1388           0.00         2.00
  189.96        2962.00           1392           8.00        10.90
  189.98        2962.25           1395           7.00         6.54
  190.01        2962.50           1398           2.00         2.00
  190.04        2962.75           1402           3.00         2.00
  190.07        2963.00           1405           4.00         2.00
  190.09        2963.25           1408           5.00         2.00
  190.12        2963.50           1412           7.00         6.54
  190.15        2963.75           1415           6.00         2.18
  190.17        2964.00           1418           7.00         6.54
  190.20        2964.25           1422           1.00         2.00
  190.23        2964.50           1425           1.00         2.00
  190.26        2964.75           1428           4.00         2.00
  190.28        2965.00           1431           7.00         6.54
  190.31        2965.25           1435           2.00         2.00
  190.34        2965.50           1438           1.00         2.00
  190.36        2965.75           1441           3.00         2.00
  190.39        2966.00           1445           4.00         2.00
  190.42        2966.25           1448           2.00         2.00
  190.44        2966.50           1451           8.00        10.90
  190.47        2966.75           1455           5.00         2.00
  190.50        2967.00           1458           0.00         2.00
  190.53        2967.25           1461           7.00         6.54
  190.55        2967.50           1465           6.00         2.18
  190.58        2967.75           1468           3.00         2.00
  190.61        2968.00           1471           5.00         2.00
  190.63        2968.25           1475           1.00         2.00
  190.66        2968.50           1478           5.00         2.00
  190.69        2968.75           1481           6.00         2.18
  190.72        2969.00           1485           8.00        10.90
  190.74        2969.25           1488           8.00        10.90
  190.77        2969.50           1491           8.00        10.90
  190.80        2969.75           1495           3.00         2.00
  190.82        2970.00           1498           0.00         2.00
  190.85        2970.25           1501           6.00         2.18
  190.88        2970.50           1505           7.00         6.54
  190.91        2970.75           1508           3.00         2.00
  190.93        2971.00           1511           2.00         2.00
  190.96        2971.25           1515           6.00         2.18
  190.99        2971.50           1518           7.00         6.54
  191.01        2971.75           1521           6.00         2.18
  191.04        2972.00           1525           6.00         2.18
  191.07        2972.25           1528           8.00        10.90
  191.10        2972.50           1531           0.00         2.00
  191.12        2972.75           1535           4.00         2.00
  191.15        2973.00           1538           3.00         2.00
  191.18        2973.25           1541           8.00        10.90
  191.20        2973.50           1545           4.00         2.00
  191.23        2973.75           1548           6.00         2.18
  191.26        2974.00           1551           4.00         2.00
  191.28        2974.25           1555           4.00         2.00
  191.31        2974.50           1558           5.00         2.00
  191.34        2974.75           1561           6.00         2.18
  191.37        2975.00           1565           6.00         2.18
  191.39        2975.25           1568           3.00         2.00
  191.42        2975.50           1571           4.00         2.00
  191.45        2975.75           1575           8.00        10.90
  191.48        2976.00           1578           6.00         2.18
  191.50        2976.25           1581           8.00        10.90
  191.53        2976.50           1585           9.00        15.26
  191.56        2976.75           1588           8.00        10.90
  191.58        2977.00           1591           0.00         2.00
  191.61        2977.25           1595           9.00        15.26
  191.64        2977.50           1598           7.00         6.54
  191.66        2977.75           1601           7.00         6.54
  191.69        2978.00           1605           8.00        10.90
  191.72        2978.25           1608           7.00         6.54
  191.75        2978.50           1611           9.00        15.26
  191.77        2978.75           1615           5.00         2.00
  191.80        2979.00           1618           6.00         2.18
  191.83        2979.25           1621           7.00         6.54
  191.85        2979.50           1625           8.00        10.90
  191.88        2979.75           1628           6.00         2.18
  191.91        2980.00           1631           8.00        10.90
  191.94        2980.25           1635           4.00         2.00
  191.96        2980.50           1638           4.00         2.00
  191.99        2980.75           1641           7.00         6.54
  192.02        2981.00           1645           7.00         6.54
  192.04        2981.25           1648           4.00         2.00
  192.07        2981.50           1651           2.00         2.00
  192.10        2981.75           1655           3.00         2.00
  192.13        2982.00           1658           7.00         6.54
  192.15        2982.25           1661           3.00         2.00
  192.18        2982.50           1665           3.00         2.00
  192.21        2982.75           1668           3.00         2.00
  192.23        2983.00           1671           3.00         2.00
  192.26        2983.25           1675           3.00         2.00
  192.29        2983.50           1678           8.00        10.90
  192.32        2983.75           1681           6.00         2.18
  192.34        2984.00           1685           6.00         2.18
HS scan finished at 03:12:32
end
