************************************************************
  HS Scan of (1) Internal mercury lamp
************************************************************
Integration time is 0.2294 seconds per sample
dh030417Tamanrasset 22.79-5.529 2.756598pr865
************************************************************
Dead Time -------------------------  2.8E-08 
Number of Cycles Used -------------  4 
Starting Wavelength (Angstroms) ---  2950 
Final Wavelength (Angstoms) -------  2984 
Wavelength Increment (Angstroms) --  .25 
Filter Wheel #1 Position ---------- (1) Ground quartz diffuser (ND=2.32)
Filter Wheel #2 Position ---------- (1) Neutral Density 0.494



************************************************************
HS scan start time = 03:12:29
Dark Count =  3.8 


Time (GMT)  Wavelength (Ang)  Step Number  Raw Counts  Counts/Second

  192.84        2950.00           1233           0.00         2.00
  192.91        2950.25           1236           8.00        18.31
  192.93        2950.50           1239           0.00         2.00
  192.96        2950.75           1242           0.00         2.00
  192.99        2951.00           1246           3.00         2.00
  193.02        2951.25           1249           8.00        18.31
  193.04        2951.50           1252           8.00        18.31
  193.07        2951.75           1256           8.00        18.31
  193.10        2952.00           1259           8.00        18.31
  193.12        2952.25           1262           5.00         5.23
  193.15        2952.50           1266           8.00        18.31
  193.18        2952.75           1269           7.00        13.95
  193.21        2953.00           1272           6.00         9.59
  193.23        2953.25           1276           5.00         5.23
  193.26        2953.50           1279           8.00        18.31
  193.29        2953.75           1282           2.00         2.00
  193.31        2954.00           1286           7.00        13.95
  193.34        2954.25           1289           7.00        13.95
  193.37        2954.50           1292           5.00         5.23
  193.40        2954.75           1295           0.00         2.00
  193.42        2955.00           1299           8.00        18.31
  193.45        2955.25           1302           8.00        18.31
  193.48        2955.50           1305           8.00        18.31
  193.50        2955.75           1309           5.00         5.23
  193.53        2956.00           1312           1.00         2.00
  193.56        2956.25           1315           0.00         2.00
  193.58        2956.50           1319           8.00        18.31
  193.61        2956.75           1322           3.00         2.00
  193.64        2957.00           1325           8.00        18.31
  193.67        2957.25           1329           8.00        18.31
  193.69        2957.50           1332           6.00         9.59
  193.72        2957.75           1335           7.00        13.95
  193.75        2958.00           1339           0.00         2.00
  193.77        2958.25           1342           4.00         2.00
  193.80        2958.50           1345           5.00         5.23
  193.83        2958.75           1348           7.00        13.95
  193.86        2959.00           1352           0.00         2.00
  193.88        2959.25           1355           3.00         2.00
  193.91        2959.50           1358           4.00         2.00
  193.94        2959.75           1362           2.00         2.00
  193.97        2960.00           1365           0.00         2.00
  193.99        2960.25           1368           4.00         2.00
  194.02        2960.50           1372           8.00        18.31
  194.05        2960.75           1375           8.00        18.31
  194.07        2961.00           1378           6.00         9.59
  194.10        2961.25           1382           0.00         2.00
  194.13        2961.50           1385           0.00         2.00
  194.15        2961.75           1388           9.00        22.67
  194.18        2962.00           1392           4.00         2.00
  194.21        2962.25           1395           8.00        18.31
  194.24        2962.50           1398           0.00         2.00
  194.26        2962.75           1402           0.00         2.00
  194.29        2963.00           1405           6.00         9.59
  194.32        2963.25           1408           1.00         2.00
  194.34        2963.50           1412           4.00         2.00
  194.37        2963.75           1415           1.00         2.00
  194.40        2964.00           1418           8.00        18.31
  194.43        2964.25           1422           8.00        18.31
  194.45        2964.50           1425           8.00        18.31
  194.48        2964.75           1428           8.00        18.31
  194.51        2965.00           1431           7.00        13.95
  194.53        2965.25           1435           8.00        18.31
  194.56        2965.50           1438           7.00        13.95
  194.59        2965.75           1441           0.00         2.00
  194.61        2966.00           1445           0.00         2.00
  194.64        2966.25           1448           5.00         5.23
  194.67        2966.50           1451           0.00         2.00
  194.70        2966.75           1455           2.00         2.00
  194.72        2967.00           1458           3.00         2.00
  194.75        2967.25           1461           3.00         2.00
  194.78        2967.50           1465           0.00         2.00
  194.80        2967.75           1468           6.00         9.59
  194.83        2968.00           1471           8.00        18.31
  194.86        2968.25           1475           0.00         2.00
  194.89        2968.50           1478           0.00         2.00
  194.91        2968.75           1481           8.00        18.31
  194.94        2969.00           1485           6.00         9.59
  194.97        2969.25           1488           3.00         2.00
  194.99        2969.50           1491           8.00        18.31
  195.02        2969.75           1495           3.00         2.00
  195.05        2970.00           1498           0.00         2.00
  195.08        2970.25           1501           4.00         2.00
  195.10        2970.50           1505           3.00         2.00
  195.13        2970.75           1508           2.00         2.00
  195.16        2971.00           1511           0.00         2.00
  195.18        2971.25           1515           8.00        18.31
  195.21        2971.50           1518           0.00         2.00
  195.24        2971.75           1521           0.00         2.00
  195.27        2972.00           1525           3.00         2.00
  195.29        2972.25           1528           8.00        18.31
  195.32        2972.50           1531           5.00         5.23
  195.35        2972.75           1535           0.00         2.00
  195.37        2973.00           1538           2.00         2.00
  195.40        2973.25           1541           8.00        18.31
  195.43        2973.50           1545           6.00         9.59
  195.46        2973.75           1548           0.00         2.00
  195.48        2974.00           1551           4.00         2.00
  195.51        2974.25           1555           8.00        18.31
  195.54        2974.50           1558           5.00         5.23
  195.56        2974.75           1561           1.00         2.00
  195.59        2975.00           1565           3.00         2.00
  195.62        2975.25           1568           3.00         2.00
  195.64        2975.50           1571           0.00         2.00
  195.67        2975.75           1575           1.00         2.00
  195.70        2976.00           1578           7.00        13.95
  195.73        2976.25           1581           1.00         2.00
  195.75        2976.50           1585           3.00         2.00
  195.78        2976.75           1588           0.00         2.00
  195.81        2977.00           1591           3.00         2.00
  195.83        2977.25           1595           8.00        18.31
  195.86        2977.50           1598           8.00        18.31
  195.89        2977.75           1601           0.00         2.00
  195.92        2978.00           1605           6.00         9.59
  195.94        2978.25           1608           0.00         2.00
  195.97        2978.50           1611           6.00         9.59
  196.00        2978.75           1615           7.00        13.95
  196.02        2979.00           1618           8.00        18.31
  196.05        2979.25           1621           3.00         2.00
  196.08        2979.50           1625           8.00        18.31
  196.11        2979.75           1628           8.00        18.31
  196.13        2980.00           1631           8.00        18.31
  196.16        2980.25           1635           3.00         2.00
  196.19        2980.50           1638           7.00        13.95
  196.21        2980.75           1641           7.00        13.95
  196.24        2981.00           1645           8.00        18.31
  196.27        2981.25           1648           0.00         2.00
  196.30        2981.50           1651           0.00         2.00
  196.32        2981.75           1655           7.00        13.95
  196.35        2982.00           1658           8.00        18.31
  196.38        2982.25           1661           6.00         9.59
  196.40        2982.50           1665           8.00        18.31
  196.43        2982.75           1668           0.00         2.00
  196.46        2983.00           1671           6.00         9.59
  196.49        2983.25           1675           2.00         2.00
  196.51        2983.50           1678           8.00        18.31
  196.54        2983.75           1681           8.00        18.31
  196.57        2984.00           1685           0.00         2.00
HS scan finished at 03:16:45
end
