************************************************************
  HS Scan of (1) Internal mercury lamp
************************************************************
Integration time is 0.2294 seconds per sample
dh310317Tamanrasset 22.79-5.529 2.853466pr865
************************************************************
Dead Time -------------------------  2.8E-08 
Number of Cycles Used -------------  4 
Starting Wavelength (Angstroms) ---  2950 
Final Wavelength (Angstoms) -------  2984 
Wavelength Increment (Angstroms) --  .25 
Filter Wheel #1 Position ---------- (1) Ground quartz diffuser (ND=2.32)
Filter Wheel #2 Position ---------- (1) Neutral Density 0.494



************************************************************
HS scan start time = 03:15:16
Dark Count =  3.9 


Time (GMT)  Wavelength (Ang)  Step Number  Raw Counts  Counts/Second

  195.62        2950.00           1233           6.00         9.15
  195.69        2950.25           1236           6.00         9.15
  195.72        2950.50           1239           8.00        17.87
  195.74        2950.75           1242           8.00        17.87
  195.77        2951.00           1246           7.00        13.51
  195.80        2951.25           1249           8.00        17.87
  195.82        2951.50           1252           5.00         4.80
  195.85        2951.75           1256           7.00        13.51
  195.88        2952.00           1259           3.00         2.00
  195.91        2952.25           1262           8.00        17.87
  195.93        2952.50           1266           8.00        17.87
  195.96        2952.75           1269           0.00         2.00
  195.99        2953.00           1272           4.00         2.00
  196.01        2953.25           1276           0.00         2.00
  196.04        2953.50           1279           7.00        13.51
  196.07        2953.75           1282           0.00         2.00
  196.10        2954.00           1286           7.00        13.51
  196.12        2954.25           1289           7.00        13.51
  196.15        2954.50           1292           7.00        13.51
  196.18        2954.75           1295           1.00         2.00
  196.20        2955.00           1299           3.00         2.00
  196.23        2955.25           1302           7.00        13.51
  196.26        2955.50           1305           4.00         2.00
  196.29        2955.75           1309           3.00         2.00
  196.31        2956.00           1312           0.00         2.00
  196.34        2956.25           1315           1.00         2.00
  196.37        2956.50           1319           0.00         2.00
  196.39        2956.75           1322           8.00        17.87
  196.42        2957.00           1325           4.00         2.00
  196.45        2957.25           1329           5.00         4.80
  196.48        2957.50           1332           4.00         2.00
  196.50        2957.75           1335           1.00         2.00
  196.53        2958.00           1339           8.00        17.87
  196.56        2958.25           1342           6.00         9.15
  196.58        2958.50           1345           6.00         9.15
  196.61        2958.75           1348           7.00        13.51
  196.64        2959.00           1352           0.00         2.00
  196.67        2959.25           1355           8.00        17.87
  196.69        2959.50           1358           8.00        17.87
  196.72        2959.75           1362           7.00        13.51
  196.75        2960.00           1365           5.00         4.80
  196.77        2960.25           1368           8.00        17.87
  196.80        2960.50           1372           7.00        13.51
  196.83        2960.75           1375           2.00         2.00
  196.86        2961.00           1378           4.00         2.00
  196.88        2961.25           1382           8.00        17.87
  196.91        2961.50           1385           0.00         2.00
  196.94        2961.75           1388           8.00        17.87
  196.96        2962.00           1392           8.00        17.87
  196.99        2962.25           1395           8.00        17.87
  197.02        2962.50           1398           8.00        17.87
  197.05        2962.75           1402           6.00         9.15
  197.07        2963.00           1405           8.00        17.87
  197.10        2963.25           1408           1.00         2.00
  197.13        2963.50           1412           8.00        17.87
  197.15        2963.75           1415           8.00        17.87
  197.18        2964.00           1418           0.00         2.00
  197.21        2964.25           1422           1.00         2.00
  197.24        2964.50           1425           2.00         2.00
  197.26        2964.75           1428           3.00         2.00
  197.29        2965.00           1431           0.00         2.00
  197.32        2965.25           1435           8.00        17.87
  197.34        2965.50           1438           6.00         9.15
  197.37        2965.75           1441           3.00         2.00
  197.40        2966.00           1445           6.00         9.15
  197.43        2966.25           1448           2.00         2.00
  197.45        2966.50           1451           8.00        17.87
  197.48        2966.75           1455           1.00         2.00
  197.51        2967.00           1458           6.00         9.15
  197.53        2967.25           1461           1.00         2.00
  197.56        2967.50           1465           2.00         2.00
  197.59        2967.75           1468           3.00         2.00
  197.62        2968.00           1471           6.00         9.15
  197.64        2968.25           1475           4.00         2.00
  197.67        2968.50           1478           8.00        17.87
  197.70        2968.75           1481           5.00         4.80
  197.72        2969.00           1485           8.00        17.87
  197.75        2969.25           1488           3.00         2.00
  197.78        2969.50           1491           8.00        17.87
  197.80        2969.75           1495           8.00        17.87
  197.83        2970.00           1498           8.00        17.87
  197.86        2970.25           1501           0.00         2.00
  197.89        2970.50           1505           6.00         9.15
  197.91        2970.75           1508           6.00         9.15
  197.94        2971.00           1511           8.00        17.87
  197.97        2971.25           1515           0.00         2.00
  197.99        2971.50           1518           0.00         2.00
  198.02        2971.75           1521           3.00         2.00
  198.05        2972.00           1525           0.00         2.00
  198.08        2972.25           1528           3.00         2.00
  198.10        2972.50           1531           0.00         2.00
  198.13        2972.75           1535           6.00         9.15
  198.16        2973.00           1538           4.00         2.00
  198.18        2973.25           1541           8.00        17.87
  198.21        2973.50           1545           6.00         9.15
  198.24        2973.75           1548           6.00         9.15
  198.27        2974.00           1551           4.00         2.00
  198.29        2974.25           1555           5.00         4.80
  198.32        2974.50           1558           8.00        17.87
  198.35        2974.75           1561           0.00         2.00
  198.37        2975.00           1565           2.00         2.00
  198.40        2975.25           1568           0.00         2.00
  198.43        2975.50           1571           7.00        13.51
  198.46        2975.75           1575           8.00        17.87
  198.48        2976.00           1578           0.00         2.00
  198.51        2976.25           1581           4.00         2.00
  198.54        2976.50           1585           0.00         2.00
  198.56        2976.75           1588           3.00         2.00
  198.59        2977.00           1591           1.00         2.00
  198.62        2977.25           1595           0.00         2.00
  198.64        2977.50           1598           8.00        17.87
  198.67        2977.75           1601           0.00         2.00
  198.70        2978.00           1605           1.00         2.00
  198.73        2978.25           1608           0.00         2.00
  198.75        2978.50           1611           8.00        17.87
  198.78        2978.75           1615           0.00         2.00
  198.81        2979.00           1618           8.00        17.87
  198.83        2979.25           1621           3.00         2.00
  198.86        2979.50           1625           6.00         9.15
  198.89        2979.75           1628           5.00         4.80
  198.92        2980.00           1631           6.00         9.15
  198.94        2980.25           1635           6.00         9.15
  198.97        2980.50           1638           3.00         2.00
  199.00        2980.75           1641           5.00         4.80
  199.02        2981.00           1645           0.00         2.00
  199.05        2981.25           1648           8.00        17.87
  199.08        2981.50           1651           8.00        17.87
  199.11        2981.75           1655           4.00         2.00
  199.13        2982.00           1658           0.00         2.00
  199.16        2982.25           1661           6.00         9.15
  199.19        2982.50           1665           8.00        17.87
  199.21        2982.75           1668           0.00         2.00
  199.24        2983.00           1671           3.00         2.00
  199.27        2983.25           1675           8.00        17.87
  199.30        2983.50           1678           3.00         2.00
  199.32        2983.75           1681           5.00         4.80
  199.35        2984.00           1685           3.00         2.00
HS scan finished at 03:19:32
end
