************************************************************
  HS Scan of (1) Internal mercury lamp
************************************************************
Integration time is 0.2294 seconds per sample
dh020417Tamanrasset 22.79-5.529 2.756598pr865
************************************************************
Dead Time -------------------------  2.8E-08 
Number of Cycles Used -------------  4 
Starting Wavelength (Angstroms) ---  2950 
Final Wavelength (Angstoms) -------  2984 
Wavelength Increment (Angstroms) --  .25 
Filter Wheel #1 Position ---------- (1) Ground quartz diffuser (ND=2.32)
Filter Wheel #2 Position ---------- (1) Neutral Density 0.494



************************************************************
HS scan start time = 03:13:18
Dark Count =  6.5 


Time (GMT)  Wavelength (Ang)  Step Number  Raw Counts  Counts/Second

  193.66        2950.00           1233           4.00         2.00
  193.73        2950.25           1236           6.00         2.00
  193.75        2950.50           1239           2.00         2.00
  193.78        2950.75           1242           0.00         2.00
  193.81        2951.00           1246           0.00         2.00
  193.84        2951.25           1249           1.00         2.00
  193.86        2951.50           1252           3.00         2.00
  193.89        2951.75           1256           4.00         2.00
  193.92        2952.00           1259           8.00         6.54
  193.94        2952.25           1262           1.00         2.00
  193.97        2952.50           1266           0.00         2.00
  194.00        2952.75           1269           0.00         2.00
  194.03        2953.00           1272           0.00         2.00
  194.05        2953.25           1276           1.00         2.00
  194.08        2953.50           1279           7.00         2.18
  194.11        2953.75           1282           8.00         6.54
  194.13        2954.00           1286           0.00         2.00
  194.16        2954.25           1289           5.00         2.00
  194.19        2954.50           1292           8.00         6.54
  194.22        2954.75           1295           6.00         2.00
  194.24        2955.00           1299           4.00         2.00
  194.27        2955.25           1302           0.00         2.00
  194.30        2955.50           1305           8.00         6.54
  194.32        2955.75           1309           1.00         2.00
  194.35        2956.00           1312           0.00         2.00
  194.38        2956.25           1315           8.00         6.54
  194.41        2956.50           1319           0.00         2.00
  194.43        2956.75           1322           0.00         2.00
  194.46        2957.00           1325           7.00         2.18
  194.49        2957.25           1329           0.00         2.00
  194.51        2957.50           1332           4.00         2.00
  194.54        2957.75           1335           8.00         6.54
  194.57        2958.00           1339           3.00         2.00
  194.60        2958.25           1342           4.00         2.00
  194.62        2958.50           1345           7.00         2.18
  194.65        2958.75           1348           8.00         6.54
  194.68        2959.00           1352           7.00         2.18
  194.70        2959.25           1355           4.00         2.00
  194.73        2959.50           1358           0.00         2.00
  194.76        2959.75           1362           8.00         6.54
  194.79        2960.00           1365           6.00         2.00
  194.81        2960.25           1368           8.00         6.54
  194.84        2960.50           1372           8.00         6.54
  194.87        2960.75           1375           1.00         2.00
  194.89        2961.00           1378           8.00         6.54
  194.92        2961.25           1382           0.00         2.00
  194.95        2961.50           1385           7.00         2.18
  194.98        2961.75           1388           6.00         2.00
  195.00        2962.00           1392           6.00         2.00
  195.03        2962.25           1395           4.00         2.00
  195.06        2962.50           1398           0.00         2.00
  195.08        2962.75           1402           8.00         6.54
  195.11        2963.00           1405           0.00         2.00
  195.14        2963.25           1408           1.00         2.00
  195.17        2963.50           1412           3.00         2.00
  195.19        2963.75           1415           0.00         2.00
  195.22        2964.00           1418           0.00         2.00
  195.25        2964.25           1422           6.00         2.00
  195.27        2964.50           1425           8.00         6.54
  195.30        2964.75           1428           6.00         2.00
  195.33        2965.00           1431           8.00         6.54
  195.36        2965.25           1435           2.00         2.00
  195.38        2965.50           1438           0.00         2.00
  195.41        2965.75           1441           8.00         6.54
  195.44        2966.00           1445           8.00         6.54
  195.46        2966.25           1448           0.00         2.00
  195.49        2966.50           1451           8.00         6.54
  195.52        2966.75           1455           7.00         2.18
  195.54        2967.00           1458           0.00         2.00
  195.57        2967.25           1461           7.00         2.18
  195.60        2967.50           1465           6.00         2.00
  195.63        2967.75           1468           1.00         2.00
  195.65        2968.00           1471           8.00         6.54
  195.68        2968.25           1475           7.00         2.18
  195.71        2968.50           1478           6.00         2.00
  195.73        2968.75           1481           8.00         6.54
  195.76        2969.00           1485           3.00         2.00
  195.79        2969.25           1488           1.00         2.00
  195.82        2969.50           1491           6.00         2.00
  195.84        2969.75           1495           5.00         2.00
  195.87        2970.00           1498           7.00         2.18
  195.90        2970.25           1501           0.00         2.00
  195.92        2970.50           1505           6.00         2.00
  195.95        2970.75           1508           8.00         6.54
  195.98        2971.00           1511           8.00         6.54
  196.01        2971.25           1515           5.00         2.00
  196.03        2971.50           1518           3.00         2.00
  196.06        2971.75           1521           0.00         2.00
  196.09        2972.00           1525           0.00         2.00
  196.11        2972.25           1528           0.00         2.00
  196.14        2972.50           1531           8.00         6.54
  196.17        2972.75           1535           8.00         6.54
  196.20        2973.00           1538           2.00         2.00
  196.22        2973.25           1541           8.00         6.54
  196.25        2973.50           1545           0.00         2.00
  196.28        2973.75           1548           5.00         2.00
  196.30        2974.00           1551           3.00         2.00
  196.33        2974.25           1555           9.00        10.90
  196.36        2974.50           1558           5.00         2.00
  196.38        2974.75           1561           0.00         2.00
  196.41        2975.00           1565           8.00         6.54
  196.44        2975.25           1568           0.00         2.00
  196.47        2975.50           1571           2.00         2.00
  196.49        2975.75           1575           8.00         6.54
  196.52        2976.00           1578           7.00         2.18
  196.55        2976.25           1581           8.00         6.54
  196.58        2976.50           1585           8.00         6.54
  196.60        2976.75           1588           5.00         2.00
  196.63        2977.00           1591           0.00         2.00
  196.66        2977.25           1595           0.00         2.00
  196.68        2977.50           1598           2.00         2.00
  196.71        2977.75           1601           0.00         2.00
  196.74        2978.00           1605           0.00         2.00
  196.76        2978.25           1608           8.00         6.54
  196.79        2978.50           1611           8.00         6.54
  196.82        2978.75           1615           8.00         6.54
  196.85        2979.00           1618           8.00         6.54
  196.87        2979.25           1621           1.00         2.00
  196.90        2979.50           1625           2.00         2.00
  196.93        2979.75           1628           1.00         2.00
  196.95        2980.00           1631           2.00         2.00
  196.98        2980.25           1635           8.00         6.54
  197.01        2980.50           1638           1.00         2.00
  197.04        2980.75           1641           7.00         2.18
  197.06        2981.00           1645           8.00         6.54
  197.09        2981.25           1648           0.00         2.00
  197.12        2981.50           1651           8.00         6.54
  197.15        2981.75           1655           1.00         2.00
  197.17        2982.00           1658           1.00         2.00
  197.20        2982.25           1661           3.00         2.00
  197.23        2982.50           1665           1.00         2.00
  197.25        2982.75           1668           8.00         6.54
  197.28        2983.00           1671           7.00         2.18
  197.31        2983.25           1675           0.00         2.00
  197.34        2983.50           1678           4.00         2.00
  197.36        2983.75           1681           1.00         2.00
  197.39        2984.00           1685           2.00         2.00
HS scan finished at 03:17:35
end
