************************************************************
  HS Scan of (1) Internal mercury lamp
************************************************************
Integration time is 0.2294 seconds per sample
dh010417Tamanrasset 22.79-5.529 2.797385pr865
************************************************************
Dead Time -------------------------  2.8E-08 
Number of Cycles Used -------------  4 
Starting Wavelength (Angstroms) ---  2950 
Final Wavelength (Angstoms) -------  2984 
Wavelength Increment (Angstroms) --  .25 
Filter Wheel #1 Position ---------- (1) Ground quartz diffuser (ND=2.32)
Filter Wheel #2 Position ---------- (1) Neutral Density 0.494



************************************************************
HS scan start time = 03:14:16
Dark Count =  2.7 


Time (GMT)  Wavelength (Ang)  Step Number  Raw Counts  Counts/Second

  194.62        2950.00           1233           8.00        23.10
  194.68        2950.25           1236           3.00         2.00
  194.71        2950.50           1239           5.00        10.03
  194.74        2950.75           1242           0.00         2.00
  194.77        2951.00           1246           8.00        23.10
  194.79        2951.25           1249           5.00        10.03
  194.82        2951.50           1252           8.00        23.10
  194.85        2951.75           1256           0.00         2.00
  194.87        2952.00           1259           8.00        23.10
  194.90        2952.25           1262           7.00        18.74
  194.93        2952.50           1266           8.00        23.10
  194.95        2952.75           1269           7.00        18.74
  194.98        2953.00           1272           6.00        14.39
  195.01        2953.25           1276           8.00        23.10
  195.04        2953.50           1279           0.00         2.00
  195.06        2953.75           1282           7.00        18.74
  195.09        2954.00           1286           8.00        23.10
  195.12        2954.25           1289           2.00         2.00
  195.14        2954.50           1292           0.00         2.00
  195.17        2954.75           1295           0.00         2.00
  195.20        2955.00           1299           8.00        23.10
  195.23        2955.25           1302           4.00         5.67
  195.25        2955.50           1305           8.00        23.10
  195.28        2955.75           1309           0.00         2.00
  195.31        2956.00           1312           6.00        14.39
  195.33        2956.25           1315           5.00        10.03
  195.36        2956.50           1319           6.00        14.39
  195.39        2956.75           1322           8.00        23.10
  195.42        2957.00           1325           0.00         2.00
  195.44        2957.25           1329           6.00        14.39
  195.47        2957.50           1332           0.00         2.00
  195.50        2957.75           1335           7.00        18.74
  195.52        2958.00           1339           8.00        23.10
  195.55        2958.25           1342           2.00         2.00
  195.58        2958.50           1345           3.00         2.00
  195.60        2958.75           1348           0.00         2.00
  195.63        2959.00           1352           8.00        23.10
  195.66        2959.25           1355           0.00         2.00
  195.69        2959.50           1358           7.00        18.74
  195.71        2959.75           1362           6.00        14.39
  195.74        2960.00           1365           8.00        23.10
  195.77        2960.25           1368           1.00         2.00
  195.80        2960.50           1372           8.00        23.10
  195.82        2960.75           1375           7.00        18.74
  195.85        2961.00           1378           0.00         2.00
  195.88        2961.25           1382           8.00        23.10
  195.90        2961.50           1385           8.00        23.10
  195.93        2961.75           1388           8.00        23.10
  195.96        2962.00           1392           0.00         2.00
  195.98        2962.25           1395           0.00         2.00
  196.01        2962.50           1398           8.00        23.10
  196.04        2962.75           1402           5.00        10.03
  196.07        2963.00           1405           4.00         5.67
  196.09        2963.25           1408           8.00        23.10
  196.12        2963.50           1412           6.00        14.39
  196.15        2963.75           1415           2.00         2.00
  196.18        2964.00           1418           4.00         5.67
  196.20        2964.25           1422           7.00        18.74
  196.23        2964.50           1425           3.00         2.00
  196.26        2964.75           1428           5.00        10.03
  196.28        2965.00           1431           0.00         2.00
  196.31        2965.25           1435           8.00        23.10
  196.34        2965.50           1438           0.00         2.00
  196.37        2965.75           1441           0.00         2.00
  196.39        2966.00           1445           7.00        18.74
  196.42        2966.25           1448           0.00         2.00
  196.45        2966.50           1451           0.00         2.00
  196.47        2966.75           1455           6.00        14.39
  196.50        2967.00           1458           3.00         2.00
  196.53        2967.25           1461           8.00        23.10
  196.55        2967.50           1465           6.00        14.39
  196.58        2967.75           1468           8.00        23.10
  196.61        2968.00           1471           3.00         2.00
  196.64        2968.25           1475           1.00         2.00
  196.66        2968.50           1478           9.00        27.46
  196.69        2968.75           1481           0.00         2.00
  196.72        2969.00           1485           5.00        10.03
  196.74        2969.25           1488           8.00        23.10
  196.77        2969.50           1491           8.00        23.10
  196.80        2969.75           1495           5.00        10.03
  196.83        2970.00           1498           6.00        14.39
  196.85        2970.25           1501           8.00        23.10
  196.88        2970.50           1505           5.00        10.03
  196.91        2970.75           1508           5.00        10.03
  196.93        2971.00           1511           4.00         5.67
  196.96        2971.25           1515           0.00         2.00
  196.99        2971.50           1518           0.00         2.00
  197.02        2971.75           1521           3.00         2.00
  197.04        2972.00           1525           3.00         2.00
  197.07        2972.25           1528           1.00         2.00
  197.10        2972.50           1531           8.00        23.10
  197.12        2972.75           1535           3.00         2.00
  197.15        2973.00           1538           8.00        23.10
  197.18        2973.25           1541           2.00         2.00
  197.21        2973.50           1545           0.00         2.00
  197.23        2973.75           1548           0.00         2.00
  197.26        2974.00           1551           0.00         2.00
  197.29        2974.25           1555           0.00         2.00
  197.31        2974.50           1558           8.00        23.10
  197.34        2974.75           1561           0.00         2.00
  197.37        2975.00           1565           3.00         2.00
  197.40        2975.25           1568           8.00        23.10
  197.42        2975.50           1571           0.00         2.00
  197.45        2975.75           1575           0.00         2.00
  197.48        2976.00           1578           6.00        14.39
  197.50        2976.25           1581           2.00         2.00
  197.53        2976.50           1585           8.00        23.10
  197.56        2976.75           1588           4.00         5.67
  197.58        2977.00           1591           8.00        23.10
  197.61        2977.25           1595           4.00         5.67
  197.64        2977.50           1598           8.00        23.10
  197.67        2977.75           1601           8.00        23.10
  197.69        2978.00           1605           2.00         2.00
  197.72        2978.25           1608           0.00         2.00
  197.75        2978.50           1611           5.00        10.03
  197.77        2978.75           1615           8.00        23.10
  197.80        2979.00           1618           8.00        23.10
  197.83        2979.25           1621           2.00         2.00
  197.86        2979.50           1625           3.00         2.00
  197.88        2979.75           1628           8.00        23.10
  197.91        2980.00           1631           6.00        14.39
  197.94        2980.25           1635           1.00         2.00
  197.96        2980.50           1638           8.00        23.10
  197.99        2980.75           1641           1.00         2.00
  198.02        2981.00           1645           4.00         5.67
  198.05        2981.25           1648           5.00        10.03
  198.07        2981.50           1651           5.00        10.03
  198.10        2981.75           1655           0.00         2.00
  198.13        2982.00           1658           7.00        18.74
  198.15        2982.25           1661           8.00        23.10
  198.18        2982.50           1665           1.00         2.00
  198.21        2982.75           1668           8.00        23.10
  198.24        2983.00           1671           3.00         2.00
  198.26        2983.25           1675           8.00        23.10
  198.29        2983.50           1678           2.00         2.00
  198.32        2983.75           1681           6.00        14.39
  198.34        2984.00           1685           8.00        23.10
HS scan finished at 03:18:32
end
