************************************************************
  HS Scan of (1) Internal mercury lamp
************************************************************
Integration time is 0.2294 seconds per sample
dh110417Tamanrasset 22.79-5.529 2.756598pr865
************************************************************
Dead Time -------------------------  2.8E-08 
Number of Cycles Used -------------  4 
Starting Wavelength (Angstroms) ---  2950 
Final Wavelength (Angstoms) -------  2984 
Wavelength Increment (Angstroms) --  .25 
Filter Wheel #1 Position ---------- (1) Ground quartz diffuser (ND=2.32)
Filter Wheel #2 Position ---------- (1) Neutral Density 0.494



************************************************************
HS scan start time = 03:05:31
Dark Count =  4.7 


Time (GMT)  Wavelength (Ang)  Step Number  Raw Counts  Counts/Second

  185.88        2950.00           1233           0.00         2.00
  185.94        2950.25           1236           1.00         2.00
  185.97        2950.50           1239           7.00        10.03
  186.00        2950.75           1242           0.00         2.00
  186.03        2951.00           1246           0.00         2.00
  186.05        2951.25           1249           8.00        14.39
  186.08        2951.50           1252           7.00        10.03
  186.11        2951.75           1256           1.00         2.00
  186.14        2952.00           1259           0.00         2.00
  186.16        2952.25           1262           1.00         2.00
  186.19        2952.50           1266           8.00        14.39
  186.22        2952.75           1269           6.00         5.67
  186.25        2953.00           1272           5.00         2.00
  186.27        2953.25           1276           0.00         2.00
  186.30        2953.50           1279           8.00        14.39
  186.33        2953.75           1282           7.00        10.03
  186.35        2954.00           1286           3.00         2.00
  186.38        2954.25           1289           8.00        14.39
  186.41        2954.50           1292           4.00         2.00
  186.44        2954.75           1295           0.00         2.00
  186.46        2955.00           1299           8.00        14.39
  186.49        2955.25           1302           0.00         2.00
  186.52        2955.50           1305           1.00         2.00
  186.55        2955.75           1309           0.00         2.00
  186.57        2956.00           1312           2.00         2.00
  186.60        2956.25           1315           2.00         2.00
  186.63        2956.50           1319           5.00         2.00
  186.65        2956.75           1322           3.00         2.00
  186.68        2957.00           1325           7.00        10.03
  186.71        2957.25           1329           8.00        14.39
  186.74        2957.50           1332           0.00         2.00
  186.76        2957.75           1335           8.00        14.39
  186.79        2958.00           1339           1.00         2.00
  186.82        2958.25           1342           8.00        14.39
  186.85        2958.50           1345           7.00        10.03
  186.87        2958.75           1348           1.00         2.00
  186.90        2959.00           1352           0.00         2.00
  186.93        2959.25           1355           2.00         2.00
  186.95        2959.50           1358           6.00         5.67
  186.98        2959.75           1362           8.00        14.39
  187.01        2960.00           1365           5.00         2.00
  187.04        2960.25           1368           8.00        14.39
  187.06        2960.50           1372           4.00         2.00
  187.09        2960.75           1375           0.00         2.00
  187.12        2961.00           1378           2.00         2.00
  187.15        2961.25           1382           8.00        14.39
  187.17        2961.50           1385           4.00         2.00
  187.20        2961.75           1388           8.00        14.39
  187.23        2962.00           1392           5.00         2.00
  187.25        2962.25           1395           8.00        14.39
  187.28        2962.50           1398           1.00         2.00
  187.31        2962.75           1402           5.00         2.00
  187.34        2963.00           1405           0.00         2.00
  187.36        2963.25           1408           0.00         2.00
  187.39        2963.50           1412           5.00         2.00
  187.42        2963.75           1415           8.00        14.39
  187.44        2964.00           1418           0.00         2.00
  187.47        2964.25           1422           7.00        10.03
  187.50        2964.50           1425           8.00        14.39
  187.53        2964.75           1428           0.00         2.00
  187.55        2965.00           1431           8.00        14.39
  187.58        2965.25           1435           0.00         2.00
  187.61        2965.50           1438           0.00         2.00
  187.64        2965.75           1441           5.00         2.00
  187.66        2966.00           1445           2.00         2.00
  187.69        2966.25           1448           7.00        10.03
  187.72        2966.50           1451           0.00         2.00
  187.74        2966.75           1455           1.00         2.00
  187.77        2967.00           1458           8.00        14.39
  187.80        2967.25           1461           8.00        14.39
  187.83        2967.50           1465           6.00         5.67
  187.85        2967.75           1468           8.00        14.39
  187.88        2968.00           1471           7.00        10.03
  187.91        2968.25           1475           8.00        14.39
  187.94        2968.50           1478           3.00         2.00
  187.96        2968.75           1481           1.00         2.00
  187.99        2969.00           1485           1.00         2.00
  188.02        2969.25           1488           3.00         2.00
  188.05        2969.50           1491           8.00        14.39
  188.07        2969.75           1495           7.00        10.03
  188.10        2970.00           1498           8.00        14.39
  188.13        2970.25           1501           8.00        14.39
  188.15        2970.50           1505           0.00         2.00
  188.18        2970.75           1508           8.00        14.39
  188.21        2971.00           1511           4.00         2.00
  188.24        2971.25           1515           8.00        14.39
  188.26        2971.50           1518           1.00         2.00
  188.29        2971.75           1521           6.00         5.67
  188.32        2972.00           1525           4.00         2.00
  188.34        2972.25           1528           8.00        14.39
  188.37        2972.50           1531           0.00         2.00
  188.40        2972.75           1535           7.00        10.03
  188.43        2973.00           1538           8.00        14.39
  188.45        2973.25           1541           6.00         5.67
  188.48        2973.50           1545           8.00        14.39
  188.51        2973.75           1548           8.00        14.39
  188.54        2974.00           1551           5.00         2.00
  188.56        2974.25           1555           7.00        10.03
  188.59        2974.50           1558           8.00        14.39
  188.62        2974.75           1561           8.00        14.39
  188.64        2975.00           1565           8.00        14.39
  188.67        2975.25           1568           6.00         5.67
  188.70        2975.50           1571           4.00         2.00
  188.73        2975.75           1575           3.00         2.00
  188.75        2976.00           1578           3.00         2.00
  188.78        2976.25           1581           8.00        14.39
  188.81        2976.50           1585           7.00        10.03
  188.84        2976.75           1588           7.00        10.03
  188.86        2977.00           1591           6.00         5.67
  188.89        2977.25           1595           8.00        14.39
  188.92        2977.50           1598           1.00         2.00
  188.94        2977.75           1601           8.00        14.39
  188.97        2978.00           1605           0.00         2.00
  189.00        2978.25           1608           0.00         2.00
  189.03        2978.50           1611           8.00        14.39
  189.05        2978.75           1615           0.00         2.00
  189.08        2979.00           1618           8.00        14.39
  189.11        2979.25           1621           6.00         5.67
  189.13        2979.50           1625           4.00         2.00
  189.16        2979.75           1628           3.00         2.00
  189.19        2980.00           1631           5.00         2.00
  189.22        2980.25           1635           5.00         2.00
  189.24        2980.50           1638           5.00         2.00
  189.27        2980.75           1641           0.00         2.00
  189.30        2981.00           1645           2.00         2.00
  189.33        2981.25           1648           0.00         2.00
  189.35        2981.50           1651           7.00        10.03
  189.38        2981.75           1655           4.00         2.00
  189.41        2982.00           1658           4.00         2.00
  189.43        2982.25           1661           8.00        14.39
  189.46        2982.50           1665           7.00        10.03
  189.49        2982.75           1668           8.00        14.39
  189.52        2983.00           1671           0.00         2.00
  189.54        2983.25           1675           4.00         2.00
  189.57        2983.50           1678           2.00         2.00
  189.60        2983.75           1681           8.00        14.39
  189.63        2984.00           1685           2.00         2.00
HS scan finished at 03:09:49
end
