************************************************************
  HS Scan of (1) Internal mercury lamp
************************************************************
Integration time is 0.2294 seconds per sample
dh190417Tamanrasset 22.79-5.529 2.833073pr865
************************************************************
Dead Time -------------------------  2.8E-08 
Number of Cycles Used -------------  4 
Starting Wavelength (Angstroms) ---  2950 
Final Wavelength (Angstoms) -------  2984 
Wavelength Increment (Angstroms) --  .25 
Filter Wheel #1 Position ---------- (1) Ground quartz diffuser (ND=2.32)
Filter Wheel #2 Position ---------- (1) Neutral Density 0.494



************************************************************
HS scan start time = 02:58:18
Dark Count =  4.7 


Time (GMT)  Wavelength (Ang)  Step Number  Raw Counts  Counts/Second

  178.66        2950.00           1233           2.00         2.00
  178.72        2950.25           1236           8.00        14.39
  178.75        2950.50           1239           0.00         2.00
  178.78        2950.75           1242           6.00         5.67
  178.80        2951.00           1246           8.00        14.39
  178.83        2951.25           1249           8.00        14.39
  178.86        2951.50           1252           3.00         2.00
  178.88        2951.75           1256           1.00         2.00
  178.91        2952.00           1259           4.00         2.00
  178.94        2952.25           1262           8.00        14.39
  178.97        2952.50           1266           0.00         2.00
  178.99        2952.75           1269           5.00         2.00
  179.02        2953.00           1272           2.00         2.00
  179.05        2953.25           1276           8.00        14.39
  179.08        2953.50           1279           7.00        10.03
  179.10        2953.75           1282           0.00         2.00
  179.13        2954.00           1286           2.00         2.00
  179.16        2954.25           1289           0.00         2.00
  179.19        2954.50           1292           8.00        14.39
  179.21        2954.75           1295           8.00        14.39
  179.24        2955.00           1299           2.00         2.00
  179.27        2955.25           1302           6.00         5.67
  179.29        2955.50           1305           3.00         2.00
  179.32        2955.75           1309           0.00         2.00
  179.35        2956.00           1312           6.00         5.67
  179.38        2956.25           1315           1.00         2.00
  179.40        2956.50           1319           0.00         2.00
  179.43        2956.75           1322           8.00        14.39
  179.46        2957.00           1325           3.00         2.00
  179.48        2957.25           1329           0.00         2.00
  179.51        2957.50           1332           5.00         2.00
  179.54        2957.75           1335           0.00         2.00
  179.57        2958.00           1339           5.00         2.00
  179.59        2958.25           1342           0.00         2.00
  179.62        2958.50           1345           0.00         2.00
  179.65        2958.75           1348           7.00        10.03
  179.68        2959.00           1352           6.00         5.67
  179.70        2959.25           1355           6.00         5.67
  179.73        2959.50           1358           5.00         2.00
  179.76        2959.75           1362           8.00        14.39
  179.78        2960.00           1365           2.00         2.00
  179.81        2960.25           1368           3.00         2.00
  179.84        2960.50           1372           6.00         5.67
  179.87        2960.75           1375           0.00         2.00
  179.89        2961.00           1378           5.00         2.00
  179.92        2961.25           1382           8.00        14.39
  179.95        2961.50           1385           6.00         5.67
  179.97        2961.75           1388           0.00         2.00
  180.00        2962.00           1392           8.00        14.39
  180.03        2962.25           1395           0.00         2.00
  180.06        2962.50           1398           5.00         2.00
  180.08        2962.75           1402           8.00        14.39
  180.11        2963.00           1405           1.00         2.00
  180.14        2963.25           1408           8.00        14.39
  180.17        2963.50           1412           2.00         2.00
  180.19        2963.75           1415           8.00        14.39
  180.22        2964.00           1418           0.00         2.00
  180.25        2964.25           1422           3.00         2.00
  180.27        2964.50           1425           7.00        10.03
  180.30        2964.75           1428           5.00         2.00
  180.33        2965.00           1431           0.00         2.00
  180.36        2965.25           1435           1.00         2.00
  180.38        2965.50           1438           5.00         2.00
  180.41        2965.75           1441           5.00         2.00
  180.44        2966.00           1445           4.00         2.00
  180.46        2966.25           1448           2.00         2.00
  180.49        2966.50           1451           6.00         5.67
  180.52        2966.75           1455           3.00         2.00
  180.55        2967.00           1458           2.00         2.00
  180.57        2967.25           1461           8.00        14.39
  180.60        2967.50           1465           1.00         2.00
  180.63        2967.75           1468           2.00         2.00
  180.65        2968.00           1471           4.00         2.00
  180.68        2968.25           1475           0.00         2.00
  180.71        2968.50           1478           8.00        14.39
  180.74        2968.75           1481           7.00        10.03
  180.76        2969.00           1485           8.00        14.39
  180.79        2969.25           1488           8.00        14.39
  180.82        2969.50           1491           3.00         2.00
  180.85        2969.75           1495           4.00         2.00
  180.87        2970.00           1498           0.00         2.00
  180.90        2970.25           1501           8.00        14.39
  180.93        2970.50           1505           6.00         5.67
  180.95        2970.75           1508           8.00        14.39
  180.98        2971.00           1511           1.00         2.00
  181.01        2971.25           1515           0.00         2.00
  181.04        2971.50           1518           4.00         2.00
  181.06        2971.75           1521           4.00         2.00
  181.09        2972.00           1525           6.00         5.67
  181.12        2972.25           1528           8.00        14.39
  181.15        2972.50           1531           0.00         2.00
  181.17        2972.75           1535           8.00        14.39
  181.20        2973.00           1538           0.00         2.00
  181.23        2973.25           1541           2.00         2.00
  181.25        2973.50           1545           0.00         2.00
  181.28        2973.75           1548           0.00         2.00
  181.31        2974.00           1551           3.00         2.00
  181.34        2974.25           1555           5.00         2.00
  181.36        2974.50           1558           4.00         2.00
  181.39        2974.75           1561           0.00         2.00
  181.42        2975.00           1565           8.00        14.39
  181.44        2975.25           1568           6.00         5.67
  181.47        2975.50           1571           6.00         5.67
  181.50        2975.75           1575           8.00        14.39
  181.53        2976.00           1578           8.00        14.39
  181.55        2976.25           1581           6.00         5.67
  181.58        2976.50           1585           8.00        14.39
  181.61        2976.75           1588           8.00        14.39
  181.64        2977.00           1591           2.00         2.00
  181.66        2977.25           1595           2.00         2.00
  181.69        2977.50           1598           4.00         2.00
  181.72        2977.75           1601           3.00         2.00
  181.74        2978.00           1605           0.00         2.00
  181.77        2978.25           1608           0.00         2.00
  181.80        2978.50           1611           2.00         2.00
  181.83        2978.75           1615           8.00        14.39
  181.85        2979.00           1618           6.00         5.67
  181.88        2979.25           1621           8.00        14.39
  181.91        2979.50           1625           5.00         2.00
  181.93        2979.75           1628           3.00         2.00
  181.96        2980.00           1631           6.00         5.67
  181.99        2980.25           1635           3.00         2.00
  182.02        2980.50           1638           8.00        14.39
  182.04        2980.75           1641           8.00        14.39
  182.07        2981.00           1645           6.00         5.67
  182.10        2981.25           1648           8.00        14.39
  182.13        2981.50           1651           8.00        14.39
  182.15        2981.75           1655           2.00         2.00
  182.18        2982.00           1658           8.00        14.39
  182.21        2982.25           1661           8.00        14.39
  182.23        2982.50           1665           8.00        14.39
  182.26        2982.75           1668           8.00        14.39
  182.29        2983.00           1671           6.00         5.67
  182.32        2983.25           1675           4.00         2.00
  182.34        2983.50           1678           8.00        14.39
  182.37        2983.75           1681           2.00         2.00
  182.40        2984.00           1685           1.00         2.00
HS scan finished at 03:02:35
end
