************************************************************
  HS Scan of (1) Internal mercury lamp
************************************************************
Integration time is 0.2294 seconds per sample
dh180417Tamanrasset 22.79-5.529 2.761697pr865
************************************************************
Dead Time -------------------------  2.8E-08 
Number of Cycles Used -------------  4 
Starting Wavelength (Angstroms) ---  2950 
Final Wavelength (Angstoms) -------  2984 
Wavelength Increment (Angstroms) --  .25 
Filter Wheel #1 Position ---------- (1) Ground quartz diffuser (ND=2.32)
Filter Wheel #2 Position ---------- (1) Neutral Density 0.494



************************************************************
HS scan start time = 02:57:22
Dark Count =  3.6 


Time (GMT)  Wavelength (Ang)  Step Number  Raw Counts  Counts/Second

  177.72        2950.00           1233           0.00         2.00
  177.79        2950.25           1236           3.00         2.00
  177.82        2950.50           1239           5.00         6.10
  177.85        2950.75           1242           7.00        14.82
  177.87        2951.00           1246           8.00        19.18
  177.90        2951.25           1249           8.00        19.18
  177.93        2951.50           1252           0.00         2.00
  177.95        2951.75           1256           8.00        19.18
  177.98        2952.00           1259           8.00        19.18
  178.01        2952.25           1262           0.00         2.00
  178.04        2952.50           1266           5.00         6.10
  178.06        2952.75           1269           2.00         2.00
  178.09        2953.00           1272           8.00        19.18
  178.12        2953.25           1276           4.00         2.00
  178.14        2953.50           1279           7.00        14.82
  178.17        2953.75           1282           0.00         2.00
  178.20        2954.00           1286           6.00        10.46
  178.23        2954.25           1289           8.00        19.18
  178.25        2954.50           1292           6.00        10.46
  178.28        2954.75           1295           2.00         2.00
  178.31        2955.00           1299           5.00         6.10
  178.34        2955.25           1302           1.00         2.00
  178.36        2955.50           1305           4.00         2.00
  178.39        2955.75           1309           4.00         2.00
  178.42        2956.00           1312           5.00         6.10
  178.44        2956.25           1315           3.00         2.00
  178.47        2956.50           1319           8.00        19.18
  178.50        2956.75           1322           2.00         2.00
  178.53        2957.00           1325           7.00        14.82
  178.55        2957.25           1329           8.00        19.18
  178.58        2957.50           1332           5.00         6.10
  178.61        2957.75           1335           8.00        19.18
  178.64        2958.00           1339           8.00        19.18
  178.66        2958.25           1342           5.00         6.10
  178.69        2958.50           1345           2.00         2.00
  178.72        2958.75           1348           8.00        19.18
  178.74        2959.00           1352           0.00         2.00
  178.77        2959.25           1355           4.00         2.00
  178.80        2959.50           1358           5.00         6.10
  178.83        2959.75           1362           3.00         2.00
  178.86        2960.00           1365           3.00         2.00
  178.88        2960.25           1368           6.00        10.46
  178.91        2960.50           1372           8.00        19.18
  178.94        2960.75           1375           0.00         2.00
  178.96        2961.00           1378           3.00         2.00
  178.99        2961.25           1382           8.00        19.18
  179.02        2961.50           1385           0.00         2.00
  179.05        2961.75           1388           3.00         2.00
  179.07        2962.00           1392           8.00        19.18
  179.10        2962.25           1395           0.00         2.00
  179.13        2962.50           1398           0.00         2.00
  179.16        2962.75           1402           6.00        10.46
  179.18        2963.00           1405           0.00         2.00
  179.21        2963.25           1408           7.00        14.82
  179.24        2963.50           1412           8.00        19.18
  179.26        2963.75           1415           7.00        14.82
  179.29        2964.00           1418           8.00        19.18
  179.32        2964.25           1422           0.00         2.00
  179.35        2964.50           1425           7.00        14.82
  179.37        2964.75           1428           8.00        19.18
  179.40        2965.00           1431           8.00        19.18
  179.43        2965.25           1435           5.00         6.10
  179.45        2965.50           1438           0.00         2.00
  179.48        2965.75           1441           4.00         2.00
  179.51        2966.00           1445           7.00        14.82
  179.54        2966.25           1448           3.00         2.00
  179.56        2966.50           1451           5.00         6.10
  179.59        2966.75           1455           8.00        19.18
  179.62        2967.00           1458           6.00        10.46
  179.65        2967.25           1461           7.00        14.82
  179.67        2967.50           1465           0.00         2.00
  179.70        2967.75           1468           6.00        10.46
  179.73        2968.00           1471           3.00         2.00
  179.75        2968.25           1475           0.00         2.00
  179.78        2968.50           1478           0.00         2.00
  179.81        2968.75           1481           8.00        19.18
  179.84        2969.00           1485           7.00        14.82
  179.86        2969.25           1488           7.00        14.82
  179.89        2969.50           1491           8.00        19.18
  179.92        2969.75           1495           1.00         2.00
  179.95        2970.00           1498           8.00        19.18
  179.97        2970.25           1501           1.00         2.00
  180.00        2970.50           1505           8.00        19.18
  180.03        2970.75           1508           6.00        10.46
  180.06        2971.00           1511           4.00         2.00
  180.08        2971.25           1515           2.00         2.00
  180.11        2971.50           1518           2.00         2.00
  180.14        2971.75           1521           8.00        19.18
  180.17        2972.00           1525           0.00         2.00
  180.19        2972.25           1528           8.00        19.18
  180.22        2972.50           1531           0.00         2.00
  180.25        2972.75           1535           8.00        19.18
  180.27        2973.00           1538           5.00         6.10
  180.30        2973.25           1541           8.00        19.18
  180.33        2973.50           1545           8.00        19.18
  180.36        2973.75           1548           8.00        19.18
  180.38        2974.00           1551           8.00        19.18
  180.41        2974.25           1555           8.00        19.18
  180.44        2974.50           1558           6.00        10.46
  180.46        2974.75           1561           4.00         2.00
  180.49        2975.00           1565           0.00         2.00
  180.52        2975.25           1568           8.00        19.18
  180.55        2975.50           1571           8.00        19.18
  180.57        2975.75           1575           4.00         2.00
  180.60        2976.00           1578           8.00        19.18
  180.63        2976.25           1581           6.00        10.46
  180.65        2976.50           1585           2.00         2.00
  180.68        2976.75           1588           8.00        19.18
  180.71        2977.00           1591           8.00        19.18
  180.74        2977.25           1595           5.00         6.10
  180.76        2977.50           1598           3.00         2.00
  180.79        2977.75           1601           8.00        19.18
  180.82        2978.00           1605           8.00        19.18
  180.85        2978.25           1608           8.00        19.18
  180.87        2978.50           1611           4.00         2.00
  180.90        2978.75           1615           5.00         6.10
  180.93        2979.00           1618           8.00        19.18
  180.95        2979.25           1621           4.00         2.00
  180.98        2979.50           1625           8.00        19.18
  181.01        2979.75           1628           2.00         2.00
  181.04        2980.00           1631           0.00         2.00
  181.07        2980.25           1635           8.00        19.18
  181.09        2980.50           1638           0.00         2.00
  181.12        2980.75           1641           4.00         2.00
  181.15        2981.00           1645           2.00         2.00
  181.18        2981.25           1648           1.00         2.00
  181.20        2981.50           1651           0.00         2.00
  181.23        2981.75           1655           8.00        19.18
  181.26        2982.00           1658           8.00        19.18
  181.29        2982.25           1661           0.00         2.00
  181.31        2982.50           1665           4.00         2.00
  181.34        2982.75           1668           4.00         2.00
  181.37        2983.00           1671           7.00        14.82
  181.40        2983.25           1675           8.00        19.18
  181.42        2983.50           1678           2.00         2.00
  181.45        2983.75           1681           0.00         2.00
  181.48        2984.00           1685           4.00         2.00
HS scan finished at 03:01:40
end
