************************************************************
  HS Scan of (1) Internal mercury lamp
************************************************************
Integration time is 0.2294 seconds per sample
dh140417Tamanrasset 22.79-5.529 2.756598pr865
************************************************************
Dead Time -------------------------  2.8E-08 
Number of Cycles Used -------------  4 
Starting Wavelength (Angstroms) ---  2950 
Final Wavelength (Angstoms) -------  2984 
Wavelength Increment (Angstroms) --  .25 
Filter Wheel #1 Position ---------- (1) Ground quartz diffuser (ND=2.32)
Filter Wheel #2 Position ---------- (1) Neutral Density 0.494



************************************************************
HS scan start time = 03:02:18
Dark Count =  3.9 


Time (GMT)  Wavelength (Ang)  Step Number  Raw Counts  Counts/Second

  182.65        2950.00           1233           0.00         2.00
  182.72        2950.25           1236           0.00         2.00
  182.74        2950.50           1239           0.00         2.00
  182.77        2950.75           1242           8.00        17.87
  182.80        2951.00           1246           0.00         2.00
  182.83        2951.25           1249           8.00        17.87
  182.85        2951.50           1252           6.00         9.15
  182.88        2951.75           1256           8.00        17.87
  182.91        2952.00           1259           0.00         2.00
  182.94        2952.25           1262           0.00         2.00
  182.96        2952.50           1266           8.00        17.87
  182.99        2952.75           1269           2.00         2.00
  183.02        2953.00           1272           0.00         2.00
  183.04        2953.25           1276           1.00         2.00
  183.07        2953.50           1279           8.00        17.87
  183.10        2953.75           1282           5.00         4.80
  183.13        2954.00           1286           8.00        17.87
  183.15        2954.25           1289           1.00         2.00
  183.18        2954.50           1292           0.00         2.00
  183.21        2954.75           1295           0.00         2.00
  183.23        2955.00           1299           2.00         2.00
  183.26        2955.25           1302           3.00         2.00
  183.29        2955.50           1305           3.00         2.00
  183.32        2955.75           1309           8.00        17.87
  183.34        2956.00           1312           0.00         2.00
  183.37        2956.25           1315           4.00         2.00
  183.40        2956.50           1319           0.00         2.00
  183.43        2956.75           1322           8.00        17.87
  183.45        2957.00           1325           0.00         2.00
  183.48        2957.25           1329           8.00        17.87
  183.51        2957.50           1332           0.00         2.00
  183.53        2957.75           1335           7.00        13.51
  183.56        2958.00           1339           7.00        13.51
  183.59        2958.25           1342           7.00        13.51
  183.62        2958.50           1345           0.00         2.00
  183.64        2958.75           1348           6.00         9.15
  183.67        2959.00           1352           4.00         2.00
  183.70        2959.25           1355           1.00         2.00
  183.73        2959.50           1358           7.00        13.51
  183.75        2959.75           1362           4.00         2.00
  183.78        2960.00           1365           8.00        17.87
  183.81        2960.25           1368           8.00        17.87
  183.83        2960.50           1372           6.00         9.15
  183.86        2960.75           1375           5.00         4.80
  183.89        2961.00           1378           0.00         2.00
  183.92        2961.25           1382           1.00         2.00
  183.94        2961.50           1385           0.00         2.00
  183.97        2961.75           1388           0.00         2.00
  184.00        2962.00           1392           0.00         2.00
  184.03        2962.25           1395           8.00        17.87
  184.05        2962.50           1398           1.00         2.00
  184.08        2962.75           1402           0.00         2.00
  184.11        2963.00           1405           8.00        17.87
  184.13        2963.25           1408           8.00        17.87
  184.16        2963.50           1412           3.00         2.00
  184.19        2963.75           1415           8.00        17.87
  184.22        2964.00           1418           6.00         9.15
  184.24        2964.25           1422           8.00        17.87
  184.27        2964.50           1425           5.00         4.80
  184.30        2964.75           1428           8.00        17.87
  184.32        2965.00           1431           0.00         2.00
  184.35        2965.25           1435           4.00         2.00
  184.38        2965.50           1438           4.00         2.00
  184.41        2965.75           1441           5.00         4.80
  184.43        2966.00           1445           2.00         2.00
  184.46        2966.25           1448           8.00        17.87
  184.49        2966.50           1451           8.00        17.87
  184.52        2966.75           1455           0.00         2.00
  184.54        2967.00           1458           0.00         2.00
  184.57        2967.25           1461           8.00        17.87
  184.60        2967.50           1465           2.00         2.00
  184.62        2967.75           1468           2.00         2.00
  184.65        2968.00           1471           7.00        13.51
  184.68        2968.25           1475           0.00         2.00
  184.71        2968.50           1478           8.00        17.87
  184.73        2968.75           1481           5.00         4.80
  184.76        2969.00           1485           8.00        17.87
  184.79        2969.25           1488           3.00         2.00
  184.81        2969.50           1491           8.00        17.87
  184.84        2969.75           1495           1.00         2.00
  184.87        2970.00           1498           8.00        17.87
  184.90        2970.25           1501           0.00         2.00
  184.92        2970.50           1505           8.00        17.87
  184.95        2970.75           1508           2.00         2.00
  184.98        2971.00           1511           8.00        17.87
  185.01        2971.25           1515           8.00        17.87
  185.03        2971.50           1518           0.00         2.00
  185.06        2971.75           1521           8.00        17.87
  185.09        2972.00           1525           8.00        17.87
  185.11        2972.25           1528           8.00        17.87
  185.14        2972.50           1531           0.00         2.00
  185.17        2972.75           1535           2.00         2.00
  185.20        2973.00           1538           5.00         4.80
  185.22        2973.25           1541           7.00        13.51
  185.25        2973.50           1545           6.00         9.15
  185.28        2973.75           1548           8.00        17.87
  185.31        2974.00           1551           8.00        17.87
  185.33        2974.25           1555           0.00         2.00
  185.36        2974.50           1558           8.00        17.87
  185.39        2974.75           1561           5.00         4.80
  185.41        2975.00           1565           8.00        17.87
  185.44        2975.25           1568           7.00        13.51
  185.47        2975.50           1571           6.00         9.15
  185.50        2975.75           1575           5.00         4.80
  185.52        2976.00           1578           3.00         2.00
  185.55        2976.25           1581           0.00         2.00
  185.58        2976.50           1585           6.00         9.15
  185.61        2976.75           1588           0.00         2.00
  185.63        2977.00           1591           6.00         9.15
  185.66        2977.25           1595           8.00        17.87
  185.69        2977.50           1598           8.00        17.87
  185.72        2977.75           1601           8.00        17.87
  185.74        2978.00           1605           3.00         2.00
  185.77        2978.25           1608           0.00         2.00
  185.80        2978.50           1611           3.00         2.00
  185.82        2978.75           1615           8.00        17.87
  185.85        2979.00           1618           8.00        17.87
  185.88        2979.25           1621           8.00        17.87
  185.91        2979.50           1625           7.00        13.51
  185.93        2979.75           1628           0.00         2.00
  185.96        2980.00           1631           2.00         2.00
  185.99        2980.25           1635           3.00         2.00
  186.02        2980.50           1638           0.00         2.00
  186.04        2980.75           1641           8.00        17.87
  186.07        2981.00           1645           0.00         2.00
  186.10        2981.25           1648           5.00         4.80
  186.12        2981.50           1651           1.00         2.00
  186.15        2981.75           1655           0.00         2.00
  186.18        2982.00           1658           8.00        17.87
  186.21        2982.25           1661           0.00         2.00
  186.23        2982.50           1665           7.00        13.51
  186.26        2982.75           1668           8.00        17.87
  186.29        2983.00           1671           0.00         2.00
  186.32        2983.25           1675           8.00        17.87
  186.34        2983.50           1678           1.00         2.00
  186.37        2983.75           1681           6.00         9.15
  186.40        2984.00           1685           7.00        13.51
HS scan finished at 03:06:35
end
