************************************************************
  HS Scan of (1) Internal mercury lamp
************************************************************
Integration time is 0.2294 seconds per sample
dh170417Tamanrasset 22.79-5.529 2.746401pr865
************************************************************
Dead Time -------------------------  2.8E-08 
Number of Cycles Used -------------  4 
Starting Wavelength (Angstroms) ---  2950 
Final Wavelength (Angstoms) -------  2984 
Wavelength Increment (Angstroms) --  .25 
Filter Wheel #1 Position ---------- (1) Ground quartz diffuser (ND=2.32)
Filter Wheel #2 Position ---------- (1) Neutral Density 0.494



************************************************************
HS scan start time = 02:59:18
Dark Count =  4.2 


Time (GMT)  Wavelength (Ang)  Step Number  Raw Counts  Counts/Second

  179.66        2950.00           1233           7.00        12.21
  179.72        2950.25           1236           8.00        16.56
  179.75        2950.50           1239           0.00         2.00
  179.77        2950.75           1242           0.00         2.00
  179.80        2951.00           1246           6.00         7.85
  179.83        2951.25           1249           2.00         2.00
  179.86        2951.50           1252           8.00        16.56
  179.88        2951.75           1256           0.00         2.00
  179.91        2952.00           1259           8.00        16.56
  179.94        2952.25           1262           0.00         2.00
  179.96        2952.50           1266           8.00        16.56
  179.99        2952.75           1269           1.00         2.00
  180.02        2953.00           1272           4.00         2.00
  180.05        2953.25           1276           8.00        16.56
  180.07        2953.50           1279           4.00         2.00
  180.10        2953.75           1282           8.00        16.56
  180.13        2954.00           1286           3.00         2.00
  180.16        2954.25           1289           8.00        16.56
  180.18        2954.50           1292           8.00        16.56
  180.21        2954.75           1295           8.00        16.56
  180.24        2955.00           1299           5.00         3.49
  180.26        2955.25           1302           8.00        16.56
  180.29        2955.50           1305           0.00         2.00
  180.32        2955.75           1309           5.00         3.49
  180.35        2956.00           1312           8.00        16.56
  180.37        2956.25           1315           6.00         7.85
  180.40        2956.50           1319           0.00         2.00
  180.43        2956.75           1322           0.00         2.00
  180.46        2957.00           1325           8.00        16.56
  180.48        2957.25           1329           0.00         2.00
  180.51        2957.50           1332           8.00        16.56
  180.54        2957.75           1335           8.00        16.56
  180.56        2958.00           1339           8.00        16.56
  180.59        2958.25           1342           7.00        12.21
  180.62        2958.50           1345           0.00         2.00
  180.65        2958.75           1348           8.00        16.56
  180.67        2959.00           1352           0.00         2.00
  180.70        2959.25           1355           0.00         2.00
  180.73        2959.50           1358           8.00        16.56
  180.75        2959.75           1362           8.00        16.56
  180.78        2960.00           1365           8.00        16.56
  180.81        2960.25           1368           2.00         2.00
  180.84        2960.50           1372           5.00         3.49
  180.86        2960.75           1375           0.00         2.00
  180.89        2961.00           1378           0.00         2.00
  180.92        2961.25           1382           5.00         3.49
  180.95        2961.50           1385           4.00         2.00
  180.97        2961.75           1388           8.00        16.56
  181.00        2962.00           1392           0.00         2.00
  181.03        2962.25           1395           4.00         2.00
  181.05        2962.50           1398           8.00        16.56
  181.08        2962.75           1402           6.00         7.85
  181.11        2963.00           1405           6.00         7.85
  181.14        2963.25           1408           8.00        16.56
  181.16        2963.50           1412           8.00        16.56
  181.19        2963.75           1415           0.00         2.00
  181.22        2964.00           1418           0.00         2.00
  181.25        2964.25           1422           8.00        16.56
  181.27        2964.50           1425           3.00         2.00
  181.30        2964.75           1428           5.00         3.49
  181.33        2965.00           1431           3.00         2.00
  181.35        2965.25           1435           3.00         2.00
  181.38        2965.50           1438           3.00         2.00
  181.41        2965.75           1441           8.00        16.56
  181.44        2966.00           1445           2.00         2.00
  181.46        2966.25           1448           8.00        16.56
  181.49        2966.50           1451           6.00         7.85
  181.52        2966.75           1455           8.00        16.56
  181.54        2967.00           1458           0.00         2.00
  181.57        2967.25           1461           3.00         2.00
  181.60        2967.50           1465           8.00        16.56
  181.63        2967.75           1468           0.00         2.00
  181.65        2968.00           1471           4.00         2.00
  181.68        2968.25           1475           4.00         2.00
  181.71        2968.50           1478           8.00        16.56
  181.74        2968.75           1481           3.00         2.00
  181.76        2969.00           1485           8.00        16.56
  181.79        2969.25           1488           6.00         7.85
  181.82        2969.50           1491           4.00         2.00
  181.84        2969.75           1495           1.00         2.00
  181.87        2970.00           1498           0.00         2.00
  181.90        2970.25           1501           2.00         2.00
  181.93        2970.50           1505           8.00        16.56
  181.95        2970.75           1508           7.00        12.21
  181.98        2971.00           1511           0.00         2.00
  182.01        2971.25           1515           8.00        16.56
  182.04        2971.50           1518           3.00         2.00
  182.06        2971.75           1521           7.00        12.21
  182.09        2972.00           1525           0.00         2.00
  182.12        2972.25           1528           4.00         2.00
  182.15        2972.50           1531           2.00         2.00
  182.17        2972.75           1535           0.00         2.00
  182.20        2973.00           1538           3.00         2.00
  182.23        2973.25           1541           2.00         2.00
  182.25        2973.50           1545           7.00        12.21
  182.28        2973.75           1548           0.00         2.00
  182.31        2974.00           1551           3.00         2.00
  182.34        2974.25           1555           0.00         2.00
  182.36        2974.50           1558           8.00        16.56
  182.39        2974.75           1561           6.00         7.85
  182.42        2975.00           1565           8.00        16.56
  182.45        2975.25           1568           8.00        16.56
  182.47        2975.50           1571           7.00        12.21
  182.50        2975.75           1575           8.00        16.56
  182.53        2976.00           1578           7.00        12.21
  182.55        2976.25           1581           0.00         2.00
  182.58        2976.50           1585           8.00        16.56
  182.61        2976.75           1588           6.00         7.85
  182.64        2977.00           1591           4.00         2.00
  182.66        2977.25           1595           4.00         2.00
  182.69        2977.50           1598           8.00        16.56
  182.72        2977.75           1601           1.00         2.00
  182.75        2978.00           1605           7.00        12.21
  182.77        2978.25           1608           8.00        16.56
  182.80        2978.50           1611           5.00         3.49
  182.83        2978.75           1615           4.00         2.00
  182.85        2979.00           1618           8.00        16.56
  182.88        2979.25           1621           8.00        16.56
  182.91        2979.50           1625           0.00         2.00
  182.94        2979.75           1628           1.00         2.00
  182.96        2980.00           1631           2.00         2.00
  182.99        2980.25           1635           8.00        16.56
  183.02        2980.50           1638           0.00         2.00
  183.05        2980.75           1641           8.00        16.56
  183.07        2981.00           1645           3.00         2.00
  183.10        2981.25           1648           3.00         2.00
  183.13        2981.50           1651           8.00        16.56
  183.15        2981.75           1655           5.00         3.49
  183.18        2982.00           1658           0.00         2.00
  183.21        2982.25           1661           7.00        12.21
  183.24        2982.50           1665           5.00         3.49
  183.26        2982.75           1668           8.00        16.56
  183.29        2983.00           1671           1.00         2.00
  183.32        2983.25           1675           8.00        16.56
  183.34        2983.50           1678           8.00        16.56
  183.37        2983.75           1681           8.00        16.56
  183.40        2984.00           1685           8.00        16.56
HS scan finished at 03:03:35
end
