************************************************************
  HS Scan of (1) Internal mercury lamp
************************************************************
Integration time is 0.2294 seconds per sample
dh150417Tamanrasset 22.79-5.529 2.736205pr865
************************************************************
Dead Time -------------------------  2.8E-08 
Number of Cycles Used -------------  4 
Starting Wavelength (Angstroms) ---  2950 
Final Wavelength (Angstoms) -------  2984 
Wavelength Increment (Angstroms) --  .25 
Filter Wheel #1 Position ---------- (1) Ground quartz diffuser (ND=2.32)
Filter Wheel #2 Position ---------- (1) Neutral Density 0.494



************************************************************
HS scan start time = 03:01:18
Dark Count =  4.5 


Time (GMT)  Wavelength (Ang)  Step Number  Raw Counts  Counts/Second

  181.66        2950.00           1233           0.00         2.00
  181.73        2950.25           1236           8.00        15.26
  181.75        2950.50           1239           0.00         2.00
  181.78        2950.75           1242           2.00         2.00
  181.81        2951.00           1246           3.00         2.00
  181.84        2951.25           1249           8.00        15.26
  181.86        2951.50           1252           0.00         2.00
  181.89        2951.75           1256           6.00         6.54
  181.92        2952.00           1259           7.00        10.90
  181.94        2952.25           1262           0.00         2.00
  181.97        2952.50           1266           0.00         2.00
  182.00        2952.75           1269           0.00         2.00
  182.03        2953.00           1272           2.00         2.00
  182.05        2953.25           1276           0.00         2.00
  182.08        2953.50           1279           8.00        15.26
  182.11        2953.75           1282           1.00         2.00
  182.14        2954.00           1286           0.00         2.00
  182.16        2954.25           1289           0.00         2.00
  182.19        2954.50           1292           8.00        15.26
  182.22        2954.75           1295           3.00         2.00
  182.24        2955.00           1299           0.00         2.00
  182.27        2955.25           1302           1.00         2.00
  182.30        2955.50           1305           5.00         2.18
  182.33        2955.75           1309           8.00        15.26
  182.35        2956.00           1312           7.00        10.90
  182.38        2956.25           1315           1.00         2.00
  182.41        2956.50           1319           0.00         2.00
  182.44        2956.75           1322           8.00        15.26
  182.46        2957.00           1325           2.00         2.00
  182.49        2957.25           1329           8.00        15.26
  182.52        2957.50           1332           8.00        15.26
  182.54        2957.75           1335           7.00        10.90
  182.57        2958.00           1339           2.00         2.00
  182.60        2958.25           1342           8.00        15.26
  182.63        2958.50           1345           8.00        15.26
  182.65        2958.75           1348           5.00         2.18
  182.68        2959.00           1352           7.00        10.90
  182.71        2959.25           1355           0.00         2.00
  182.73        2959.50           1358           5.00         2.18
  182.76        2959.75           1362           8.00        15.26
  182.79        2960.00           1365           1.00         2.00
  182.82        2960.25           1368           0.00         2.00
  182.84        2960.50           1372           3.00         2.00
  182.87        2960.75           1375           0.00         2.00
  182.90        2961.00           1378           8.00        15.26
  182.93        2961.25           1382           0.00         2.00
  182.95        2961.50           1385           3.00         2.00
  182.98        2961.75           1388           8.00        15.26
  183.01        2962.00           1392           0.00         2.00
  183.03        2962.25           1395           0.00         2.00
  183.06        2962.50           1398           0.00         2.00
  183.09        2962.75           1402           8.00        15.26
  183.12        2963.00           1405           0.00         2.00
  183.14        2963.25           1408           8.00        15.26
  183.17        2963.50           1412           8.00        15.26
  183.20        2963.75           1415           2.00         2.00
  183.23        2964.00           1418           0.00         2.00
  183.25        2964.25           1422           8.00        15.26
  183.28        2964.50           1425           3.00         2.00
  183.31        2964.75           1428           8.00        15.26
  183.33        2965.00           1431           5.00         2.18
  183.36        2965.25           1435           0.00         2.00
  183.39        2965.50           1438           0.00         2.00
  183.42        2965.75           1441           6.00         6.54
  183.44        2966.00           1445           0.00         2.00
  183.47        2966.25           1448           8.00        15.26
  183.50        2966.50           1451           8.00        15.26
  183.52        2966.75           1455           8.00        15.26
  183.55        2967.00           1458           6.00         6.54
  183.58        2967.25           1461           2.00         2.00
  183.61        2967.50           1465           0.00         2.00
  183.63        2967.75           1468           1.00         2.00
  183.66        2968.00           1471           0.00         2.00
  183.69        2968.25           1475           8.00        15.26
  183.72        2968.50           1478           2.00         2.00
  183.74        2968.75           1481           0.00         2.00
  183.77        2969.00           1485           6.00         6.54
  183.80        2969.25           1488           8.00        15.26
  183.82        2969.50           1491           0.00         2.00
  183.85        2969.75           1495           0.00         2.00
  183.88        2970.00           1498           8.00        15.26
  183.91        2970.25           1501           6.00         6.54
  183.93        2970.50           1505           7.00        10.90
  183.96        2970.75           1508           8.00        15.26
  183.99        2971.00           1511           4.00         2.00
  184.02        2971.25           1515           0.00         2.00
  184.04        2971.50           1518           6.00         6.54
  184.07        2971.75           1521           8.00        15.26
  184.10        2972.00           1525           3.00         2.00
  184.12        2972.25           1528           8.00        15.26
  184.15        2972.50           1531           7.00        10.90
  184.18        2972.75           1535           7.00        10.90
  184.21        2973.00           1538           3.00         2.00
  184.23        2973.25           1541           0.00         2.00
  184.26        2973.50           1545           0.00         2.00
  184.29        2973.75           1548           8.00        15.26
  184.31        2974.00           1551           3.00         2.00
  184.34        2974.25           1555           0.00         2.00
  184.37        2974.50           1558           0.00         2.00
  184.40        2974.75           1561           8.00        15.26
  184.42        2975.00           1565           2.00         2.00
  184.45        2975.25           1568           5.00         2.18
  184.48        2975.50           1571           8.00        15.26
  184.51        2975.75           1575           4.00         2.00
  184.53        2976.00           1578           0.00         2.00
  184.56        2976.25           1581           3.00         2.00
  184.59        2976.50           1585           8.00        15.26
  184.61        2976.75           1588           0.00         2.00
  184.64        2977.00           1591           0.00         2.00
  184.67        2977.25           1595           3.00         2.00
  184.70        2977.50           1598           7.00        10.90
  184.72        2977.75           1601           0.00         2.00
  184.75        2978.00           1605           2.00         2.00
  184.78        2978.25           1608           0.00         2.00
  184.80        2978.50           1611           2.00         2.00
  184.83        2978.75           1615           7.00        10.90
  184.86        2979.00           1618           0.00         2.00
  184.89        2979.25           1621           8.00        15.26
  184.91        2979.50           1625           1.00         2.00
  184.94        2979.75           1628           0.00         2.00
  184.97        2980.00           1631           3.00         2.00
  185.00        2980.25           1635           3.00         2.00
  185.02        2980.50           1638           0.00         2.00
  185.05        2980.75           1641           8.00        15.26
  185.08        2981.00           1645           5.00         2.18
  185.10        2981.25           1648           5.00         2.18
  185.13        2981.50           1651           7.00        10.90
  185.16        2981.75           1655           4.00         2.00
  185.19        2982.00           1658           0.00         2.00
  185.21        2982.25           1661           7.00        10.90
  185.24        2982.50           1665           0.00         2.00
  185.27        2982.75           1668           0.00         2.00
  185.30        2983.00           1671           2.00         2.00
  185.32        2983.25           1675           0.00         2.00
  185.35        2983.50           1678           1.00         2.00
  185.38        2983.75           1681           8.00        15.26
  185.40        2984.00           1685           2.00         2.00
HS scan finished at 03:05:35
end
