************************************************************
  HS Scan of (1) Internal mercury lamp
************************************************************
Integration time is 0.2294 seconds per sample
dh130417Tamanrasset 22.79-5.529 2.766795pr865
************************************************************
Dead Time -------------------------  2.8E-08 
Number of Cycles Used -------------  4 
Starting Wavelength (Angstroms) ---  2950 
Final Wavelength (Angstoms) -------  2984 
Wavelength Increment (Angstroms) --  .25 
Filter Wheel #1 Position ---------- (1) Ground quartz diffuser (ND=2.32)
Filter Wheel #2 Position ---------- (1) Neutral Density 0.494



************************************************************
HS scan start time = 03:03:30
Dark Count =  4.8 


Time (GMT)  Wavelength (Ang)  Step Number  Raw Counts  Counts/Second

  183.85        2950.00           1233           0.00         2.00
  183.92        2950.25           1236           8.00        13.95
  183.94        2950.50           1239           1.00         2.00
  183.97        2950.75           1242           7.00         9.59
  184.00        2951.00           1246           1.00         2.00
  184.03        2951.25           1249           8.00        13.95
  184.05        2951.50           1252           7.00         9.59
  184.08        2951.75           1256           0.00         2.00
  184.11        2952.00           1259           7.00         9.59
  184.14        2952.25           1262           8.00        13.95
  184.16        2952.50           1266           3.00         2.00
  184.19        2952.75           1269           5.00         2.00
  184.22        2953.00           1272           8.00        13.95
  184.24        2953.25           1276           1.00         2.00
  184.27        2953.50           1279           5.00         2.00
  184.30        2953.75           1282           7.00         9.59
  184.33        2954.00           1286           0.00         2.00
  184.35        2954.25           1289           1.00         2.00
  184.38        2954.50           1292           8.00        13.95
  184.41        2954.75           1295           7.00         9.59
  184.43        2955.00           1299           7.00         9.59
  184.46        2955.25           1302           2.00         2.00
  184.49        2955.50           1305           4.00         2.00
  184.52        2955.75           1309           6.00         5.23
  184.54        2956.00           1312           6.00         5.23
  184.57        2956.25           1315           8.00        13.95
  184.60        2956.50           1319           0.00         2.00
  184.63        2956.75           1322           4.00         2.00
  184.65        2957.00           1325           3.00         2.00
  184.68        2957.25           1329           6.00         5.23
  184.71        2957.50           1332           8.00        13.95
  184.73        2957.75           1335           8.00        13.95
  184.76        2958.00           1339           0.00         2.00
  184.79        2958.25           1342           0.00         2.00
  184.82        2958.50           1345           3.00         2.00
  184.84        2958.75           1348           6.00         5.23
  184.87        2959.00           1352           3.00         2.00
  184.90        2959.25           1355           3.00         2.00
  184.93        2959.50           1358           7.00         9.59
  184.95        2959.75           1362           3.00         2.00
  184.98        2960.00           1365           8.00        13.95
  185.01        2960.25           1368           0.00         2.00
  185.03        2960.50           1372           6.00         5.23
  185.06        2960.75           1375           2.00         2.00
  185.09        2961.00           1378           0.00         2.00
  185.12        2961.25           1382           7.00         9.59
  185.14        2961.50           1385           0.00         2.00
  185.17        2961.75           1388           2.00         2.00
  185.20        2962.00           1392           5.00         2.00
  185.23        2962.25           1395           3.00         2.00
  185.25        2962.50           1398           8.00        13.95
  185.28        2962.75           1402           6.00         5.23
  185.31        2963.00           1405           0.00         2.00
  185.33        2963.25           1408           0.00         2.00
  185.36        2963.50           1412           4.00         2.00
  185.39        2963.75           1415           7.00         9.59
  185.42        2964.00           1418           5.00         2.00
  185.44        2964.25           1422           5.00         2.00
  185.47        2964.50           1425           0.00         2.00
  185.50        2964.75           1428           0.00         2.00
  185.52        2965.00           1431           8.00        13.95
  185.55        2965.25           1435           2.00         2.00
  185.58        2965.50           1438           8.00        13.95
  185.61        2965.75           1441           6.00         5.23
  185.63        2966.00           1445           2.00         2.00
  185.66        2966.25           1448           6.00         5.23
  185.69        2966.50           1451           4.00         2.00
  185.71        2966.75           1455           7.00         9.59
  185.74        2967.00           1458           8.00        13.95
  185.77        2967.25           1461           8.00        13.95
  185.80        2967.50           1465           8.00        13.95
  185.82        2967.75           1468           0.00         2.00
  185.85        2968.00           1471           3.00         2.00
  185.88        2968.25           1475           0.00         2.00
  185.91        2968.50           1478           1.00         2.00
  185.93        2968.75           1481           0.00         2.00
  185.96        2969.00           1485           7.00         9.59
  185.99        2969.25           1488           2.00         2.00
  186.01        2969.50           1491           0.00         2.00
  186.04        2969.75           1495           7.00         9.59
  186.07        2970.00           1498           0.00         2.00
  186.10        2970.25           1501           5.00         2.00
  186.12        2970.50           1505           5.00         2.00
  186.15        2970.75           1508           8.00        13.95
  186.18        2971.00           1511           0.00         2.00
  186.21        2971.25           1515           7.00         9.59
  186.23        2971.50           1518           8.00        13.95
  186.26        2971.75           1521           5.00         2.00
  186.29        2972.00           1525           3.00         2.00
  186.31        2972.25           1528           5.00         2.00
  186.34        2972.50           1531           0.00         2.00
  186.37        2972.75           1535           8.00        13.95
  186.40        2973.00           1538           1.00         2.00
  186.42        2973.25           1541           0.00         2.00
  186.45        2973.50           1545           6.00         5.23
  186.48        2973.75           1548           2.00         2.00
  186.50        2974.00           1551           8.00        13.95
  186.53        2974.25           1555           5.00         2.00
  186.56        2974.50           1558           4.00         2.00
  186.59        2974.75           1561           0.00         2.00
  186.61        2975.00           1565           8.00        13.95
  186.64        2975.25           1568           7.00         9.59
  186.67        2975.50           1571           0.00         2.00
  186.69        2975.75           1575           8.00        13.95
  186.72        2976.00           1578           3.00         2.00
  186.75        2976.25           1581           4.00         2.00
  186.78        2976.50           1585           3.00         2.00
  186.80        2976.75           1588           8.00        13.95
  186.83        2977.00           1591           8.00        13.95
  186.86        2977.25           1595           8.00        13.95
  186.89        2977.50           1598           8.00        13.95
  186.91        2977.75           1601           8.00        13.95
  186.94        2978.00           1605           5.00         2.00
  186.97        2978.25           1608           1.00         2.00
  186.99        2978.50           1611           8.00        13.95
  187.02        2978.75           1615           4.00         2.00
  187.05        2979.00           1618           3.00         2.00
  187.08        2979.25           1621           8.00        13.95
  187.10        2979.50           1625           6.00         5.23
  187.13        2979.75           1628           8.00        13.95
  187.16        2980.00           1631           8.00        13.95
  187.19        2980.25           1635           4.00         2.00
  187.21        2980.50           1638           0.00         2.00
  187.24        2980.75           1641           8.00        13.95
  187.27        2981.00           1645           7.00         9.59
  187.29        2981.25           1648           8.00        13.95
  187.32        2981.50           1651           0.00         2.00
  187.35        2981.75           1655           8.00        13.95
  187.38        2982.00           1658           8.00        13.95
  187.40        2982.25           1661           4.00         2.00
  187.43        2982.50           1665           6.00         5.23
  187.46        2982.75           1668           0.00         2.00
  187.48        2983.00           1671           0.00         2.00
  187.51        2983.25           1675           5.00         2.00
  187.54        2983.50           1678           7.00         9.59
  187.57        2983.75           1681           0.00         2.00
  187.59        2984.00           1685           8.00        13.95
HS scan finished at 03:07:47
end
