************************************************************
  HS Scan of (1) Internal mercury lamp
************************************************************
Integration time is 0.2294 seconds per sample
dh100417Tamanrasset 22.79-5.529 2.746401pr865
************************************************************
Dead Time -------------------------  2.8E-08 
Number of Cycles Used -------------  4 
Starting Wavelength (Angstroms) ---  2950 
Final Wavelength (Angstoms) -------  2984 
Wavelength Increment (Angstroms) --  .25 
Filter Wheel #1 Position ---------- (1) Ground quartz diffuser (ND=2.32)
Filter Wheel #2 Position ---------- (1) Neutral Density 0.494



************************************************************
HS scan start time = 03:06:31
Dark Count =  2.1 


Time (GMT)  Wavelength (Ang)  Step Number  Raw Counts  Counts/Second

  186.87        2950.00           1233           8.00        25.72
  186.94        2950.25           1236           0.00         2.00
  186.97        2950.50           1239           8.00        25.72
  186.99        2950.75           1242           8.00        25.72
  187.02        2951.00           1246           5.00        12.64
  187.05        2951.25           1249           6.00        17.00
  187.07        2951.50           1252           5.00        12.64
  187.10        2951.75           1256           8.00        25.72
  187.13        2952.00           1259           6.00        17.00
  187.16        2952.25           1262           0.00         2.00
  187.18        2952.50           1266           8.00        25.72
  187.21        2952.75           1269           8.00        25.72
  187.24        2953.00           1272           3.00         3.92
  187.27        2953.25           1276           8.00        25.72
  187.29        2953.50           1279           8.00        25.72
  187.32        2953.75           1282           5.00        12.64
  187.35        2954.00           1286           1.00         2.00
  187.37        2954.25           1289           8.00        25.72
  187.40        2954.50           1292           2.00         2.00
  187.43        2954.75           1295           0.00         2.00
  187.46        2955.00           1299           0.00         2.00
  187.48        2955.25           1302           5.00        12.64
  187.51        2955.50           1305           0.00         2.00
  187.54        2955.75           1309           8.00        25.72
  187.57        2956.00           1312           0.00         2.00
  187.59        2956.25           1315           0.00         2.00
  187.62        2956.50           1319           5.00        12.64
  187.65        2956.75           1322           7.00        21.36
  187.67        2957.00           1325           6.00        17.00
  187.70        2957.25           1329           8.00        25.72
  187.73        2957.50           1332           6.00        17.00
  187.76        2957.75           1335           0.00         2.00
  187.78        2958.00           1339           1.00         2.00
  187.81        2958.25           1342           8.00        25.72
  187.84        2958.50           1345           2.00         2.00
  187.86        2958.75           1348           0.00         2.00
  187.89        2959.00           1352           5.00        12.64
  187.92        2959.25           1355           2.00         2.00
  187.95        2959.50           1358           8.00        25.72
  187.97        2959.75           1362           5.00        12.64
  188.00        2960.00           1365           7.00        21.36
  188.03        2960.25           1368           0.00         2.00
  188.06        2960.50           1372           8.00        25.72
  188.08        2960.75           1375           0.00         2.00
  188.11        2961.00           1378           3.00         3.92
  188.14        2961.25           1382           8.00        25.72
  188.16        2961.50           1385           8.00        25.72
  188.19        2961.75           1388           8.00        25.72
  188.22        2962.00           1392           8.00        25.72
  188.25        2962.25           1395           8.00        25.72
  188.27        2962.50           1398           5.00        12.64
  188.30        2962.75           1402           3.00         3.92
  188.33        2963.00           1405           3.00         3.92
  188.36        2963.25           1408           8.00        25.72
  188.38        2963.50           1412           7.00        21.36
  188.41        2963.75           1415           0.00         2.00
  188.44        2964.00           1418           0.00         2.00
  188.46        2964.25           1422           0.00         2.00
  188.49        2964.50           1425           6.00        17.00
  188.52        2964.75           1428           6.00        17.00
  188.55        2965.00           1431           8.00        25.72
  188.57        2965.25           1435           8.00        25.72
  188.60        2965.50           1438           8.00        25.72
  188.63        2965.75           1441           0.00         2.00
  188.65        2966.00           1445           0.00         2.00
  188.68        2966.25           1448           4.00         8.28
  188.71        2966.50           1451           7.00        21.36
  188.74        2966.75           1455           1.00         2.00
  188.76        2967.00           1458           8.00        25.72
  188.79        2967.25           1461           1.00         2.00
  188.82        2967.50           1465           4.00         8.28
  188.85        2967.75           1468           0.00         2.00
  188.87        2968.00           1471           0.00         2.00
  188.90        2968.25           1475           0.00         2.00
  188.93        2968.50           1478           2.00         2.00
  188.95        2968.75           1481           8.00        25.72
  188.98        2969.00           1485           8.00        25.72
  189.01        2969.25           1488           6.00        17.00
  189.04        2969.50           1491           1.00         2.00
  189.06        2969.75           1495           8.00        25.72
  189.09        2970.00           1498           1.00         2.00
  189.12        2970.25           1501           0.00         2.00
  189.15        2970.50           1505           4.00         8.28
  189.17        2970.75           1508           5.00        12.64
  189.20        2971.00           1511           0.00         2.00
  189.23        2971.25           1515           6.00        17.00
  189.25        2971.50           1518           1.00         2.00
  189.28        2971.75           1521           7.00        21.36
  189.31        2972.00           1525           4.00         8.28
  189.34        2972.25           1528           5.00        12.64
  189.36        2972.50           1531           0.00         2.00
  189.39        2972.75           1535           8.00        25.72
  189.42        2973.00           1538           8.00        25.72
  189.45        2973.25           1541           8.00        25.72
  189.47        2973.50           1545           0.00         2.00
  189.50        2973.75           1548           8.00        25.72
  189.53        2974.00           1551           7.00        21.36
  189.55        2974.25           1555           6.00        17.00
  189.58        2974.50           1558           0.00         2.00
  189.61        2974.75           1561           0.00         2.00
  189.64        2975.00           1565           5.00        12.64
  189.66        2975.25           1568           3.00         3.92
  189.69        2975.50           1571           2.00         2.00
  189.72        2975.75           1575           2.00         2.00
  189.75        2976.00           1578           2.00         2.00
  189.77        2976.25           1581           1.00         2.00
  189.80        2976.50           1585           4.00         8.28
  189.83        2976.75           1588           8.00        25.72
  189.85        2977.00           1591           1.00         2.00
  189.88        2977.25           1595           6.00        17.00
  189.91        2977.50           1598           2.00         2.00
  189.94        2977.75           1601           8.00        25.72
  189.96        2978.00           1605           8.00        25.72
  189.99        2978.25           1608           0.00         2.00
  190.02        2978.50           1611           6.00        17.00
  190.04        2978.75           1615           7.00        21.36
  190.07        2979.00           1618           5.00        12.64
  190.10        2979.25           1621           2.00         2.00
  190.13        2979.50           1625           0.00         2.00
  190.15        2979.75           1628           1.00         2.00
  190.18        2980.00           1631           8.00        25.72
  190.21        2980.25           1635           8.00        25.72
  190.24        2980.50           1638           7.00        21.36
  190.26        2980.75           1641           8.00        25.72
  190.29        2981.00           1645           0.00         2.00
  190.32        2981.25           1648           6.00        17.00
  190.34        2981.50           1651           8.00        25.72
  190.37        2981.75           1655           8.00        25.72
  190.40        2982.00           1658           4.00         8.28
  190.43        2982.25           1661           3.00         3.92
  190.45        2982.50           1665           3.00         3.92
  190.48        2982.75           1668           8.00        25.72
  190.51        2983.00           1671           3.00         3.92
  190.54        2983.25           1675           2.00         2.00
  190.56        2983.50           1678           9.00        30.08
  190.59        2983.75           1681           3.00         3.92
  190.62        2984.00           1685           8.00        25.72
HS scan finished at 03:10:48
end
