************************************************************
  HS Scan of (1) Internal mercury lamp
************************************************************
Integration time is 0.2294 seconds per sample
dh220417Tamanrasset 22.79-5.529 2.84327pr865
************************************************************
Dead Time -------------------------  2.8E-08 
Number of Cycles Used -------------  4 
Starting Wavelength (Angstroms) ---  2950 
Final Wavelength (Angstoms) -------  2984 
Wavelength Increment (Angstroms) --  .25 
Filter Wheel #1 Position ---------- (1) Ground quartz diffuser (ND=2.32)
Filter Wheel #2 Position ---------- (1) Neutral Density 0.494



************************************************************
HS scan start time = 02:55:19
Dark Count =  3.7 


Time (GMT)  Wavelength (Ang)  Step Number  Raw Counts  Counts/Second

  175.67        2950.00           1233           3.00         2.00
  175.73        2950.25           1236           8.00        18.74
  175.76        2950.50           1239           7.00        14.39
  175.78        2950.75           1242           1.00         2.00
  175.81        2951.00           1246           8.00        18.74
  175.84        2951.25           1249           3.00         2.00
  175.87        2951.50           1252           8.00        18.74
  175.89        2951.75           1256           5.00         5.67
  175.92        2952.00           1259           4.00         2.00
  175.95        2952.25           1262           0.00         2.00
  175.98        2952.50           1266           0.00         2.00
  176.00        2952.75           1269           8.00        18.74
  176.03        2953.00           1272           3.00         2.00
  176.06        2953.25           1276           0.00         2.00
  176.08        2953.50           1279           6.00        10.03
  176.11        2953.75           1282           8.00        18.74
  176.14        2954.00           1286           6.00        10.03
  176.17        2954.25           1289           3.00         2.00
  176.19        2954.50           1292           8.00        18.74
  176.22        2954.75           1295           2.00         2.00
  176.25        2955.00           1299           6.00        10.03
  176.27        2955.25           1302           0.00         2.00
  176.30        2955.50           1305           0.00         2.00
  176.33        2955.75           1309           8.00        18.74
  176.35        2956.00           1312           3.00         2.00
  176.38        2956.25           1315           8.00        18.74
  176.41        2956.50           1319           7.00        14.39
  176.44        2956.75           1322           8.00        18.74
  176.46        2957.00           1325           8.00        18.74
  176.49        2957.25           1329           8.00        18.74
  176.52        2957.50           1332           0.00         2.00
  176.54        2957.75           1335           0.00         2.00
  176.57        2958.00           1339           0.00         2.00
  176.60        2958.25           1342           3.00         2.00
  176.63        2958.50           1345           2.00         2.00
  176.65        2958.75           1348           5.00         5.67
  176.68        2959.00           1352           0.00         2.00
  176.71        2959.25           1355           4.00         2.00
  176.73        2959.50           1358           8.00        18.74
  176.76        2959.75           1362           0.00         2.00
  176.79        2960.00           1365           7.00        14.39
  176.82        2960.25           1368           0.00         2.00
  176.84        2960.50           1372           6.00        10.03
  176.87        2960.75           1375           8.00        18.74
  176.90        2961.00           1378           8.00        18.74
  176.92        2961.25           1382           7.00        14.39
  176.95        2961.50           1385           8.00        18.74
  176.98        2961.75           1388           0.00         2.00
  177.01        2962.00           1392           7.00        14.39
  177.03        2962.25           1395           6.00        10.03
  177.06        2962.50           1398           0.00         2.00
  177.09        2962.75           1402           5.00         5.67
  177.11        2963.00           1405           8.00        18.74
  177.14        2963.25           1408           4.00         2.00
  177.17        2963.50           1412           6.00        10.03
  177.20        2963.75           1415           0.00         2.00
  177.22        2964.00           1418           8.00        18.74
  177.25        2964.25           1422           6.00        10.03
  177.28        2964.50           1425           0.00         2.00
  177.30        2964.75           1428           4.00         2.00
  177.33        2965.00           1431           2.00         2.00
  177.36        2965.25           1435           8.00        18.74
  177.39        2965.50           1438           8.00        18.74
  177.41        2965.75           1441           6.00        10.03
  177.44        2966.00           1445           8.00        18.74
  177.47        2966.25           1448           0.00         2.00
  177.49        2966.50           1451           0.00         2.00
  177.52        2966.75           1455           4.00         2.00
  177.55        2967.00           1458           4.00         2.00
  177.58        2967.25           1461           8.00        18.74
  177.60        2967.50           1465           7.00        14.39
  177.63        2967.75           1468           8.00        18.74
  177.66        2968.00           1471           4.00         2.00
  177.68        2968.25           1475           1.00         2.00
  177.71        2968.50           1478           4.00         2.00
  177.74        2968.75           1481           0.00         2.00
  177.77        2969.00           1485           3.00         2.00
  177.79        2969.25           1488           2.00         2.00
  177.82        2969.50           1491           0.00         2.00
  177.85        2969.75           1495           0.00         2.00
  177.87        2970.00           1498           8.00        18.74
  177.90        2970.25           1501           5.00         5.67
  177.93        2970.50           1505           0.00         2.00
  177.96        2970.75           1508           4.00         2.00
  177.98        2971.00           1511           0.00         2.00
  178.01        2971.25           1515           6.00        10.03
  178.04        2971.50           1518           8.00        18.74
  178.06        2971.75           1521           8.00        18.74
  178.09        2972.00           1525           0.00         2.00
  178.12        2972.25           1528           2.00         2.00
  178.14        2972.50           1531           3.00         2.00
  178.17        2972.75           1535           0.00         2.00
  178.20        2973.00           1538           8.00        18.74
  178.23        2973.25           1541           6.00        10.03
  178.25        2973.50           1545           0.00         2.00
  178.28        2973.75           1548           9.00        23.10
  178.31        2974.00           1551           0.00         2.00
  178.33        2974.25           1555           8.00        18.74
  178.36        2974.50           1558           5.00         5.67
  178.39        2974.75           1561           8.00        18.74
  178.42        2975.00           1565           4.00         2.00
  178.44        2975.25           1568           8.00        18.74
  178.47        2975.50           1571           0.00         2.00
  178.50        2975.75           1575           0.00         2.00
  178.52        2976.00           1578           8.00        18.74
  178.55        2976.25           1581           6.00        10.03
  178.58        2976.50           1585           3.00         2.00
  178.61        2976.75           1588           7.00        14.39
  178.63        2977.00           1591           6.00        10.03
  178.66        2977.25           1595           7.00        14.39
  178.69        2977.50           1598           2.00         2.00
  178.71        2977.75           1601           0.00         2.00
  178.74        2978.00           1605           4.00         2.00
  178.77        2978.25           1608           8.00        18.74
  178.80        2978.50           1611           2.00         2.00
  178.82        2978.75           1615           3.00         2.00
  178.85        2979.00           1618           8.00        18.74
  178.88        2979.25           1621           6.00        10.03
  178.90        2979.50           1625           0.00         2.00
  178.93        2979.75           1628           1.00         2.00
  178.96        2980.00           1631           3.00         2.00
  178.98        2980.25           1635           6.00        10.03
  179.01        2980.50           1638           0.00         2.00
  179.04        2980.75           1641           8.00        18.74
  179.07        2981.00           1645           1.00         2.00
  179.09        2981.25           1648           3.00         2.00
  179.12        2981.50           1651           7.00        14.39
  179.15        2981.75           1655           0.00         2.00
  179.17        2982.00           1658           0.00         2.00
  179.20        2982.25           1661           0.00         2.00
  179.23        2982.50           1665           0.00         2.00
  179.26        2982.75           1668           6.00        10.03
  179.28        2983.00           1671           0.00         2.00
  179.31        2983.25           1675           4.00         2.00
  179.34        2983.50           1678           0.00         2.00
  179.36        2983.75           1681           7.00        14.39
  179.39        2984.00           1685           4.00         2.00
HS scan finished at 02:59:35
end
