************************************************************
  HS Scan of (1) Internal mercury lamp
************************************************************
Integration time is 0.2294 seconds per sample
dh210417Tamanrasset 22.79-5.529 2.827974pr865
************************************************************
Dead Time -------------------------  2.8E-08 
Number of Cycles Used -------------  4 
Starting Wavelength (Angstroms) ---  2950 
Final Wavelength (Angstoms) -------  2984 
Wavelength Increment (Angstroms) --  .25 
Filter Wheel #1 Position ---------- (1) Ground quartz diffuser (ND=2.32)
Filter Wheel #2 Position ---------- (1) Neutral Density 0.494



************************************************************
HS scan start time = 02:56:31
Dark Count =  3.1 


Time (GMT)  Wavelength (Ang)  Step Number  Raw Counts  Counts/Second

  176.87        2950.00           1233           6.00        12.64
  176.93        2950.25           1236           0.00         2.00
  176.96        2950.50           1239           3.00         2.00
  176.98        2950.75           1242           5.00         8.28
  177.01        2951.00           1246           2.00         2.00
  177.04        2951.25           1249           2.00         2.00
  177.06        2951.50           1252           3.00         2.00
  177.09        2951.75           1256           0.00         2.00
  177.12        2952.00           1259           0.00         2.00
  177.15        2952.25           1262           0.00         2.00
  177.17        2952.50           1266           8.00        21.36
  177.20        2952.75           1269           0.00         2.00
  177.23        2953.00           1272           7.00        17.00
  177.25        2953.25           1276           8.00        21.36
  177.28        2953.50           1279           5.00         8.28
  177.31        2953.75           1282           4.00         3.92
  177.34        2954.00           1286           3.00         2.00
  177.36        2954.25           1289           2.00         2.00
  177.39        2954.50           1292           8.00        21.36
  177.42        2954.75           1295           0.00         2.00
  177.44        2955.00           1299           0.00         2.00
  177.47        2955.25           1302           8.00        21.36
  177.50        2955.50           1305           7.00        17.00
  177.53        2955.75           1309           4.00         3.92
  177.55        2956.00           1312           1.00         2.00
  177.58        2956.25           1315           8.00        21.36
  177.61        2956.50           1319           8.00        21.36
  177.63        2956.75           1322           8.00        21.36
  177.66        2957.00           1325           2.00         2.00
  177.69        2957.25           1329           4.00         3.92
  177.72        2957.50           1332           1.00         2.00
  177.74        2957.75           1335           4.00         3.92
  177.77        2958.00           1339           4.00         3.92
  177.80        2958.25           1342           8.00        21.36
  177.82        2958.50           1345           5.00         8.28
  177.85        2958.75           1348           0.00         2.00
  177.88        2959.00           1352           7.00        17.00
  177.90        2959.25           1355           8.00        21.36
  177.93        2959.50           1358           3.00         2.00
  177.96        2959.75           1362           0.00         2.00
  177.99        2960.00           1365           0.00         2.00
  178.01        2960.25           1368           8.00        21.36
  178.04        2960.50           1372           8.00        21.36
  178.07        2960.75           1375           0.00         2.00
  178.09        2961.00           1378           8.00        21.36
  178.12        2961.25           1382           8.00        21.36
  178.15        2961.50           1385           8.00        21.36
  178.18        2961.75           1388           0.00         2.00
  178.20        2962.00           1392           8.00        21.36
  178.23        2962.25           1395           3.00         2.00
  178.26        2962.50           1398           0.00         2.00
  178.28        2962.75           1402           8.00        21.36
  178.31        2963.00           1405           4.00         3.92
  178.34        2963.25           1408           3.00         2.00
  178.37        2963.50           1412           6.00        12.64
  178.39        2963.75           1415           7.00        17.00
  178.42        2964.00           1418           0.00         2.00
  178.45        2964.25           1422           0.00         2.00
  178.47        2964.50           1425           7.00        17.00
  178.50        2964.75           1428           8.00        21.36
  178.53        2965.00           1431           5.00         8.28
  178.56        2965.25           1435           8.00        21.36
  178.58        2965.50           1438           8.00        21.36
  178.61        2965.75           1441           0.00         2.00
  178.64        2966.00           1445           0.00         2.00
  178.66        2966.25           1448           8.00        21.36
  178.69        2966.50           1451           0.00         2.00
  178.72        2966.75           1455           8.00        21.36
  178.74        2967.00           1458           0.00         2.00
  178.77        2967.25           1461           0.00         2.00
  178.80        2967.50           1465           1.00         2.00
  178.83        2967.75           1468           0.00         2.00
  178.85        2968.00           1471           0.00         2.00
  178.88        2968.25           1475           5.00         8.28
  178.91        2968.50           1478           5.00         8.28
  178.93        2968.75           1481           0.00         2.00
  178.96        2969.00           1485           2.00         2.00
  178.99        2969.25           1488           5.00         8.28
  179.02        2969.50           1491           3.00         2.00
  179.04        2969.75           1495           5.00         8.28
  179.07        2970.00           1498           0.00         2.00
  179.10        2970.25           1501           8.00        21.36
  179.12        2970.50           1505           3.00         2.00
  179.15        2970.75           1508           1.00         2.00
  179.18        2971.00           1511           7.00        17.00
  179.21        2971.25           1515           0.00         2.00
  179.23        2971.50           1518           8.00        21.36
  179.26        2971.75           1521           4.00         3.92
  179.29        2972.00           1525           0.00         2.00
  179.31        2972.25           1528           8.00        21.36
  179.34        2972.50           1531           0.00         2.00
  179.37        2972.75           1535           7.00        17.00
  179.40        2973.00           1538           8.00        21.36
  179.42        2973.25           1541           8.00        21.36
  179.45        2973.50           1545           3.00         2.00
  179.48        2973.75           1548           4.00         3.92
  179.50        2974.00           1551           9.00        25.72
  179.53        2974.25           1555           4.00         3.92
  179.56        2974.50           1558           0.00         2.00
  179.59        2974.75           1561           5.00         8.28
  179.61        2975.00           1565           8.00        21.36
  179.64        2975.25           1568           8.00        21.36
  179.67        2975.50           1571           8.00        21.36
  179.69        2975.75           1575           0.00         2.00
  179.72        2976.00           1578           8.00        21.36
  179.75        2976.25           1581           6.00        12.64
  179.77        2976.50           1585           2.00         2.00
  179.80        2976.75           1588           6.00        12.64
  179.83        2977.00           1591           8.00        21.36
  179.86        2977.25           1595           0.00         2.00
  179.88        2977.50           1598           7.00        17.00
  179.91        2977.75           1601           6.00        12.64
  179.94        2978.00           1605           1.00         2.00
  179.97        2978.25           1608           8.00        21.36
  179.99        2978.50           1611           7.00        17.00
  180.02        2978.75           1615           4.00         3.92
  180.05        2979.00           1618           3.00         2.00
  180.07        2979.25           1621           8.00        21.36
  180.10        2979.50           1625           5.00         8.28
  180.13        2979.75           1628           0.00         2.00
  180.16        2980.00           1631           4.00         3.92
  180.18        2980.25           1635           8.00        21.36
  180.21        2980.50           1638           2.00         2.00
  180.24        2980.75           1641           8.00        21.36
  180.26        2981.00           1645           8.00        21.36
  180.29        2981.25           1648           8.00        21.36
  180.32        2981.50           1651           5.00         8.28
  180.34        2981.75           1655           0.00         2.00
  180.37        2982.00           1658           7.00        17.00
  180.40        2982.25           1661           6.00        12.64
  180.43        2982.50           1665           0.00         2.00
  180.45        2982.75           1668           5.00         8.28
  180.48        2983.00           1671           1.00         2.00
  180.51        2983.25           1675           8.00        21.36
  180.53        2983.50           1678           5.00         8.28
  180.56        2983.75           1681           8.00        21.36
  180.59        2984.00           1685           1.00         2.00
HS scan finished at 03:00:47
end
