************************************************************
  HS Scan of (1) Internal mercury lamp
************************************************************
Integration time is 0.2294 seconds per sample
dh270417Tamanrasset 22.79-5.529 2.924843pr865
************************************************************
Dead Time -------------------------  2.8E-08 
Number of Cycles Used -------------  4 
Starting Wavelength (Angstroms) ---  2950 
Final Wavelength (Angstoms) -------  2984 
Wavelength Increment (Angstroms) --  .25 
Filter Wheel #1 Position ---------- (1) Ground quartz diffuser (ND=2.32)
Filter Wheel #2 Position ---------- (1) Neutral Density 0.494



************************************************************
HS scan start time = 02:51:31
Dark Count =  4.7 


Time (GMT)  Wavelength (Ang)  Step Number  Raw Counts  Counts/Second

  171.86        2950.00           1233           7.00        10.03
  171.93        2950.25           1236           6.00         5.67
  171.95        2950.50           1239           0.00         2.00
  171.98        2950.75           1242           8.00        14.39
  172.01        2951.00           1246           4.00         2.00
  172.04        2951.25           1249           6.00         5.67
  172.06        2951.50           1252           0.00         2.00
  172.09        2951.75           1256           7.00        10.03
  172.12        2952.00           1259           0.00         2.00
  172.14        2952.25           1262           6.00         5.67
  172.17        2952.50           1266           8.00        14.39
  172.20        2952.75           1269           5.00         2.00
  172.23        2953.00           1272           8.00        14.39
  172.25        2953.25           1276           1.00         2.00
  172.28        2953.50           1279           6.00         5.67
  172.31        2953.75           1282           0.00         2.00
  172.33        2954.00           1286           8.00        14.39
  172.36        2954.25           1289           8.00        14.39
  172.39        2954.50           1292           8.00        14.39
  172.42        2954.75           1295           2.00         2.00
  172.44        2955.00           1299           4.00         2.00
  172.47        2955.25           1302           8.00        14.39
  172.50        2955.50           1305           6.00         5.67
  172.52        2955.75           1309           8.00        14.39
  172.55        2956.00           1312           9.00        18.74
  172.58        2956.25           1315           7.00        10.03
  172.61        2956.50           1319           5.00         2.00
  172.63        2956.75           1322           8.00        14.39
  172.66        2957.00           1325           8.00        14.39
  172.69        2957.25           1329           8.00        14.39
  172.71        2957.50           1332           2.00         2.00
  172.74        2957.75           1335           2.00         2.00
  172.77        2958.00           1339           5.00         2.00
  172.80        2958.25           1342           4.00         2.00
  172.82        2958.50           1345           0.00         2.00
  172.85        2958.75           1348           1.00         2.00
  172.88        2959.00           1352           1.00         2.00
  172.90        2959.25           1355           8.00        14.39
  172.93        2959.50           1358           4.00         2.00
  172.96        2959.75           1362           7.00        10.03
  172.99        2960.00           1365           0.00         2.00
  173.01        2960.25           1368           6.00         5.67
  173.04        2960.50           1372           2.00         2.00
  173.07        2960.75           1375           8.00        14.39
  173.09        2961.00           1378           8.00        14.39
  173.12        2961.25           1382           8.00        14.39
  173.15        2961.50           1385           8.00        14.39
  173.18        2961.75           1388           0.00         2.00
  173.20        2962.00           1392           6.00         5.67
  173.23        2962.25           1395           2.00         2.00
  173.26        2962.50           1398           3.00         2.00
  173.28        2962.75           1402           0.00         2.00
  173.31        2963.00           1405           5.00         2.00
  173.34        2963.25           1408           8.00        14.39
  173.37        2963.50           1412           0.00         2.00
  173.39        2963.75           1415           5.00         2.00
  173.42        2964.00           1418           3.00         2.00
  173.45        2964.25           1422           2.00         2.00
  173.48        2964.50           1425           4.00         2.00
  173.50        2964.75           1428           6.00         5.67
  173.53        2965.00           1431           3.00         2.00
  173.56        2965.25           1435           8.00        14.39
  173.58        2965.50           1438           8.00        14.39
  173.61        2965.75           1441           6.00         5.67
  173.64        2966.00           1445           5.00         2.00
  173.67        2966.25           1448           0.00         2.00
  173.69        2966.50           1451           4.00         2.00
  173.72        2966.75           1455           4.00         2.00
  173.75        2967.00           1458           8.00        14.39
  173.77        2967.25           1461           5.00         2.00
  173.80        2967.50           1465           8.00        14.39
  173.83        2967.75           1468           5.00         2.00
  173.85        2968.00           1471           3.00         2.00
  173.88        2968.25           1475           6.00         5.67
  173.91        2968.50           1478           8.00        14.39
  173.94        2968.75           1481           5.00         2.00
  173.96        2969.00           1485           3.00         2.00
  173.99        2969.25           1488           3.00         2.00
  174.02        2969.50           1491           3.00         2.00
  174.05        2969.75           1495           1.00         2.00
  174.07        2970.00           1498           4.00         2.00
  174.10        2970.25           1501           6.00         5.67
  174.13        2970.50           1505           7.00        10.03
  174.15        2970.75           1508           4.00         2.00
  174.18        2971.00           1511           3.00         2.00
  174.21        2971.25           1515           3.00         2.00
  174.24        2971.50           1518           3.00         2.00
  174.26        2971.75           1521           5.00         2.00
  174.29        2972.00           1525           8.00        14.39
  174.32        2972.25           1528           7.00        10.03
  174.34        2972.50           1531           8.00        14.39
  174.37        2972.75           1535           8.00        14.39
  174.40        2973.00           1538           7.00        10.03
  174.42        2973.25           1541           5.00         2.00
  174.45        2973.50           1545           6.00         5.67
  174.48        2973.75           1548           4.00         2.00
  174.51        2974.00           1551           0.00         2.00
  174.53        2974.25           1555           8.00        14.39
  174.56        2974.50           1558           5.00         2.00
  174.59        2974.75           1561           8.00        14.39
  174.61        2975.00           1565           1.00         2.00
  174.64        2975.25           1568           4.00         2.00
  174.67        2975.50           1571           3.00         2.00
  174.70        2975.75           1575           3.00         2.00
  174.72        2976.00           1578           4.00         2.00
  174.75        2976.25           1581           0.00         2.00
  174.78        2976.50           1585           4.00         2.00
  174.80        2976.75           1588           1.00         2.00
  174.83        2977.00           1591           8.00        14.39
  174.86        2977.25           1595           1.00         2.00
  174.89        2977.50           1598           0.00         2.00
  174.91        2977.75           1601           2.00         2.00
  174.94        2978.00           1605           7.00        10.03
  174.97        2978.25           1608           8.00        14.39
  174.99        2978.50           1611           1.00         2.00
  175.02        2978.75           1615           7.00        10.03
  175.05        2979.00           1618           6.00         5.67
  175.08        2979.25           1621           0.00         2.00
  175.10        2979.50           1625           7.00        10.03
  175.13        2979.75           1628           7.00        10.03
  175.16        2980.00           1631           0.00         2.00
  175.18        2980.25           1635           8.00        14.39
  175.21        2980.50           1638           6.00         5.67
  175.24        2980.75           1641           0.00         2.00
  175.26        2981.00           1645           0.00         2.00
  175.29        2981.25           1648           0.00         2.00
  175.32        2981.50           1651           1.00         2.00
  175.35        2981.75           1655           5.00         2.00
  175.37        2982.00           1658           2.00         2.00
  175.40        2982.25           1661           8.00        14.39
  175.43        2982.50           1665           0.00         2.00
  175.45        2982.75           1668           4.00         2.00
  175.48        2983.00           1671           8.00        14.39
  175.51        2983.25           1675           0.00         2.00
  175.54        2983.50           1678           7.00        10.03
  175.56        2983.75           1681           8.00        14.39
  175.59        2984.00           1685           8.00        14.39
HS scan finished at 02:55:47
end
