************************************************************
  HS Scan of (1) Internal mercury lamp
************************************************************
Integration time is 0.2294 seconds per sample
dh260417Tamanrasset 22.79-5.529 2.975825pr865
************************************************************
Dead Time -------------------------  2.8E-08 
Number of Cycles Used -------------  4 
Starting Wavelength (Angstroms) ---  2950 
Final Wavelength (Angstoms) -------  2984 
Wavelength Increment (Angstroms) --  .25 
Filter Wheel #1 Position ---------- (1) Ground quartz diffuser (ND=2.32)
Filter Wheel #2 Position ---------- (1) Neutral Density 0.494



************************************************************
HS scan start time = 02:52:16
Dark Count =  4.5 


Time (GMT)  Wavelength (Ang)  Step Number  Raw Counts  Counts/Second

  172.62        2950.00           1233           0.00         2.00
  172.69        2950.25           1236           8.00        15.26
  172.71        2950.50           1239           4.00         2.00
  172.74        2950.75           1242           4.00         2.00
  172.77        2951.00           1246           8.00        15.26
  172.80        2951.25           1249           8.00        15.26
  172.82        2951.50           1252           5.00         2.18
  172.85        2951.75           1256           8.00        15.26
  172.88        2952.00           1259           3.00         2.00
  172.90        2952.25           1262           3.00         2.00
  172.93        2952.50           1266           4.00         2.00
  172.96        2952.75           1269           8.00        15.26
  172.99        2953.00           1272           1.00         2.00
  173.01        2953.25           1276           8.00        15.26
  173.04        2953.50           1279           2.00         2.00
  173.07        2953.75           1282           6.00         6.54
  173.09        2954.00           1286           6.00         6.54
  173.12        2954.25           1289           8.00        15.26
  173.15        2954.50           1292           5.00         2.18
  173.18        2954.75           1295           6.00         6.54
  173.20        2955.00           1299           7.00        10.90
  173.23        2955.25           1302           3.00         2.00
  173.26        2955.50           1305           8.00        15.26
  173.28        2955.75           1309           5.00         2.18
  173.31        2956.00           1312           2.00         2.00
  173.34        2956.25           1315           5.00         2.18
  173.36        2956.50           1319           3.00         2.00
  173.39        2956.75           1322           7.00        10.90
  173.42        2957.00           1325           5.00         2.18
  173.45        2957.25           1329           7.00        10.90
  173.47        2957.50           1332           8.00        15.26
  173.50        2957.75           1335           3.00         2.00
  173.53        2958.00           1339           4.00         2.00
  173.55        2958.25           1342           4.00         2.00
  173.58        2958.50           1345           8.00        15.26
  173.61        2958.75           1348           5.00         2.18
  173.64        2959.00           1352           3.00         2.00
  173.66        2959.25           1355           0.00         2.00
  173.69        2959.50           1358           0.00         2.00
  173.72        2959.75           1362           8.00        15.26
  173.74        2960.00           1365           0.00         2.00
  173.77        2960.25           1368           2.00         2.00
  173.80        2960.50           1372           7.00        10.90
  173.83        2960.75           1375           7.00        10.90
  173.85        2961.00           1378           8.00        15.26
  173.88        2961.25           1382           3.00         2.00
  173.91        2961.50           1385           3.00         2.00
  173.93        2961.75           1388           8.00        15.26
  173.96        2962.00           1392           7.00        10.90
  173.99        2962.25           1395           4.00         2.00
  174.02        2962.50           1398           0.00         2.00
  174.04        2962.75           1402           8.00        15.26
  174.07        2963.00           1405           7.00        10.90
  174.10        2963.25           1408           7.00        10.90
  174.12        2963.50           1412           7.00        10.90
  174.15        2963.75           1415           1.00         2.00
  174.18        2964.00           1418           6.00         6.54
  174.21        2964.25           1422           8.00        15.26
  174.23        2964.50           1425           3.00         2.00
  174.26        2964.75           1428           2.00         2.00
  174.29        2965.00           1431           7.00        10.90
  174.31        2965.25           1435           8.00        15.26
  174.34        2965.50           1438           8.00        15.26
  174.37        2965.75           1441           7.00        10.90
  174.39        2966.00           1445           1.00         2.00
  174.42        2966.25           1448           3.00         2.00
  174.45        2966.50           1451           6.00         6.54
  174.48        2966.75           1455           0.00         2.00
  174.50        2967.00           1458           5.00         2.18
  174.53        2967.25           1461           7.00        10.90
  174.56        2967.50           1465           5.00         2.18
  174.58        2967.75           1468           6.00         6.54
  174.61        2968.00           1471           6.00         6.54
  174.64        2968.25           1475           2.00         2.00
  174.67        2968.50           1478           3.00         2.00
  174.69        2968.75           1481           5.00         2.18
  174.72        2969.00           1485           5.00         2.18
  174.75        2969.25           1488           5.00         2.18
  174.77        2969.50           1491           0.00         2.00
  174.80        2969.75           1495           1.00         2.00
  174.83        2970.00           1498           2.00         2.00
  174.86        2970.25           1501           1.00         2.00
  174.88        2970.50           1505           5.00         2.18
  174.91        2970.75           1508           8.00        15.26
  174.94        2971.00           1511           2.00         2.00
  174.97        2971.25           1515           4.00         2.00
  174.99        2971.50           1518           5.00         2.18
  175.02        2971.75           1521           4.00         2.00
  175.05        2972.00           1525           8.00        15.26
  175.07        2972.25           1528           8.00        15.26
  175.10        2972.50           1531           4.00         2.00
  175.13        2972.75           1535           4.00         2.00
  175.16        2973.00           1538           2.00         2.00
  175.18        2973.25           1541           4.00         2.00
  175.21        2973.50           1545           7.00        10.90
  175.24        2973.75           1548           6.00         6.54
  175.26        2974.00           1551           4.00         2.00
  175.29        2974.25           1555           8.00        15.26
  175.32        2974.50           1558           5.00         2.18
  175.35        2974.75           1561           4.00         2.00
  175.37        2975.00           1565           0.00         2.00
  175.40        2975.25           1568           2.00         2.00
  175.43        2975.50           1571           8.00        15.26
  175.45        2975.75           1575           6.00         6.54
  175.48        2976.00           1578           8.00        15.26
  175.51        2976.25           1581           8.00        15.26
  175.53        2976.50           1585           7.00        10.90
  175.56        2976.75           1588           4.00         2.00
  175.59        2977.00           1591           8.00        15.26
  175.62        2977.25           1595           6.00         6.54
  175.64        2977.50           1598           4.00         2.00
  175.67        2977.75           1601           8.00        15.26
  175.70        2978.00           1605           8.00        15.26
  175.72        2978.25           1608           8.00        15.26
  175.75        2978.50           1611           8.00        15.26
  175.78        2978.75           1615           3.00         2.00
  175.81        2979.00           1618           1.00         2.00
  175.83        2979.25           1621           5.00         2.18
  175.86        2979.50           1625           6.00         6.54
  175.89        2979.75           1628           7.00        10.90
  175.91        2980.00           1631           6.00         6.54
  175.94        2980.25           1635           0.00         2.00
  175.97        2980.50           1638           2.00         2.00
  176.00        2980.75           1641           7.00        10.90
  176.02        2981.00           1645           2.00         2.00
  176.05        2981.25           1648           7.00        10.90
  176.08        2981.50           1651           8.00        15.26
  176.10        2981.75           1655           4.00         2.00
  176.13        2982.00           1658           7.00        10.90
  176.16        2982.25           1661           7.00        10.90
  176.19        2982.50           1665           7.00        10.90
  176.21        2982.75           1668           3.00         2.00
  176.24        2983.00           1671           3.00         2.00
  176.27        2983.25           1675           4.00         2.00
  176.29        2983.50           1678           2.00         2.00
  176.32        2983.75           1681           8.00        15.26
  176.35        2984.00           1685           0.00         2.00
HS scan finished at 02:56:32
end
