************************************************************
  HS Scan of (1) Internal mercury lamp
************************************************************
Integration time is 0.2294 seconds per sample
dh200417Tamanrasset 22.79-5.529 2.863663pr865
************************************************************
Dead Time -------------------------  2.8E-08 
Number of Cycles Used -------------  4 
Starting Wavelength (Angstroms) ---  2950 
Final Wavelength (Angstoms) -------  2984 
Wavelength Increment (Angstroms) --  .25 
Filter Wheel #1 Position ---------- (1) Ground quartz diffuser (ND=2.32)
Filter Wheel #2 Position ---------- (1) Neutral Density 0.494



************************************************************
HS scan start time = 02:57:17
Dark Count =  4.2 


Time (GMT)  Wavelength (Ang)  Step Number  Raw Counts  Counts/Second

  177.64        2950.00           1233           8.00        16.56
  177.71        2950.25           1236           0.00         2.00
  177.73        2950.50           1239           8.00        16.56
  177.76        2950.75           1242           6.00         7.85
  177.79        2951.00           1246           8.00        16.56
  177.81        2951.25           1249           6.00         7.85
  177.84        2951.50           1252           8.00        16.56
  177.87        2951.75           1256           8.00        16.56
  177.90        2952.00           1259           1.00         2.00
  177.92        2952.25           1262           8.00        16.56
  177.95        2952.50           1266           7.00        12.21
  177.98        2952.75           1269           7.00        12.21
  178.00        2953.00           1272           7.00        12.21
  178.03        2953.25           1276           0.00         2.00
  178.06        2953.50           1279           3.00         2.00
  178.09        2953.75           1282           4.00         2.00
  178.11        2954.00           1286           1.00         2.00
  178.14        2954.25           1289           4.00         2.00
  178.17        2954.50           1292           1.00         2.00
  178.20        2954.75           1295           8.00        16.56
  178.22        2955.00           1299           6.00         7.85
  178.25        2955.25           1302           8.00        16.56
  178.28        2955.50           1305           5.00         3.49
  178.30        2955.75           1309           1.00         2.00
  178.33        2956.00           1312           4.00         2.00
  178.36        2956.25           1315           8.00        16.56
  178.39        2956.50           1319           2.00         2.00
  178.41        2956.75           1322           8.00        16.56
  178.44        2957.00           1325           0.00         2.00
  178.47        2957.25           1329           8.00        16.56
  178.49        2957.50           1332           5.00         3.49
  178.52        2957.75           1335           7.00        12.21
  178.55        2958.00           1339           2.00         2.00
  178.58        2958.25           1342           8.00        16.56
  178.60        2958.50           1345           8.00        16.56
  178.63        2958.75           1348           5.00         3.49
  178.66        2959.00           1352           0.00         2.00
  178.69        2959.25           1355           3.00         2.00
  178.71        2959.50           1358           8.00        16.56
  178.74        2959.75           1362           6.00         7.85
  178.77        2960.00           1365           4.00         2.00
  178.79        2960.25           1368           8.00        16.56
  178.82        2960.50           1372           8.00        16.56
  178.85        2960.75           1375           0.00         2.00
  178.88        2961.00           1378           8.00        16.56
  178.90        2961.25           1382           8.00        16.56
  178.93        2961.50           1385           8.00        16.56
  178.96        2961.75           1388           3.00         2.00
  178.99        2962.00           1392           0.00         2.00
  179.01        2962.25           1395           1.00         2.00
  179.04        2962.50           1398           8.00        16.56
  179.07        2962.75           1402           0.00         2.00
  179.09        2963.00           1405           8.00        16.56
  179.12        2963.25           1408           8.00        16.56
  179.15        2963.50           1412           7.00        12.21
  179.18        2963.75           1415           4.00         2.00
  179.20        2964.00           1418           3.00         2.00
  179.23        2964.25           1422           6.00         7.85
  179.26        2964.50           1425           5.00         3.49
  179.29        2964.75           1428           6.00         7.85
  179.31        2965.00           1431           0.00         2.00
  179.34        2965.25           1435           8.00        16.56
  179.37        2965.50           1438           8.00        16.56
  179.39        2965.75           1441           8.00        16.56
  179.42        2966.00           1445           0.00         2.00
  179.45        2966.25           1448           6.00         7.85
  179.48        2966.50           1451           1.00         2.00
  179.50        2966.75           1455           4.00         2.00
  179.53        2967.00           1458           7.00        12.21
  179.56        2967.25           1461           9.00        20.92
  179.58        2967.50           1465           7.00        12.21
  179.61        2967.75           1468           2.00         2.00
  179.64        2968.00           1471           0.00         2.00
  179.67        2968.25           1475           3.00         2.00
  179.69        2968.50           1478           2.00         2.00
  179.72        2968.75           1481           5.00         3.49
  179.75        2969.00           1485           8.00        16.56
  179.78        2969.25           1488           4.00         2.00
  179.80        2969.50           1491           3.00         2.00
  179.83        2969.75           1495           2.00         2.00
  179.86        2970.00           1498           3.00         2.00
  179.89        2970.25           1501           1.00         2.00
  179.91        2970.50           1505           7.00        12.21
  179.94        2970.75           1508           0.00         2.00
  179.97        2971.00           1511           1.00         2.00
  179.99        2971.25           1515           0.00         2.00
  180.02        2971.50           1518           0.00         2.00
  180.05        2971.75           1521           8.00        16.56
  180.08        2972.00           1525           5.00         3.49
  180.10        2972.25           1528           7.00        12.21
  180.13        2972.50           1531           8.00        16.56
  180.16        2972.75           1535           2.00         2.00
  180.19        2973.00           1538           0.00         2.00
  180.21        2973.25           1541           3.00         2.00
  180.24        2973.50           1545           0.00         2.00
  180.27        2973.75           1548           6.00         7.85
  180.29        2974.00           1551           7.00        12.21
  180.32        2974.25           1555           3.00         2.00
  180.35        2974.50           1558           4.00         2.00
  180.38        2974.75           1561           6.00         7.85
  180.40        2975.00           1565           6.00         7.85
  180.43        2975.25           1568           7.00        12.21
  180.46        2975.50           1571           4.00         2.00
  180.49        2975.75           1575           6.00         7.85
  180.51        2976.00           1578           1.00         2.00
  180.54        2976.25           1581           8.00        16.56
  180.57        2976.50           1585           2.00         2.00
  180.59        2976.75           1588           6.00         7.85
  180.62        2977.00           1591           0.00         2.00
  180.65        2977.25           1595           0.00         2.00
  180.68        2977.50           1598           0.00         2.00
  180.70        2977.75           1601           5.00         3.49
  180.73        2978.00           1605           8.00        16.56
  180.76        2978.25           1608           0.00         2.00
  180.78        2978.50           1611           0.00         2.00
  180.81        2978.75           1615           2.00         2.00
  180.84        2979.00           1618           1.00         2.00
  180.87        2979.25           1621           8.00        16.56
  180.89        2979.50           1625           3.00         2.00
  180.92        2979.75           1628           6.00         7.85
  180.95        2980.00           1631           3.00         2.00
  180.97        2980.25           1635           8.00        16.56
  181.00        2980.50           1638           8.00        16.56
  181.03        2980.75           1641           0.00         2.00
  181.06        2981.00           1645           8.00        16.56
  181.08        2981.25           1648           8.00        16.56
  181.11        2981.50           1651           0.00         2.00
  181.14        2981.75           1655           6.00         7.85
  181.17        2982.00           1658           8.00        16.56
  181.19        2982.25           1661           8.00        16.56
  181.22        2982.50           1665           0.00         2.00
  181.25        2982.75           1668           3.00         2.00
  181.28        2983.00           1671           7.00        12.21
  181.30        2983.25           1675           7.00        12.21
  181.33        2983.50           1678           5.00         3.49
  181.36        2983.75           1681           7.00        12.21
  181.38        2984.00           1685           4.00         2.00
HS scan finished at 03:01:34
end
