************************************************************
  HS Scan of (1) Internal mercury lamp
************************************************************
Integration time is 0.2294 seconds per sample
dh220419Tamanrasset 22.79-5.529 4.974364pr865
************************************************************
Dead Time -------------------------  2.8E-08 
Number of Cycles Used -------------  4 
Starting Wavelength (Angstroms) ---  2950 
Final Wavelength (Angstoms) -------  2984 
Wavelength Increment (Angstroms) --  .25 
Filter Wheel #1 Position ---------- (1) Ground quartz diffuser (ND=2.32)
Filter Wheel #2 Position ---------- (1) Neutral Density 0.494



************************************************************
HS scan start time = 03:24:24
Dark Count =  4.7 


Time (GMT)  Wavelength (Ang)  Step Number  Raw Counts  Counts/Second

  204.76        2950.00           1233          17.00        53.62
  204.82        2950.25           1236          20.00        66.70
  204.85        2950.50           1239          16.00        49.26
  204.87        2950.75           1242          21.00        71.06
  204.90        2951.00           1246          18.00        57.98
  204.93        2951.25           1249          23.00        79.77
  204.96        2951.50           1252          21.00        71.06
  204.98        2951.75           1256          17.00        53.62
  205.01        2952.00           1259          18.00        57.98
  205.04        2952.25           1262          19.00        62.34
  205.07        2952.50           1266          13.00        36.18
  205.09        2952.75           1269          22.00        75.41
  205.12        2953.00           1272          18.00        57.98
  205.15        2953.25           1276          20.00        66.70
  205.17        2953.50           1279          19.00        62.34
  205.20        2953.75           1282          20.00        66.70
  205.23        2954.00           1286          20.00        66.70
  205.26        2954.25           1289          19.00        62.34
  205.28        2954.50           1292          18.00        57.98
  205.31        2954.75           1295          18.00        57.98
  205.34        2955.00           1299          15.00        44.90
  205.37        2955.25           1302          23.00        79.77
  205.39        2955.50           1305          20.00        66.70
  205.42        2955.75           1309          22.00        75.41
  205.45        2956.00           1312          17.00        53.62
  205.47        2956.25           1315          19.00        62.34
  205.50        2956.50           1319          21.00        71.06
  205.53        2956.75           1322          20.00        66.70
  205.56        2957.00           1325          20.00        66.70
  205.58        2957.25           1329          20.00        66.70
  205.61        2957.50           1332          18.00        57.98
  205.64        2957.75           1335          19.00        62.34
  205.67        2958.00           1339          23.00        79.77
  205.69        2958.25           1342          18.00        57.98
  205.72        2958.50           1345          17.00        53.62
  205.75        2958.75           1348          21.00        71.06
  205.78        2959.00           1352          20.00        66.70
  205.80        2959.25           1355          20.00        66.70
  205.83        2959.50           1358          21.00        71.06
  205.86        2959.75           1362          23.00        79.77
  205.88        2960.00           1365          23.00        79.77
  205.91        2960.25           1368          28.00       101.57
  205.94        2960.50           1372          31.00       114.65
  205.97        2960.75           1375          37.00       140.80
  205.99        2961.00           1378         110.00       459.03
  206.02        2961.25           1382         529.00      2285.67
  206.05        2961.50           1385        1294.00      5621.20
  206.08        2961.75           1388        2600.00     11317.01
  206.10        2962.00           1392        5190.00     22618.07
  206.13        2962.25           1395        7581.00     33057.17
  206.16        2962.50           1398       10190.00     44455.04
  206.19        2962.75           1402       13210.00     57657.53
  206.21        2963.00           1405       16124.00     70405.88
  206.24        2963.25           1408       18688.00     81630.57
  206.27        2963.50           1412       22056.00     96385.77
  206.30        2963.75           1415       24653.00    107771.60
  206.32        2964.00           1418       27158.00    118760.90
  206.35        2964.25           1422       30530.00    133564.40
  206.38        2964.50           1425       33093.00    144824.60
  206.40        2964.75           1428       35882.00    157085.70
  206.43        2965.00           1431       38313.00    167779.80
  206.46        2965.25           1435       42069.00    184315.40
  206.49        2965.50           1438       44805.00    196370.10
  206.51        2965.75           1441       47458.00    208067.00
  206.54        2966.00           1445       50876.00    223148.00
  206.57        2966.25           1448       53008.00    232561.30
  206.60        2966.50           1451       54674.00    239920.70
  206.62        2966.75           1455       56090.00    246178.00
  206.65        2967.00           1458       56619.00    248516.20
  206.68        2967.25           1461       57005.00    250222.60
  206.71        2967.50           1465       56311.00    247154.80
  206.73        2967.75           1468       55979.00    245687.40
  206.76        2968.00           1471       54605.00    239615.80
  206.79        2968.25           1475       52384.00    229805.70
  206.82        2968.50           1478       50331.00    220742.50
  206.84        2968.75           1481       47412.00    207864.10
  206.87        2969.00           1485       43755.00    191742.90
  206.90        2969.25           1488       40895.00    179145.30
  206.93        2969.50           1491       38124.00    166948.20
  206.95        2969.75           1495       34480.00    150921.10
  206.98        2970.00           1498       31907.00    139613.20
  207.01        2970.25           1501       28997.00    126832.80
  207.04        2970.50           1505       25296.00    110591.70
  207.06        2970.75           1508       22495.00     98309.91
  207.09        2971.00           1511       20016.00     87447.08
  207.12        2971.25           1515       16573.00     72371.02
  207.15        2971.50           1518       13860.00     60500.40
  207.17        2971.75           1521       11418.00     49822.29
  207.20        2972.00           1525        8072.00     35201.63
  207.23        2972.25           1528        5527.00     24089.04
  207.26        2972.50           1531        3492.00     15208.31
  207.28        2972.75           1535        1336.00      5804.34
  207.31        2973.00           1538         469.00      2024.09
  207.34        2973.25           1541         141.00       594.17
  207.37        2973.50           1545          40.00       153.88
  207.39        2973.75           1548          32.00       119.01
  207.42        2974.00           1551          35.00       132.08
  207.45        2974.25           1555          25.00        88.49
  207.47        2974.50           1558          28.00       101.57
  207.50        2974.75           1561          28.00       101.57
  207.53        2975.00           1565          24.00        84.13
  207.56        2975.25           1568          18.00        57.98
  207.58        2975.50           1571          20.00        66.70
  207.61        2975.75           1575          25.00        88.49
  207.64        2976.00           1578          20.00        66.70
  207.67        2976.25           1581          21.00        71.06
  207.69        2976.50           1585          21.00        71.06
  207.72        2976.75           1588          21.00        71.06
  207.75        2977.00           1591          22.00        75.41
  207.77        2977.25           1595          27.00        97.21
  207.80        2977.50           1598          21.00        71.06
  207.83        2977.75           1601          19.00        62.34
  207.86        2978.00           1605          16.00        49.26
  207.88        2978.25           1608          23.00        79.77
  207.91        2978.50           1611          24.00        84.13
  207.94        2978.75           1615          21.00        71.06
  207.97        2979.00           1618          24.00        84.13
  207.99        2979.25           1621          20.00        66.70
  208.02        2979.50           1625          19.00        62.34
  208.05        2979.75           1628          24.00        84.13
  208.07        2980.00           1631          19.00        62.34
  208.10        2980.25           1635          21.00        71.06
  208.13        2980.50           1638          18.00        57.98
  208.16        2980.75           1641          21.00        71.06
  208.18        2981.00           1645          20.00        66.70
  208.21        2981.25           1648          23.00        79.77
  208.24        2981.50           1651          19.00        62.34
  208.27        2981.75           1655          30.00       110.29
  208.29        2982.00           1658          18.00        57.98
  208.32        2982.25           1661          20.00        66.70
  208.35        2982.50           1665          18.00        57.98
  208.37        2982.75           1668          16.00        49.26
  208.40        2983.00           1671          19.00        62.34
  208.43        2983.25           1675          16.00        49.26
  208.46        2983.50           1678          16.00        49.26
  208.48        2983.75           1681          16.00        49.26
  208.51        2984.00           1685          19.00        62.34
HS scan finished at 03:28:42
end
