************************************************************
  HS Scan of (1) Internal mercury lamp
************************************************************
Integration time is 0.2294 seconds per sample
dh250417Tamanrasset 22.79-5.529 3.011514pr865
************************************************************
Dead Time -------------------------  2.8E-08 
Number of Cycles Used -------------  4 
Starting Wavelength (Angstroms) ---  2950 
Final Wavelength (Angstoms) -------  2984 
Wavelength Increment (Angstroms) --  .25 
Filter Wheel #1 Position ---------- (1) Ground quartz diffuser (ND=2.32)
Filter Wheel #2 Position ---------- (1) Neutral Density 0.494



************************************************************
HS scan start time = 02:53:17
Dark Count =  4.6 


Time (GMT)  Wavelength (Ang)  Step Number  Raw Counts  Counts/Second

  173.64        2950.00           1233           7.00        10.46
  173.71        2950.25           1236           2.00         2.00
  173.73        2950.50           1239           3.00         2.00
  173.76        2950.75           1242           5.00         2.00
  173.79        2951.00           1246           7.00        10.46
  173.81        2951.25           1249           5.00         2.00
  173.84        2951.50           1252           6.00         6.10
  173.87        2951.75           1256           5.00         2.00
  173.90        2952.00           1259           0.00         2.00
  173.92        2952.25           1262           7.00        10.46
  173.95        2952.50           1266           3.00         2.00
  173.98        2952.75           1269           0.00         2.00
  174.00        2953.00           1272           6.00         6.10
  174.03        2953.25           1276           7.00        10.46
  174.06        2953.50           1279           7.00        10.46
  174.08        2953.75           1282           5.00         2.00
  174.11        2954.00           1286           0.00         2.00
  174.14        2954.25           1289           1.00         2.00
  174.17        2954.50           1292           0.00         2.00
  174.19        2954.75           1295           1.00         2.00
  174.22        2955.00           1299           4.00         2.00
  174.25        2955.25           1302           6.00         6.10
  174.27        2955.50           1305           8.00        14.82
  174.30        2955.75           1309           8.00        14.82
  174.33        2956.00           1312           4.00         2.00
  174.36        2956.25           1315           8.00        14.82
  174.38        2956.50           1319           4.00         2.00
  174.41        2956.75           1322           4.00         2.00
  174.44        2957.00           1325           4.00         2.00
  174.46        2957.25           1329           8.00        14.82
  174.49        2957.50           1332           5.00         2.00
  174.52        2957.75           1335           5.00         2.00
  174.55        2958.00           1339           3.00         2.00
  174.57        2958.25           1342           6.00         6.10
  174.60        2958.50           1345           4.00         2.00
  174.63        2958.75           1348           5.00         2.00
  174.65        2959.00           1352           3.00         2.00
  174.68        2959.25           1355           5.00         2.00
  174.71        2959.50           1358           4.00         2.00
  174.74        2959.75           1362           8.00        14.82
  174.76        2960.00           1365           2.00         2.00
  174.79        2960.25           1368           7.00        10.46
  174.82        2960.50           1372           8.00        14.82
  174.84        2960.75           1375           8.00        14.82
  174.87        2961.00           1378           1.00         2.00
  174.90        2961.25           1382           8.00        14.82
  174.93        2961.50           1385           0.00         2.00
  174.95        2961.75           1388           7.00        10.46
  174.98        2962.00           1392           1.00         2.00
  175.01        2962.25           1395           4.00         2.00
  175.03        2962.50           1398           6.00         6.10
  175.06        2962.75           1402           8.00        14.82
  175.09        2963.00           1405           5.00         2.00
  175.11        2963.25           1408           0.00         2.00
  175.14        2963.50           1412           4.00         2.00
  175.17        2963.75           1415           6.00         6.10
  175.20        2964.00           1418           4.00         2.00
  175.22        2964.25           1422           3.00         2.00
  175.25        2964.50           1425           5.00         2.00
  175.28        2964.75           1428           4.00         2.00
  175.30        2965.00           1431           7.00        10.46
  175.33        2965.25           1435           5.00         2.00
  175.36        2965.50           1438           4.00         2.00
  175.39        2965.75           1441           5.00         2.00
  175.41        2966.00           1445           5.00         2.00
  175.44        2966.25           1448           6.00         6.10
  175.47        2966.50           1451           8.00        14.82
  175.50        2966.75           1455           7.00        10.46
  175.52        2967.00           1458           3.00         2.00
  175.55        2967.25           1461           4.00         2.00
  175.58        2967.50           1465           0.00         2.00
  175.60        2967.75           1468           7.00        10.46
  175.63        2968.00           1471           0.00         2.00
  175.66        2968.25           1475           4.00         2.00
  175.68        2968.50           1478           6.00         6.10
  175.71        2968.75           1481           0.00         2.00
  175.74        2969.00           1485           8.00        14.82
  175.77        2969.25           1488           7.00        10.46
  175.79        2969.50           1491           3.00         2.00
  175.82        2969.75           1495           4.00         2.00
  175.85        2970.00           1498           4.00         2.00
  175.87        2970.25           1501           8.00        14.82
  175.90        2970.50           1505           0.00         2.00
  175.93        2970.75           1508           8.00        14.82
  175.96        2971.00           1511           6.00         6.10
  175.98        2971.25           1515           0.00         2.00
  176.01        2971.50           1518           4.00         2.00
  176.04        2971.75           1521           7.00        10.46
  176.07        2972.00           1525           6.00         6.10
  176.09        2972.25           1528           5.00         2.00
  176.12        2972.50           1531           4.00         2.00
  176.15        2972.75           1535           0.00         2.00
  176.17        2973.00           1538           1.00         2.00
  176.20        2973.25           1541           4.00         2.00
  176.23        2973.50           1545           5.00         2.00
  176.25        2973.75           1548           1.00         2.00
  176.28        2974.00           1551           3.00         2.00
  176.31        2974.25           1555           8.00        14.82
  176.34        2974.50           1558           3.00         2.00
  176.36        2974.75           1561           5.00         2.00
  176.39        2975.00           1565           3.00         2.00
  176.42        2975.25           1568           8.00        14.82
  176.44        2975.50           1571           3.00         2.00
  176.47        2975.75           1575           5.00         2.00
  176.50        2976.00           1578           8.00        14.82
  176.53        2976.25           1581           5.00         2.00
  176.55        2976.50           1585           6.00         6.10
  176.58        2976.75           1588           5.00         2.00
  176.61        2977.00           1591           2.00         2.00
  176.63        2977.25           1595           7.00        10.46
  176.66        2977.50           1598           8.00        14.82
  176.69        2977.75           1601           8.00        14.82
  176.72        2978.00           1605           8.00        14.82
  176.74        2978.25           1608           1.00         2.00
  176.77        2978.50           1611           7.00        10.46
  176.80        2978.75           1615           5.00         2.00
  176.82        2979.00           1618           8.00        14.82
  176.85        2979.25           1621           5.00         2.00
  176.88        2979.50           1625           5.00         2.00
  176.91        2979.75           1628           7.00        10.46
  176.93        2980.00           1631           6.00         6.10
  176.96        2980.25           1635           4.00         2.00
  176.99        2980.50           1638           4.00         2.00
  177.01        2980.75           1641           5.00         2.00
  177.04        2981.00           1645           4.00         2.00
  177.07        2981.25           1648           8.00        14.82
  177.09        2981.50           1651           5.00         2.00
  177.12        2981.75           1655           7.00        10.46
  177.15        2982.00           1658           4.00         2.00
  177.18        2982.25           1661           5.00         2.00
  177.20        2982.50           1665           6.00         6.10
  177.23        2982.75           1668           2.00         2.00
  177.26        2983.00           1671           5.00         2.00
  177.29        2983.25           1675           3.00         2.00
  177.31        2983.50           1678           1.00         2.00
  177.34        2983.75           1681           8.00        14.82
  177.37        2984.00           1685           0.00         2.00
HS scan finished at 02:57:33
end
