************************************************************
  HS Scan of (1) Internal mercury lamp
************************************************************
Integration time is 0.2294 seconds per sample
dh230417Tamanrasset 22.79-5.529 3.026809pr865
************************************************************
Dead Time -------------------------  2.8E-08 
Number of Cycles Used -------------  4 
Starting Wavelength (Angstroms) ---  2950 
Final Wavelength (Angstoms) -------  2984 
Wavelength Increment (Angstroms) --  .25 
Filter Wheel #1 Position ---------- (1) Ground quartz diffuser (ND=2.32)
Filter Wheel #2 Position ---------- (1) Neutral Density 0.494



************************************************************
HS scan start time = 02:54:19
Dark Count =  4.2 


Time (GMT)  Wavelength (Ang)  Step Number  Raw Counts  Counts/Second

  174.68        2950.00           1233           5.00         3.49
  174.74        2950.25           1236           7.00        12.21
  174.77        2950.50           1239           6.00         7.85
  174.80        2950.75           1242           5.00         3.49
  174.82        2951.00           1246           4.00         2.00
  174.85        2951.25           1249           6.00         7.85
  174.88        2951.50           1252           6.00         7.85
  174.91        2951.75           1256           8.00        16.56
  174.93        2952.00           1259           3.00         2.00
  174.96        2952.25           1262           6.00         7.85
  174.99        2952.50           1266           0.00         2.00
  175.01        2952.75           1269           6.00         7.85
  175.04        2953.00           1272           3.00         2.00
  175.07        2953.25           1276           3.00         2.00
  175.10        2953.50           1279           7.00        12.21
  175.12        2953.75           1282           2.00         2.00
  175.15        2954.00           1286           2.00         2.00
  175.18        2954.25           1289           7.00        12.21
  175.20        2954.50           1292           3.00         2.00
  175.23        2954.75           1295           6.00         7.85
  175.26        2955.00           1299           3.00         2.00
  175.28        2955.25           1302           7.00        12.21
  175.31        2955.50           1305           8.00        16.56
  175.34        2955.75           1309           6.00         7.85
  175.37        2956.00           1312           7.00        12.21
  175.39        2956.25           1315           5.00         3.49
  175.42        2956.50           1319           3.00         2.00
  175.45        2956.75           1322           2.00         2.00
  175.47        2957.00           1325           3.00         2.00
  175.50        2957.25           1329           3.00         2.00
  175.53        2957.50           1332           5.00         3.49
  175.56        2957.75           1335           0.00         2.00
  175.58        2958.00           1339           8.00        16.56
  175.61        2958.25           1342           8.00        16.56
  175.64        2958.50           1345           4.00         2.00
  175.66        2958.75           1348           3.00         2.00
  175.69        2959.00           1352           7.00        12.21
  175.72        2959.25           1355           4.00         2.00
  175.75        2959.50           1358           4.00         2.00
  175.77        2959.75           1362           5.00         3.49
  175.80        2960.00           1365           4.00         2.00
  175.83        2960.25           1368           7.00        12.21
  175.85        2960.50           1372           2.00         2.00
  175.88        2960.75           1375           4.00         2.00
  175.91        2961.00           1378           6.00         7.85
  175.94        2961.25           1382           6.00         7.85
  175.96        2961.50           1385           6.00         7.85
  175.99        2961.75           1388           3.00         2.00
  176.02        2962.00           1392           7.00        12.21
  176.04        2962.25           1395           4.00         2.00
  176.07        2962.50           1398           0.00         2.00
  176.10        2962.75           1402           3.00         2.00
  176.13        2963.00           1405           3.00         2.00
  176.15        2963.25           1408           6.00         7.85
  176.18        2963.50           1412           8.00        16.56
  176.21        2963.75           1415           0.00         2.00
  176.23        2964.00           1418           6.00         7.85
  176.26        2964.25           1422           5.00         3.49
  176.29        2964.50           1425           6.00         7.85
  176.32        2964.75           1428           5.00         3.49
  176.34        2965.00           1431           8.00        16.56
  176.37        2965.25           1435           8.00        16.56
  176.40        2965.50           1438           5.00         3.49
  176.42        2965.75           1441           4.00         2.00
  176.45        2966.00           1445           7.00        12.21
  176.48        2966.25           1448           3.00         2.00
  176.51        2966.50           1451           3.00         2.00
  176.53        2966.75           1455           6.00         7.85
  176.56        2967.00           1458           7.00        12.21
  176.59        2967.25           1461           6.00         7.85
  176.61        2967.50           1465           2.00         2.00
  176.64        2967.75           1468           3.00         2.00
  176.67        2968.00           1471           5.00         3.49
  176.70        2968.25           1475           8.00        16.56
  176.72        2968.50           1478           5.00         3.49
  176.75        2968.75           1481           1.00         2.00
  176.78        2969.00           1485           6.00         7.85
  176.80        2969.25           1488           0.00         2.00
  176.83        2969.50           1491           1.00         2.00
  176.86        2969.75           1495           2.00         2.00
  176.88        2970.00           1498           3.00         2.00
  176.91        2970.25           1501           0.00         2.00
  176.94        2970.50           1505           7.00        12.21
  176.97        2970.75           1508           3.00         2.00
  176.99        2971.00           1511           4.00         2.00
  177.02        2971.25           1515           8.00        16.56
  177.05        2971.50           1518           3.00         2.00
  177.07        2971.75           1521           8.00        16.56
  177.10        2972.00           1525           5.00         3.49
  177.13        2972.25           1528           4.00         2.00
  177.16        2972.50           1531           8.00        16.56
  177.18        2972.75           1535           6.00         7.85
  177.21        2973.00           1538           0.00         2.00
  177.24        2973.25           1541           6.00         7.85
  177.26        2973.50           1545           0.00         2.00
  177.29        2973.75           1548           1.00         2.00
  177.32        2974.00           1551           1.00         2.00
  177.35        2974.25           1555           8.00        16.56
  177.37        2974.50           1558           4.00         2.00
  177.40        2974.75           1561           6.00         7.85
  177.43        2975.00           1565           6.00         7.85
  177.45        2975.25           1568           8.00        16.56
  177.48        2975.50           1571           6.00         7.85
  177.51        2975.75           1575           4.00         2.00
  177.54        2976.00           1578           4.00         2.00
  177.56        2976.25           1581           1.00         2.00
  177.59        2976.50           1585           3.00         2.00
  177.62        2976.75           1588           1.00         2.00
  177.64        2977.00           1591           5.00         3.49
  177.67        2977.25           1595           8.00        16.56
  177.70        2977.50           1598           3.00         2.00
  177.73        2977.75           1601           6.00         7.85
  177.75        2978.00           1605           0.00         2.00
  177.78        2978.25           1608           0.00         2.00
  177.81        2978.50           1611           3.00         2.00
  177.83        2978.75           1615           3.00         2.00
  177.86        2979.00           1618           8.00        16.56
  177.89        2979.25           1621           5.00         3.49
  177.92        2979.50           1625           8.00        16.56
  177.94        2979.75           1628           5.00         3.49
  177.97        2980.00           1631           6.00         7.85
  178.00        2980.25           1635           8.00        16.56
  178.02        2980.50           1638           9.00        20.92
  178.05        2980.75           1641           9.00        20.92
  178.08        2981.00           1645           1.00         2.00
  178.10        2981.25           1648           4.00         2.00
  178.13        2981.50           1651           6.00         7.85
  178.16        2981.75           1655           4.00         2.00
  178.19        2982.00           1658           3.00         2.00
  178.21        2982.25           1661           8.00        16.56
  178.24        2982.50           1665           0.00         2.00
  178.27        2982.75           1668           6.00         7.85
  178.29        2983.00           1671           0.00         2.00
  178.32        2983.25           1675           3.00         2.00
  178.35        2983.50           1678           8.00        16.56
  178.38        2983.75           1681           3.00         2.00
  178.40        2984.00           1685           5.00         3.49
HS scan finished at 02:58:35
end
