************************************************************
  HS Scan of (1) Internal mercury lamp
************************************************************
Integration time is 0.2294 seconds per sample
dh240417Tamanrasset 22.79-5.529 3.20525pr865
************************************************************
Dead Time -------------------------  2.8E-08 
Number of Cycles Used -------------  4 
Starting Wavelength (Angstroms) ---  2950 
Final Wavelength (Angstoms) -------  2984 
Wavelength Increment (Angstroms) --  .25 
Filter Wheel #1 Position ---------- (1) Ground quartz diffuser (ND=2.32)
Filter Wheel #2 Position ---------- (1) Neutral Density 0.494



************************************************************
HS scan start time = 02:53:29
Dark Count =  4.5 


Time (GMT)  Wavelength (Ang)  Step Number  Raw Counts  Counts/Second

  173.84        2950.00           1233           4.00         2.00
  173.90        2950.25           1236           3.00         2.00
  173.93        2950.50           1239           4.00         2.00
  173.96        2950.75           1242           6.00         6.54
  173.98        2951.00           1246           7.00        10.90
  174.01        2951.25           1249           7.00        10.90
  174.04        2951.50           1252           4.00         2.00
  174.07        2951.75           1256           1.00         2.00
  174.09        2952.00           1259           8.00        15.26
  174.12        2952.25           1262           2.00         2.00
  174.15        2952.50           1266           7.00        10.90
  174.17        2952.75           1269           6.00         6.54
  174.20        2953.00           1272           4.00         2.00
  174.23        2953.25           1276           5.00         2.18
  174.25        2953.50           1279           5.00         2.18
  174.28        2953.75           1282           5.00         2.18
  174.31        2954.00           1286           7.00        10.90
  174.34        2954.25           1289           6.00         6.54
  174.36        2954.50           1292           3.00         2.00
  174.39        2954.75           1295           0.00         2.00
  174.42        2955.00           1299           5.00         2.18
  174.44        2955.25           1302           5.00         2.18
  174.47        2955.50           1305           4.00         2.00
  174.50        2955.75           1309           8.00        15.26
  174.53        2956.00           1312           5.00         2.18
  174.55        2956.25           1315           2.00         2.00
  174.58        2956.50           1319           4.00         2.00
  174.61        2956.75           1322           4.00         2.00
  174.63        2957.00           1325           7.00        10.90
  174.66        2957.25           1329           8.00        15.26
  174.69        2957.50           1332           2.00         2.00
  174.72        2957.75           1335           8.00        15.26
  174.74        2958.00           1339           4.00         2.00
  174.77        2958.25           1342           4.00         2.00
  174.80        2958.50           1345           4.00         2.00
  174.82        2958.75           1348           7.00        10.90
  174.85        2959.00           1352           6.00         6.54
  174.88        2959.25           1355           3.00         2.00
  174.91        2959.50           1358           3.00         2.00
  174.93        2959.75           1362           3.00         2.00
  174.96        2960.00           1365           3.00         2.00
  174.99        2960.25           1368           6.00         6.54
  175.01        2960.50           1372           2.00         2.00
  175.04        2960.75           1375           5.00         2.18
  175.07        2961.00           1378           5.00         2.18
  175.10        2961.25           1382           3.00         2.00
  175.12        2961.50           1385           3.00         2.00
  175.15        2961.75           1388           4.00         2.00
  175.18        2962.00           1392           8.00        15.26
  175.20        2962.25           1395           1.00         2.00
  175.23        2962.50           1398           8.00        15.26
  175.26        2962.75           1402           7.00        10.90
  175.29        2963.00           1405           8.00        15.26
  175.31        2963.25           1408           8.00        15.26
  175.34        2963.50           1412           8.00        15.26
  175.37        2963.75           1415           2.00         2.00
  175.39        2964.00           1418           6.00         6.54
  175.42        2964.25           1422           5.00         2.18
  175.45        2964.50           1425           6.00         6.54
  175.48        2964.75           1428           5.00         2.18
  175.50        2965.00           1431           7.00        10.90
  175.53        2965.25           1435           8.00        15.26
  175.56        2965.50           1438           8.00        15.26
  175.58        2965.75           1441           6.00         6.54
  175.61        2966.00           1445           7.00        10.90
  175.64        2966.25           1448           7.00        10.90
  175.66        2966.50           1451           3.00         2.00
  175.69        2966.75           1455           7.00        10.90
  175.72        2967.00           1458           7.00        10.90
  175.75        2967.25           1461           3.00         2.00
  175.77        2967.50           1465           5.00         2.18
  175.80        2967.75           1468           6.00         6.54
  175.83        2968.00           1471           3.00         2.00
  175.85        2968.25           1475           4.00         2.00
  175.88        2968.50           1478           5.00         2.18
  175.91        2968.75           1481           6.00         6.54
  175.94        2969.00           1485           4.00         2.00
  175.96        2969.25           1488           4.00         2.00
  175.99        2969.50           1491           6.00         6.54
  176.02        2969.75           1495           5.00         2.18
  176.05        2970.00           1498           4.00         2.00
  176.07        2970.25           1501           5.00         2.18
  176.10        2970.50           1505           7.00        10.90
  176.13        2970.75           1508           6.00         6.54
  176.15        2971.00           1511           5.00         2.18
  176.18        2971.25           1515           4.00         2.00
  176.21        2971.50           1518           6.00         6.54
  176.24        2971.75           1521           6.00         6.54
  176.26        2972.00           1525           6.00         6.54
  176.29        2972.25           1528           8.00        15.26
  176.32        2972.50           1531           4.00         2.00
  176.34        2972.75           1535           6.00         6.54
  176.37        2973.00           1538           7.00        10.90
  176.40        2973.25           1541           2.00         2.00
  176.43        2973.50           1545           6.00         6.54
  176.45        2973.75           1548           4.00         2.00
  176.48        2974.00           1551           7.00        10.90
  176.51        2974.25           1555           8.00        15.26
  176.54        2974.50           1558           8.00        15.26
  176.56        2974.75           1561           8.00        15.26
  176.59        2975.00           1565           5.00         2.18
  176.62        2975.25           1568           8.00        15.26
  176.64        2975.50           1571           4.00         2.00
  176.67        2975.75           1575           3.00         2.00
  176.70        2976.00           1578           4.00         2.00
  176.73        2976.25           1581           1.00         2.00
  176.75        2976.50           1585           6.00         6.54
  176.78        2976.75           1588           8.00        15.26
  176.81        2977.00           1591           4.00         2.00
  176.83        2977.25           1595           4.00         2.00
  176.86        2977.50           1598           5.00         2.18
  176.89        2977.75           1601           6.00         6.54
  176.91        2978.00           1605           2.00         2.00
  176.94        2978.25           1608           5.00         2.18
  176.97        2978.50           1611           7.00        10.90
  177.00        2978.75           1615           3.00         2.00
  177.02        2979.00           1618           9.00        19.62
  177.05        2979.25           1621           3.00         2.00
  177.08        2979.50           1625           6.00         6.54
  177.10        2979.75           1628           5.00         2.18
  177.13        2980.00           1631           5.00         2.18
  177.16        2980.25           1635           6.00         6.54
  177.19        2980.50           1638           3.00         2.00
  177.21        2980.75           1641           1.00         2.00
  177.24        2981.00           1645           3.00         2.00
  177.27        2981.25           1648           4.00         2.00
  177.29        2981.50           1651           6.00         6.54
  177.32        2981.75           1655           2.00         2.00
  177.35        2982.00           1658           5.00         2.18
  177.38        2982.25           1661           6.00         6.54
  177.40        2982.50           1665           6.00         6.54
  177.43        2982.75           1668           8.00        15.26
  177.46        2983.00           1671           7.00        10.90
  177.48        2983.25           1675           5.00         2.18
  177.51        2983.50           1678           4.00         2.00
  177.54        2983.75           1681           5.00         2.18
  177.57        2984.00           1685           8.00        15.26
HS scan finished at 02:57:45
end
