************************************************************
  HS Scan of (1) Internal mercury lamp
************************************************************
Integration time is 0.2294 seconds per sample
dh280417Tamanrasset 22.79-5.529 3.016612pr865
************************************************************
Dead Time -------------------------  2.8E-08 
Number of Cycles Used -------------  4 
Starting Wavelength (Angstroms) ---  2950 
Final Wavelength (Angstoms) -------  2984 
Wavelength Increment (Angstroms) --  .25 
Filter Wheel #1 Position ---------- (1) Ground quartz diffuser (ND=2.32)
Filter Wheel #2 Position ---------- (1) Neutral Density 0.494



************************************************************
HS scan start time = 02:50:30
Dark Count =  4.4 


Time (GMT)  Wavelength (Ang)  Step Number  Raw Counts  Counts/Second

  170.86        2950.00           1233           7.00        11.33
  170.92        2950.25           1236           5.00         2.62
  170.95        2950.50           1239           7.00        11.33
  170.98        2950.75           1242           7.00        11.33
  171.01        2951.00           1246           0.00         2.00
  171.03        2951.25           1249           8.00        15.69
  171.06        2951.50           1252           4.00         2.00
  171.09        2951.75           1256           0.00         2.00
  171.11        2952.00           1259           8.00        15.69
  171.14        2952.25           1262           1.00         2.00
  171.17        2952.50           1266           5.00         2.62
  171.20        2952.75           1269           8.00        15.69
  171.22        2953.00           1272           2.00         2.00
  171.25        2953.25           1276           8.00        15.69
  171.28        2953.50           1279           1.00         2.00
  171.30        2953.75           1282           3.00         2.00
  171.33        2954.00           1286           2.00         2.00
  171.36        2954.25           1289           3.00         2.00
  171.39        2954.50           1292           2.00         2.00
  171.41        2954.75           1295           8.00        15.69
  171.44        2955.00           1299           5.00         2.62
  171.47        2955.25           1302           8.00        15.69
  171.49        2955.50           1305           6.00         6.97
  171.52        2955.75           1309           0.00         2.00
  171.55        2956.00           1312           2.00         2.00
  171.58        2956.25           1315           7.00        11.33
  171.60        2956.50           1319           8.00        15.69
  171.63        2956.75           1322           4.00         2.00
  171.66        2957.00           1325           7.00        11.33
  171.68        2957.25           1329           8.00        15.69
  171.71        2957.50           1332           6.00         6.97
  171.74        2957.75           1335           8.00        15.69
  171.77        2958.00           1339           3.00         2.00
  171.79        2958.25           1342           7.00        11.33
  171.82        2958.50           1345           8.00        15.69
  171.85        2958.75           1348           1.00         2.00
  171.87        2959.00           1352           7.00        11.33
  171.90        2959.25           1355           1.00         2.00
  171.93        2959.50           1358           3.00         2.00
  171.96        2959.75           1362           0.00         2.00
  171.98        2960.00           1365           1.00         2.00
  172.01        2960.25           1368           7.00        11.33
  172.04        2960.50           1372           8.00        15.69
  172.06        2960.75           1375           3.00         2.00
  172.09        2961.00           1378           4.00         2.00
  172.12        2961.25           1382           5.00         2.62
  172.15        2961.50           1385           1.00         2.00
  172.17        2961.75           1388           6.00         6.97
  172.20        2962.00           1392           5.00         2.62
  172.23        2962.25           1395           5.00         2.62
  172.25        2962.50           1398           6.00         6.97
  172.28        2962.75           1402           3.00         2.00
  172.31        2963.00           1405           0.00         2.00
  172.33        2963.25           1408           2.00         2.00
  172.36        2963.50           1412           2.00         2.00
  172.39        2963.75           1415           4.00         2.00
  172.42        2964.00           1418           2.00         2.00
  172.44        2964.25           1422           3.00         2.00
  172.47        2964.50           1425           8.00        15.69
  172.50        2964.75           1428           3.00         2.00
  172.52        2965.00           1431           3.00         2.00
  172.55        2965.25           1435           1.00         2.00
  172.58        2965.50           1438           7.00        11.33
  172.61        2965.75           1441           1.00         2.00
  172.63        2966.00           1445           4.00         2.00
  172.66        2966.25           1448           8.00        15.69
  172.69        2966.50           1451           8.00        15.69
  172.71        2966.75           1455           5.00         2.62
  172.74        2967.00           1458           7.00        11.33
  172.77        2967.25           1461           5.00         2.62
  172.80        2967.50           1465           8.00        15.69
  172.82        2967.75           1468           7.00        11.33
  172.85        2968.00           1471           0.00         2.00
  172.88        2968.25           1475           6.00         6.97
  172.90        2968.50           1478           8.00        15.69
  172.93        2968.75           1481           8.00        15.69
  172.96        2969.00           1485           2.00         2.00
  172.99        2969.25           1488           3.00         2.00
  173.01        2969.50           1491           1.00         2.00
  173.04        2969.75           1495           6.00         6.97
  173.07        2970.00           1498           3.00         2.00
  173.09        2970.25           1501           9.00        20.05
  173.12        2970.50           1505           0.00         2.00
  173.15        2970.75           1508           4.00         2.00
  173.18        2971.00           1511           1.00         2.00
  173.20        2971.25           1515           8.00        15.69
  173.23        2971.50           1518           3.00         2.00
  173.26        2971.75           1521           1.00         2.00
  173.28        2972.00           1525           8.00        15.69
  173.31        2972.25           1528           5.00         2.62
  173.34        2972.50           1531           9.00        20.05
  173.36        2972.75           1535           4.00         2.00
  173.39        2973.00           1538           6.00         6.97
  173.42        2973.25           1541           6.00         6.97
  173.45        2973.50           1545           7.00        11.33
  173.47        2973.75           1548           8.00        15.69
  173.50        2974.00           1551           5.00         2.62
  173.53        2974.25           1555           7.00        11.33
  173.55        2974.50           1558           6.00         6.97
  173.58        2974.75           1561           8.00        15.69
  173.61        2975.00           1565           4.00         2.00
  173.64        2975.25           1568           0.00         2.00
  173.66        2975.50           1571           7.00        11.33
  173.69        2975.75           1575           8.00        15.69
  173.72        2976.00           1578           3.00         2.00
  173.74        2976.25           1581           5.00         2.62
  173.77        2976.50           1585           5.00         2.62
  173.80        2976.75           1588           4.00         2.00
  173.83        2977.00           1591           6.00         6.97
  173.85        2977.25           1595           3.00         2.00
  173.88        2977.50           1598           3.00         2.00
  173.91        2977.75           1601           6.00         6.97
  173.93        2978.00           1605           6.00         6.97
  173.96        2978.25           1608           7.00        11.33
  173.99        2978.50           1611           3.00         2.00
  174.02        2978.75           1615           7.00        11.33
  174.04        2979.00           1618           0.00         2.00
  174.07        2979.25           1621           7.00        11.33
  174.10        2979.50           1625           7.00        11.33
  174.12        2979.75           1628           3.00         2.00
  174.15        2980.00           1631           8.00        15.69
  174.18        2980.25           1635           2.00         2.00
  174.21        2980.50           1638           3.00         2.00
  174.23        2980.75           1641           2.00         2.00
  174.26        2981.00           1645           7.00        11.33
  174.29        2981.25           1648           2.00         2.00
  174.31        2981.50           1651           6.00         6.97
  174.34        2981.75           1655           5.00         2.62
  174.37        2982.00           1658           2.00         2.00
  174.39        2982.25           1661           6.00         6.97
  174.42        2982.50           1665           6.00         6.97
  174.45        2982.75           1668           6.00         6.97
  174.48        2983.00           1671           6.00         6.97
  174.50        2983.25           1675           6.00         6.97
  174.53        2983.50           1678           8.00        15.69
  174.56        2983.75           1681           5.00         2.62
  174.58        2984.00           1685           5.00         2.62
HS scan finished at 02:54:46
end
