************************************************************
  HS Scan of (1) Internal mercury lamp
************************************************************
Integration time is 0.2294 seconds per sample
dh010517Tamanrasset 22.79-5.529 3.378592pr865
************************************************************
Dead Time -------------------------  2.8E-08 
Number of Cycles Used -------------  4 
Starting Wavelength (Angstroms) ---  2950 
Final Wavelength (Angstoms) -------  2984 
Wavelength Increment (Angstroms) --  .25 
Filter Wheel #1 Position ---------- (1) Ground quartz diffuser (ND=2.32)
Filter Wheel #2 Position ---------- (1) Neutral Density 0.494



************************************************************
HS scan start time = 02:48:18
Dark Count =  7 


Time (GMT)  Wavelength (Ang)  Step Number  Raw Counts  Counts/Second

  168.66        2950.00           1233           8.00         4.36
  168.72        2950.25           1236           7.00         2.00
  168.75        2950.50           1239           8.00         4.36
  168.78        2950.75           1242           4.00         2.00
  168.81        2951.00           1246           7.00         2.00
  168.83        2951.25           1249           2.00         2.00
  168.86        2951.50           1252           5.00         2.00
  168.89        2951.75           1256           5.00         2.00
  168.92        2952.00           1259           4.00         2.00
  168.94        2952.25           1262           9.00         8.72
  168.97        2952.50           1266           5.00         2.00
  169.00        2952.75           1269           7.00         2.00
  169.02        2953.00           1272           7.00         2.00
  169.05        2953.25           1276           6.00         2.00
  169.08        2953.50           1279           7.00         2.00
  169.11        2953.75           1282           6.00         2.00
  169.13        2954.00           1286           4.00         2.00
  169.16        2954.25           1289           7.00         2.00
  169.19        2954.50           1292           7.00         2.00
  169.21        2954.75           1295           6.00         2.00
  169.24        2955.00           1299           5.00         2.00
  169.27        2955.25           1302           6.00         2.00
  169.29        2955.50           1305           7.00         2.00
  169.32        2955.75           1309           6.00         2.00
  169.35        2956.00           1312           8.00         4.36
  169.38        2956.25           1315           5.00         2.00
  169.40        2956.50           1319           4.00         2.00
  169.43        2956.75           1322           5.00         2.00
  169.46        2957.00           1325           7.00         2.00
  169.48        2957.25           1329           4.00         2.00
  169.51        2957.50           1332           6.00         2.00
  169.54        2957.75           1335           8.00         4.36
  169.57        2958.00           1339           7.00         2.00
  169.59        2958.25           1342           1.00         2.00
  169.62        2958.50           1345           3.00         2.00
  169.65        2958.75           1348           7.00         2.00
  169.67        2959.00           1352           7.00         2.00
  169.70        2959.25           1355           4.00         2.00
  169.73        2959.50           1358           5.00         2.00
  169.76        2959.75           1362           7.00         2.00
  169.78        2960.00           1365           6.00         2.00
  169.81        2960.25           1368           4.00         2.00
  169.84        2960.50           1372           6.00         2.00
  169.86        2960.75           1375           9.00         8.72
  169.89        2961.00           1378          10.00        13.08
  169.92        2961.25           1382           5.00         2.00
  169.95        2961.50           1385           8.00         4.36
  169.97        2961.75           1388           5.00         2.00
  170.00        2962.00           1392           8.00         4.36
  170.03        2962.25           1395           3.00         2.00
  170.06        2962.50           1398           6.00         2.00
  170.08        2962.75           1402           9.00         8.72
  170.11        2963.00           1405           6.00         2.00
  170.14        2963.25           1408           7.00         2.00
  170.16        2963.50           1412           6.00         2.00
  170.19        2963.75           1415           2.00         2.00
  170.22        2964.00           1418           6.00         2.00
  170.25        2964.25           1422           4.00         2.00
  170.27        2964.50           1425          10.00        13.08
  170.30        2964.75           1428           7.00         2.00
  170.33        2965.00           1431           3.00         2.00
  170.35        2965.25           1435           5.00         2.00
  170.38        2965.50           1438           6.00         2.00
  170.41        2965.75           1441           4.00         2.00
  170.44        2966.00           1445           4.00         2.00
  170.46        2966.25           1448           6.00         2.00
  170.49        2966.50           1451           5.00         2.00
  170.52        2966.75           1455           4.00         2.00
  170.54        2967.00           1458           6.00         2.00
  170.57        2967.25           1461           8.00         4.36
  170.60        2967.50           1465           4.00         2.00
  170.63        2967.75           1468           7.00         2.00
  170.65        2968.00           1471           9.00         8.72
  170.68        2968.25           1475           7.00         2.00
  170.71        2968.50           1478           5.00         2.00
  170.73        2968.75           1481           4.00         2.00
  170.76        2969.00           1485           8.00         4.36
  170.79        2969.25           1488           5.00         2.00
  170.82        2969.50           1491           5.00         2.00
  170.84        2969.75           1495           7.00         2.00
  170.87        2970.00           1498           3.00         2.00
  170.90        2970.25           1501           6.00         2.00
  170.92        2970.50           1505           9.00         8.72
  170.95        2970.75           1508           4.00         2.00
  170.98        2971.00           1511           7.00         2.00
  171.01        2971.25           1515           8.00         4.36
  171.03        2971.50           1518           4.00         2.00
  171.06        2971.75           1521           6.00         2.00
  171.09        2972.00           1525           1.00         2.00
  171.11        2972.25           1528           5.00         2.00
  171.14        2972.50           1531           5.00         2.00
  171.17        2972.75           1535           7.00         2.00
  171.20        2973.00           1538           5.00         2.00
  171.22        2973.25           1541           8.00         4.36
  171.25        2973.50           1545           4.00         2.00
  171.28        2973.75           1548           7.00         2.00
  171.30        2974.00           1551          10.00        13.08
  171.33        2974.25           1555           2.00         2.00
  171.36        2974.50           1558           9.00         8.72
  171.39        2974.75           1561           7.00         2.00
  171.41        2975.00           1565           5.00         2.00
  171.44        2975.25           1568           9.00         8.72
  171.47        2975.50           1571           3.00         2.00
  171.49        2975.75           1575           5.00         2.00
  171.52        2976.00           1578           4.00         2.00
  171.55        2976.25           1581           6.00         2.00
  171.58        2976.50           1585           6.00         2.00
  171.60        2976.75           1588           7.00         2.00
  171.63        2977.00           1591           7.00         2.00
  171.66        2977.25           1595           7.00         2.00
  171.69        2977.50           1598           7.00         2.00
  171.71        2977.75           1601           7.00         2.00
  171.74        2978.00           1605           6.00         2.00
  171.77        2978.25           1608           4.00         2.00
  171.79        2978.50           1611           7.00         2.00
  171.82        2978.75           1615           5.00         2.00
  171.85        2979.00           1618           6.00         2.00
  171.88        2979.25           1621           6.00         2.00
  171.90        2979.50           1625           7.00         2.00
  171.93        2979.75           1628           3.00         2.00
  171.96        2980.00           1631           7.00         2.00
  171.98        2980.25           1635           5.00         2.00
  172.01        2980.50           1638           8.00         4.36
  172.04        2980.75           1641           6.00         2.00
  172.06        2981.00           1645           9.00         8.72
  172.09        2981.25           1648           8.00         4.36
  172.12        2981.50           1651           6.00         2.00
  172.15        2981.75           1655           6.00         2.00
  172.17        2982.00           1658           6.00         2.00
  172.20        2982.25           1661           8.00         4.36
  172.23        2982.50           1665           7.00         2.00
  172.25        2982.75           1668           6.00         2.00
  172.28        2983.00           1671           3.00         2.00
  172.31        2983.25           1675           7.00         2.00
  172.34        2983.50           1678           5.00         2.00
  172.36        2983.75           1681           4.00         2.00
  172.39        2984.00           1685           6.00         2.00
HS scan finished at 02:52:35
end
