************************************************************
  HS Scan of (1) Internal mercury lamp
************************************************************
Integration time is 0.2294 seconds per sample
dh050517Tamanrasset 22.79-5.529 3.0523pr865
************************************************************
Dead Time -------------------------  2.8E-08 
Number of Cycles Used -------------  4 
Starting Wavelength (Angstroms) ---  2950 
Final Wavelength (Angstoms) -------  2984 
Wavelength Increment (Angstroms) --  .25 
Filter Wheel #1 Position ---------- (1) Ground quartz diffuser (ND=2.32)
Filter Wheel #2 Position ---------- (1) Neutral Density 0.494



************************************************************
HS scan start time = 02:45:20
Dark Count =  4.3 


Time (GMT)  Wavelength (Ang)  Step Number  Raw Counts  Counts/Second

  165.69        2950.00           1233           6.00         7.41
  165.75        2950.25           1236           8.00        16.13
  165.78        2950.50           1239           8.00        16.13
  165.81        2950.75           1242           7.00        11.77
  165.83        2951.00           1246           2.00         2.00
  165.86        2951.25           1249           8.00        16.13
  165.89        2951.50           1252           0.00         2.00
  165.91        2951.75           1256           6.00         7.41
  165.94        2952.00           1259           6.00         7.41
  165.97        2952.25           1262           2.00         2.00
  166.00        2952.50           1266           8.00        16.13
  166.02        2952.75           1269           4.00         2.00
  166.05        2953.00           1272           8.00        16.13
  166.08        2953.25           1276           3.00         2.00
  166.10        2953.50           1279           3.00         2.00
  166.13        2953.75           1282           8.00        16.13
  166.16        2954.00           1286           2.00         2.00
  166.19        2954.25           1289           6.00         7.41
  166.21        2954.50           1292           6.00         7.41
  166.24        2954.75           1295           7.00        11.77
  166.27        2955.00           1299           8.00        16.13
  166.29        2955.25           1302           4.00         2.00
  166.32        2955.50           1305           0.00         2.00
  166.35        2955.75           1309           3.00         2.00
  166.37        2956.00           1312           1.00         2.00
  166.40        2956.25           1315           4.00         2.00
  166.43        2956.50           1319           5.00         3.05
  166.46        2956.75           1322           5.00         3.05
  166.48        2957.00           1325           6.00         7.41
  166.51        2957.25           1329           6.00         7.41
  166.54        2957.50           1332           4.00         2.00
  166.56        2957.75           1335           1.00         2.00
  166.59        2958.00           1339           2.00         2.00
  166.62        2958.25           1342           8.00        16.13
  166.65        2958.50           1345           3.00         2.00
  166.67        2958.75           1348           7.00        11.77
  166.70        2959.00           1352           7.00        11.77
  166.73        2959.25           1355           6.00         7.41
  166.75        2959.50           1358           6.00         7.41
  166.78        2959.75           1362           1.00         2.00
  166.81        2960.00           1365           2.00         2.00
  166.84        2960.25           1368           8.00        16.13
  166.86        2960.50           1372           5.00         3.05
  166.89        2960.75           1375           8.00        16.13
  166.92        2961.00           1378           5.00         3.05
  166.95        2961.25           1382           4.00         2.00
  166.97        2961.50           1385           7.00        11.77
  167.00        2961.75           1388           8.00        16.13
  167.03        2962.00           1392           6.00         7.41
  167.05        2962.25           1395           4.00         2.00
  167.08        2962.50           1398           6.00         7.41
  167.11        2962.75           1402           1.00         2.00
  167.13        2963.00           1405           0.00         2.00
  167.16        2963.25           1408           2.00         2.00
  167.19        2963.50           1412           4.00         2.00
  167.22        2963.75           1415           2.00         2.00
  167.24        2964.00           1418           5.00         3.05
  167.27        2964.25           1422           1.00         2.00
  167.30        2964.50           1425           7.00        11.77
  167.32        2964.75           1428           5.00         3.05
  167.35        2965.00           1431           6.00         7.41
  167.38        2965.25           1435           8.00        16.13
  167.41        2965.50           1438           2.00         2.00
  167.43        2965.75           1441           8.00        16.13
  167.46        2966.00           1445           8.00        16.13
  167.49        2966.25           1448           7.00        11.77
  167.51        2966.50           1451           6.00         7.41
  167.54        2966.75           1455           1.00         2.00
  167.57        2967.00           1458           8.00        16.13
  167.60        2967.25           1461           3.00         2.00
  167.62        2967.50           1465           6.00         7.41
  167.65        2967.75           1468           0.00         2.00
  167.68        2968.00           1471           6.00         7.41
  167.71        2968.25           1475           5.00         3.05
  167.73        2968.50           1478           3.00         2.00
  167.76        2968.75           1481           6.00         7.41
  167.79        2969.00           1485           2.00         2.00
  167.81        2969.25           1488           8.00        16.13
  167.84        2969.50           1491           0.00         2.00
  167.87        2969.75           1495           5.00         3.05
  167.89        2970.00           1498           6.00         7.41
  167.92        2970.25           1501           5.00         3.05
  167.95        2970.50           1505           8.00        16.13
  167.98        2970.75           1508           5.00         3.05
  168.00        2971.00           1511           8.00        16.13
  168.03        2971.25           1515           6.00         7.41
  168.06        2971.50           1518           8.00        16.13
  168.08        2971.75           1521           8.00        16.13
  168.11        2972.00           1525           8.00        16.13
  168.14        2972.25           1528           3.00         2.00
  168.17        2972.50           1531           8.00        16.13
  168.19        2972.75           1535           1.00         2.00
  168.22        2973.00           1538           4.00         2.00
  168.25        2973.25           1541           0.00         2.00
  168.27        2973.50           1545           3.00         2.00
  168.30        2973.75           1548           4.00         2.00
  168.33        2974.00           1551           8.00        16.13
  168.36        2974.25           1555           3.00         2.00
  168.38        2974.50           1558           5.00         3.05
  168.41        2974.75           1561           0.00         2.00
  168.44        2975.00           1565           8.00        16.13
  168.46        2975.25           1568           4.00         2.00
  168.49        2975.50           1571           0.00         2.00
  168.52        2975.75           1575           3.00         2.00
  168.55        2976.00           1578           3.00         2.00
  168.57        2976.25           1581           4.00         2.00
  168.60        2976.50           1585           7.00        11.77
  168.63        2976.75           1588           5.00         3.05
  168.65        2977.00           1591           2.00         2.00
  168.68        2977.25           1595           3.00         2.00
  168.71        2977.50           1598           2.00         2.00
  168.74        2977.75           1601           7.00        11.77
  168.76        2978.00           1605           0.00         2.00
  168.79        2978.25           1608           8.00        16.13
  168.82        2978.50           1611           5.00         3.05
  168.84        2978.75           1615           3.00         2.00
  168.87        2979.00           1618           8.00        16.13
  168.90        2979.25           1621           5.00         3.05
  168.93        2979.50           1625           2.00         2.00
  168.95        2979.75           1628           0.00         2.00
  168.98        2980.00           1631           7.00        11.77
  169.01        2980.25           1635           2.00         2.00
  169.03        2980.50           1638           4.00         2.00
  169.06        2980.75           1641           5.00         3.05
  169.09        2981.00           1645           5.00         3.05
  169.12        2981.25           1648           3.00         2.00
  169.14        2981.50           1651           4.00         2.00
  169.17        2981.75           1655           4.00         2.00
  169.20        2982.00           1658           2.00         2.00
  169.22        2982.25           1661           8.00        16.13
  169.25        2982.50           1665           8.00        16.13
  169.28        2982.75           1668           0.00         2.00
  169.30        2983.00           1671           6.00         7.41
  169.33        2983.25           1675           6.00         7.41
  169.36        2983.50           1678           3.00         2.00
  169.39        2983.75           1681           3.00         2.00
  169.41        2984.00           1685           3.00         2.00
HS scan finished at 02:49:36
end
