************************************************************
  HS Scan of (1) Internal mercury lamp
************************************************************
Integration time is 0.2294 seconds per sample
dh080517Tamanrasset 22.79-5.529 3.200151pr865
************************************************************
Dead Time -------------------------  2.8E-08 
Number of Cycles Used -------------  4 
Starting Wavelength (Angstroms) ---  2950 
Final Wavelength (Angstoms) -------  2984 
Wavelength Increment (Angstroms) --  .25 
Filter Wheel #1 Position ---------- (1) Ground quartz diffuser (ND=2.32)
Filter Wheel #2 Position ---------- (1) Neutral Density 0.494



************************************************************
HS scan start time = 02:44:18
Dark Count =  4.6 


Time (GMT)  Wavelength (Ang)  Step Number  Raw Counts  Counts/Second

  164.65        2950.00           1233           5.00         2.00
  164.71        2950.25           1236           5.00         2.00
  164.74        2950.50           1239           7.00        10.46
  164.77        2950.75           1242           5.00         2.00
  164.80        2951.00           1246           4.00         2.00
  164.82        2951.25           1249           7.00        10.46
  164.85        2951.50           1252           2.00         2.00
  164.88        2951.75           1256           6.00         6.10
  164.90        2952.00           1259           8.00        14.82
  164.93        2952.25           1262           4.00         2.00
  164.96        2952.50           1266           5.00         2.00
  164.99        2952.75           1269           4.00         2.00
  165.01        2953.00           1272           3.00         2.00
  165.04        2953.25           1276           7.00        10.46
  165.07        2953.50           1279           3.00         2.00
  165.09        2953.75           1282           3.00         2.00
  165.12        2954.00           1286           6.00         6.10
  165.15        2954.25           1289           5.00         2.00
  165.18        2954.50           1292           9.00        19.18
  165.20        2954.75           1295           4.00         2.00
  165.23        2955.00           1299           9.00        19.18
  165.26        2955.25           1302           5.00         2.00
  165.28        2955.50           1305           3.00         2.00
  165.31        2955.75           1309           6.00         6.10
  165.34        2956.00           1312           6.00         6.10
  165.36        2956.25           1315           4.00         2.00
  165.39        2956.50           1319           5.00         2.00
  165.42        2956.75           1322           4.00         2.00
  165.45        2957.00           1325           9.00        19.18
  165.47        2957.25           1329           4.00         2.00
  165.50        2957.50           1332           2.00         2.00
  165.53        2957.75           1335           6.00         6.10
  165.55        2958.00           1339           7.00        10.46
  165.58        2958.25           1342           5.00         2.00
  165.61        2958.50           1345           6.00         6.10
  165.64        2958.75           1348           8.00        14.82
  165.66        2959.00           1352           5.00         2.00
  165.69        2959.25           1355           4.00         2.00
  165.72        2959.50           1358           6.00         6.10
  165.74        2959.75           1362           5.00         2.00
  165.77        2960.00           1365           2.00         2.00
  165.80        2960.25           1368           3.00         2.00
  165.83        2960.50           1372           4.00         2.00
  165.85        2960.75           1375           5.00         2.00
  165.88        2961.00           1378           7.00        10.46
  165.91        2961.25           1382           7.00        10.46
  165.93        2961.50           1385           8.00        14.82
  165.96        2961.75           1388           6.00         6.10
  165.99        2962.00           1392           5.00         2.00
  166.02        2962.25           1395           7.00        10.46
  166.04        2962.50           1398           4.00         2.00
  166.07        2962.75           1402           7.00        10.46
  166.10        2963.00           1405           2.00         2.00
  166.12        2963.25           1408           5.00         2.00
  166.15        2963.50           1412           5.00         2.00
  166.18        2963.75           1415           8.00        14.82
  166.20        2964.00           1418           5.00         2.00
  166.23        2964.25           1422           0.00         2.00
  166.26        2964.50           1425           3.00         2.00
  166.29        2964.75           1428           6.00         6.10
  166.31        2965.00           1431           6.00         6.10
  166.34        2965.25           1435           6.00         6.10
  166.37        2965.50           1438           5.00         2.00
  166.40        2965.75           1441           8.00        14.82
  166.42        2966.00           1445           4.00         2.00
  166.45        2966.25           1448           3.00         2.00
  166.48        2966.50           1451           5.00         2.00
  166.50        2966.75           1455           1.00         2.00
  166.53        2967.00           1458           6.00         6.10
  166.56        2967.25           1461           1.00         2.00
  166.58        2967.50           1465           6.00         6.10
  166.61        2967.75           1468           8.00        14.82
  166.64        2968.00           1471           2.00         2.00
  166.67        2968.25           1475           7.00        10.46
  166.69        2968.50           1478           2.00         2.00
  166.72        2968.75           1481           6.00         6.10
  166.75        2969.00           1485           5.00         2.00
  166.77        2969.25           1488           5.00         2.00
  166.80        2969.50           1491           5.00         2.00
  166.83        2969.75           1495           7.00        10.46
  166.86        2970.00           1498           3.00         2.00
  166.88        2970.25           1501           7.00        10.46
  166.91        2970.50           1505           3.00         2.00
  166.94        2970.75           1508           6.00         6.10
  166.96        2971.00           1511           7.00        10.46
  166.99        2971.25           1515           3.00         2.00
  167.02        2971.50           1518           7.00        10.46
  167.05        2971.75           1521           5.00         2.00
  167.07        2972.00           1525           7.00        10.46
  167.10        2972.25           1528           5.00         2.00
  167.13        2972.50           1531           7.00        10.46
  167.15        2972.75           1535           4.00         2.00
  167.18        2973.00           1538           6.00         6.10
  167.21        2973.25           1541           4.00         2.00
  167.24        2973.50           1545           9.00        19.18
  167.26        2973.75           1548           4.00         2.00
  167.29        2974.00           1551           1.00         2.00
  167.32        2974.25           1555           4.00         2.00
  167.34        2974.50           1558           3.00         2.00
  167.37        2974.75           1561           6.00         6.10
  167.40        2975.00           1565           4.00         2.00
  167.43        2975.25           1568           2.00         2.00
  167.45        2975.50           1571           8.00        14.82
  167.48        2975.75           1575           2.00         2.00
  167.51        2976.00           1578           3.00         2.00
  167.53        2976.25           1581           6.00         6.10
  167.56        2976.50           1585           6.00         6.10
  167.59        2976.75           1588           6.00         6.10
  167.62        2977.00           1591           6.00         6.10
  167.64        2977.25           1595           5.00         2.00
  167.67        2977.50           1598           2.00         2.00
  167.70        2977.75           1601           7.00        10.46
  167.72        2978.00           1605           5.00         2.00
  167.75        2978.25           1608           2.00         2.00
  167.78        2978.50           1611           5.00         2.00
  167.81        2978.75           1615           4.00         2.00
  167.83        2979.00           1618           4.00         2.00
  167.86        2979.25           1621           0.00         2.00
  167.89        2979.50           1625           7.00        10.46
  167.91        2979.75           1628           8.00        14.82
  167.94        2980.00           1631           7.00        10.46
  167.97        2980.25           1635           7.00        10.46
  168.00        2980.50           1638           6.00         6.10
  168.02        2980.75           1641           2.00         2.00
  168.05        2981.00           1645           6.00         6.10
  168.08        2981.25           1648           9.00        19.18
  168.10        2981.50           1651           5.00         2.00
  168.13        2981.75           1655           8.00        14.82
  168.16        2982.00           1658           5.00         2.00
  168.19        2982.25           1661           7.00        10.46
  168.21        2982.50           1665           6.00         6.10
  168.24        2982.75           1668           8.00        14.82
  168.27        2983.00           1671           4.00         2.00
  168.29        2983.25           1675           4.00         2.00
  168.32        2983.50           1678           4.00         2.00
  168.35        2983.75           1681           6.00         6.10
  168.37        2984.00           1685           8.00        14.82
HS scan finished at 02:48:34
end
