************************************************************
  HS Scan of (1) Internal mercury lamp
************************************************************
Integration time is 0.2294 seconds per sample
dh030517Tamanrasset 22.79-5.529 3.108382pr865
************************************************************
Dead Time -------------------------  2.8E-08 
Number of Cycles Used -------------  4 
Starting Wavelength (Angstroms) ---  2950 
Final Wavelength (Angstoms) -------  2984 
Wavelength Increment (Angstroms) --  .25 
Filter Wheel #1 Position ---------- (1) Ground quartz diffuser (ND=2.32)
Filter Wheel #2 Position ---------- (1) Neutral Density 0.494



************************************************************
HS scan start time = 02:47:30
Dark Count =  4.4 


Time (GMT)  Wavelength (Ang)  Step Number  Raw Counts  Counts/Second

  167.86        2950.00           1233           2.00         2.00
  167.92        2950.25           1236           8.00        15.69
  167.95        2950.50           1239           5.00         2.62
  167.98        2950.75           1242           1.00         2.00
  168.00        2951.00           1246           4.00         2.00
  168.03        2951.25           1249           5.00         2.62
  168.06        2951.50           1252           7.00        11.33
  168.09        2951.75           1256           6.00         6.97
  168.11        2952.00           1259           4.00         2.00
  168.14        2952.25           1262           2.00         2.00
  168.17        2952.50           1266           3.00         2.00
  168.19        2952.75           1269           2.00         2.00
  168.22        2953.00           1272           7.00        11.33
  168.25        2953.25           1276           6.00         6.97
  168.27        2953.50           1279           7.00        11.33
  168.30        2953.75           1282           3.00         2.00
  168.33        2954.00           1286           5.00         2.62
  168.36        2954.25           1289           5.00         2.62
  168.38        2954.50           1292           3.00         2.00
  168.41        2954.75           1295           8.00        15.69
  168.44        2955.00           1299           0.00         2.00
  168.46        2955.25           1302           7.00        11.33
  168.49        2955.50           1305           6.00         6.97
  168.52        2955.75           1309           5.00         2.62
  168.55        2956.00           1312           7.00        11.33
  168.57        2956.25           1315           6.00         6.97
  168.60        2956.50           1319           2.00         2.00
  168.63        2956.75           1322           8.00        15.69
  168.65        2957.00           1325           5.00         2.62
  168.68        2957.25           1329           5.00         2.62
  168.71        2957.50           1332           7.00        11.33
  168.74        2957.75           1335           8.00        15.69
  168.76        2958.00           1339           6.00         6.97
  168.79        2958.25           1342           8.00        15.69
  168.82        2958.50           1345           4.00         2.00
  168.84        2958.75           1348           5.00         2.62
  168.87        2959.00           1352           6.00         6.97
  168.90        2959.25           1355           4.00         2.00
  168.93        2959.50           1358           5.00         2.62
  168.95        2959.75           1362           6.00         6.97
  168.98        2960.00           1365           3.00         2.00
  169.01        2960.25           1368           5.00         2.62
  169.03        2960.50           1372           1.00         2.00
  169.06        2960.75           1375           6.00         6.97
  169.09        2961.00           1378           2.00         2.00
  169.11        2961.25           1382           7.00        11.33
  169.14        2961.50           1385           6.00         6.97
  169.17        2961.75           1388           4.00         2.00
  169.20        2962.00           1392           0.00         2.00
  169.22        2962.25           1395           6.00         6.97
  169.25        2962.50           1398           5.00         2.62
  169.28        2962.75           1402           5.00         2.62
  169.30        2963.00           1405           8.00        15.69
  169.33        2963.25           1408           4.00         2.00
  169.36        2963.50           1412           7.00        11.33
  169.39        2963.75           1415           7.00        11.33
  169.41        2964.00           1418           3.00         2.00
  169.44        2964.25           1422           8.00        15.69
  169.47        2964.50           1425           4.00         2.00
  169.49        2964.75           1428           8.00        15.69
  169.52        2965.00           1431           5.00         2.62
  169.55        2965.25           1435           7.00        11.33
  169.58        2965.50           1438           5.00         2.62
  169.60        2965.75           1441           2.00         2.00
  169.63        2966.00           1445           4.00         2.00
  169.66        2966.25           1448           4.00         2.00
  169.68        2966.50           1451           7.00        11.33
  169.71        2966.75           1455           4.00         2.00
  169.74        2967.00           1458           4.00         2.00
  169.77        2967.25           1461           5.00         2.62
  169.79        2967.50           1465           1.00         2.00
  169.82        2967.75           1468           5.00         2.62
  169.85        2968.00           1471           3.00         2.00
  169.87        2968.25           1475           6.00         6.97
  169.90        2968.50           1478           2.00         2.00
  169.93        2968.75           1481           7.00        11.33
  169.96        2969.00           1485           7.00        11.33
  169.98        2969.25           1488           2.00         2.00
  170.01        2969.50           1491           8.00        15.69
  170.04        2969.75           1495           7.00        11.33
  170.06        2970.00           1498           6.00         6.97
  170.09        2970.25           1501           7.00        11.33
  170.12        2970.50           1505           5.00         2.62
  170.15        2970.75           1508           0.00         2.00
  170.17        2971.00           1511           6.00         6.97
  170.20        2971.25           1515           8.00        15.69
  170.23        2971.50           1518           8.00        15.69
  170.25        2971.75           1521           8.00        15.69
  170.28        2972.00           1525           7.00        11.33
  170.31        2972.25           1528           7.00        11.33
  170.34        2972.50           1531           5.00         2.62
  170.36        2972.75           1535           3.00         2.00
  170.39        2973.00           1538           8.00        15.69
  170.42        2973.25           1541           8.00        15.69
  170.44        2973.50           1545           7.00        11.33
  170.47        2973.75           1548           5.00         2.62
  170.50        2974.00           1551           7.00        11.33
  170.53        2974.25           1555           5.00         2.62
  170.55        2974.50           1558           7.00        11.33
  170.58        2974.75           1561           6.00         6.97
  170.61        2975.00           1565           6.00         6.97
  170.63        2975.25           1568           4.00         2.00
  170.66        2975.50           1571           6.00         6.97
  170.69        2975.75           1575           5.00         2.62
  170.71        2976.00           1578           4.00         2.00
  170.74        2976.25           1581           0.00         2.00
  170.77        2976.50           1585           6.00         6.97
  170.80        2976.75           1588           0.00         2.00
  170.82        2977.00           1591           4.00         2.00
  170.85        2977.25           1595           5.00         2.62
  170.88        2977.50           1598           5.00         2.62
  170.90        2977.75           1601           3.00         2.00
  170.93        2978.00           1605           5.00         2.62
  170.96        2978.25           1608           2.00         2.00
  170.99        2978.50           1611           6.00         6.97
  171.01        2978.75           1615           0.00         2.00
  171.04        2979.00           1618           4.00         2.00
  171.07        2979.25           1621           7.00        11.33
  171.10        2979.50           1625           6.00         6.97
  171.12        2979.75           1628           6.00         6.97
  171.15        2980.00           1631           8.00        15.69
  171.18        2980.25           1635           6.00         6.97
  171.20        2980.50           1638           5.00         2.62
  171.23        2980.75           1641           3.00         2.00
  171.26        2981.00           1645           8.00        15.69
  171.29        2981.25           1648           8.00        15.69
  171.31        2981.50           1651           8.00        15.69
  171.34        2981.75           1655           6.00         6.97
  171.37        2982.00           1658           8.00        15.69
  171.39        2982.25           1661           4.00         2.00
  171.42        2982.50           1665           4.00         2.00
  171.45        2982.75           1668           8.00        15.69
  171.48        2983.00           1671           5.00         2.62
  171.50        2983.25           1675           7.00        11.33
  171.53        2983.50           1678           2.00         2.00
  171.56        2983.75           1681           0.00         2.00
  171.58        2984.00           1685           6.00         6.97
HS scan finished at 02:51:46
end
