************************************************************
  HS Scan of (1) Internal mercury lamp
************************************************************
Integration time is 0.2294 seconds per sample
dh060517Tamanrasset 22.79-5.529 3.042104pr865
************************************************************
Dead Time -------------------------  2.8E-08 
Number of Cycles Used -------------  4 
Starting Wavelength (Angstroms) ---  2950 
Final Wavelength (Angstoms) -------  2984 
Wavelength Increment (Angstroms) --  .25 
Filter Wheel #1 Position ---------- (1) Ground quartz diffuser (ND=2.32)
Filter Wheel #2 Position ---------- (1) Neutral Density 0.494



************************************************************
HS scan start time = 02:45:18
Dark Count =  5.4 


Time (GMT)  Wavelength (Ang)  Step Number  Raw Counts  Counts/Second

  165.66        2950.00           1233           2.00         2.00
  165.72        2950.25           1236           5.00         2.00
  165.75        2950.50           1239           5.00         2.00
  165.78        2950.75           1242           4.00         2.00
  165.80        2951.00           1246           5.00         2.00
  165.83        2951.25           1249           3.00         2.00
  165.86        2951.50           1252           7.00         6.97
  165.88        2951.75           1256           2.00         2.00
  165.91        2952.00           1259           4.00         2.00
  165.94        2952.25           1262           1.00         2.00
  165.97        2952.50           1266           5.00         2.00
  165.99        2952.75           1269           3.00         2.00
  166.02        2953.00           1272           4.00         2.00
  166.05        2953.25           1276           4.00         2.00
  166.07        2953.50           1279           2.00         2.00
  166.10        2953.75           1282           1.00         2.00
  166.13        2954.00           1286           4.00         2.00
  166.16        2954.25           1289           2.00         2.00
  166.18        2954.50           1292           0.00         2.00
  166.21        2954.75           1295           2.00         2.00
  166.24        2955.00           1299           5.00         2.00
  166.26        2955.25           1302           5.00         2.00
  166.29        2955.50           1305           7.00         6.97
  166.32        2955.75           1309           6.00         2.62
  166.35        2956.00           1312           6.00         2.62
  166.37        2956.25           1315           5.00         2.00
  166.40        2956.50           1319           1.00         2.00
  166.43        2956.75           1322           1.00         2.00
  166.45        2957.00           1325           8.00        11.33
  166.48        2957.25           1329           9.00        15.69
  166.51        2957.50           1332           5.00         2.00
  166.54        2957.75           1335           6.00         2.62
  166.56        2958.00           1339           1.00         2.00
  166.59        2958.25           1342           4.00         2.00
  166.62        2958.50           1345           3.00         2.00
  166.64        2958.75           1348           5.00         2.00
  166.67        2959.00           1352           5.00         2.00
  166.70        2959.25           1355           6.00         2.62
  166.72        2959.50           1358           8.00        11.33
  166.75        2959.75           1362           5.00         2.00
  166.78        2960.00           1365           8.00        11.33
  166.81        2960.25           1368           7.00         6.97
  166.83        2960.50           1372           7.00         6.97
  166.86        2960.75           1375           5.00         2.00
  166.89        2961.00           1378           6.00         2.62
  166.91        2961.25           1382           2.00         2.00
  166.94        2961.50           1385           3.00         2.00
  166.97        2961.75           1388           7.00         6.97
  167.00        2962.00           1392           5.00         2.00
  167.02        2962.25           1395           6.00         2.62
  167.05        2962.50           1398           5.00         2.00
  167.08        2962.75           1402           6.00         2.62
  167.11        2963.00           1405           3.00         2.00
  167.13        2963.25           1408           6.00         2.62
  167.16        2963.50           1412           0.00         2.00
  167.19        2963.75           1415           7.00         6.97
  167.21        2964.00           1418           2.00         2.00
  167.24        2964.25           1422           3.00         2.00
  167.27        2964.50           1425           5.00         2.00
  167.30        2964.75           1428           2.00         2.00
  167.32        2965.00           1431           5.00         2.00
  167.35        2965.25           1435           6.00         2.62
  167.38        2965.50           1438           3.00         2.00
  167.40        2965.75           1441           5.00         2.00
  167.43        2966.00           1445           9.00        15.69
  167.46        2966.25           1448           5.00         2.00
  167.49        2966.50           1451           1.00         2.00
  167.51        2966.75           1455           8.00        11.33
  167.54        2967.00           1458           0.00         2.00
  167.57        2967.25           1461           5.00         2.00
  167.59        2967.50           1465           6.00         2.62
  167.62        2967.75           1468           4.00         2.00
  167.65        2968.00           1471           0.00         2.00
  167.68        2968.25           1475           5.00         2.00
  167.70        2968.50           1478           8.00        11.33
  167.73        2968.75           1481           8.00        11.33
  167.76        2969.00           1485           2.00         2.00
  167.78        2969.25           1488           6.00         2.62
  167.81        2969.50           1491           6.00         2.62
  167.84        2969.75           1495           6.00         2.62
  167.87        2970.00           1498           8.00        11.33
  167.89        2970.25           1501           8.00        11.33
  167.92        2970.50           1505           4.00         2.00
  167.95        2970.75           1508           4.00         2.00
  167.97        2971.00           1511           4.00         2.00
  168.00        2971.25           1515           0.00         2.00
  168.03        2971.50           1518           2.00         2.00
  168.06        2971.75           1521           5.00         2.00
  168.08        2972.00           1525           6.00         2.62
  168.11        2972.25           1528           4.00         2.00
  168.14        2972.50           1531           4.00         2.00
  168.16        2972.75           1535           7.00         6.97
  168.19        2973.00           1538           5.00         2.00
  168.22        2973.25           1541           7.00         6.97
  168.25        2973.50           1545           4.00         2.00
  168.27        2973.75           1548           2.00         2.00
  168.30        2974.00           1551           3.00         2.00
  168.33        2974.25           1555           0.00         2.00
  168.35        2974.50           1558           0.00         2.00
  168.38        2974.75           1561           5.00         2.00
  168.41        2975.00           1565           5.00         2.00
  168.44        2975.25           1568           6.00         2.62
  168.46        2975.50           1571           6.00         2.62
  168.49        2975.75           1575           8.00        11.33
  168.52        2976.00           1578           2.00         2.00
  168.54        2976.25           1581           2.00         2.00
  168.57        2976.50           1585           7.00         6.97
  168.60        2976.75           1588           8.00        11.33
  168.63        2977.00           1591           7.00         6.97
  168.65        2977.25           1595           0.00         2.00
  168.68        2977.50           1598           2.00         2.00
  168.71        2977.75           1601           8.00        11.33
  168.73        2978.00           1605           2.00         2.00
  168.76        2978.25           1608           1.00         2.00
  168.79        2978.50           1611           4.00         2.00
  168.82        2978.75           1615           8.00        11.33
  168.84        2979.00           1618           6.00         2.62
  168.87        2979.25           1621           3.00         2.00
  168.90        2979.50           1625           2.00         2.00
  168.93        2979.75           1628           6.00         2.62
  168.95        2980.00           1631           4.00         2.00
  168.98        2980.25           1635           8.00        11.33
  169.01        2980.50           1638           7.00         6.97
  169.03        2980.75           1641           6.00         2.62
  169.06        2981.00           1645           8.00        11.33
  169.09        2981.25           1648           7.00         6.97
  169.12        2981.50           1651           5.00         2.00
  169.14        2981.75           1655           7.00         6.97
  169.17        2982.00           1658           4.00         2.00
  169.20        2982.25           1661           2.00         2.00
  169.22        2982.50           1665           6.00         2.62
  169.25        2982.75           1668           3.00         2.00
  169.28        2983.00           1671           3.00         2.00
  169.31        2983.25           1675           0.00         2.00
  169.33        2983.50           1678           4.00         2.00
  169.36        2983.75           1681           2.00         2.00
  169.39        2984.00           1685           8.00        11.33
HS scan finished at 02:49:35
end
