************************************************************
  HS Scan of (1) Internal mercury lamp
************************************************************
Integration time is 0.2294 seconds per sample
dh070517Tamanrasset 22.79-5.529 3.195053pr865
************************************************************
Dead Time -------------------------  2.8E-08 
Number of Cycles Used -------------  4 
Starting Wavelength (Angstroms) ---  2950 
Final Wavelength (Angstoms) -------  2984 
Wavelength Increment (Angstroms) --  .25 
Filter Wheel #1 Position ---------- (1) Ground quartz diffuser (ND=2.32)
Filter Wheel #2 Position ---------- (1) Neutral Density 0.494



************************************************************
HS scan start time = 02:45:34
Dark Count =  4.6 


Time (GMT)  Wavelength (Ang)  Step Number  Raw Counts  Counts/Second

  165.93        2950.00           1233           3.00         2.00
  165.99        2950.25           1236           5.00         2.00
  166.02        2950.50           1239           3.00         2.00
  166.05        2950.75           1242           7.00        10.46
  166.07        2951.00           1246           4.00         2.00
  166.10        2951.25           1249           2.00         2.00
  166.13        2951.50           1252           3.00         2.00
  166.16        2951.75           1256           5.00         2.00
  166.18        2952.00           1259           8.00        14.82
  166.21        2952.25           1262           2.00         2.00
  166.24        2952.50           1266           3.00         2.00
  166.26        2952.75           1269           0.00         2.00
  166.29        2953.00           1272           5.00         2.00
  166.32        2953.25           1276           7.00        10.46
  166.35        2953.50           1279           3.00         2.00
  166.37        2953.75           1282           6.00         6.10
  166.40        2954.00           1286           8.00        14.82
  166.43        2954.25           1289           3.00         2.00
  166.45        2954.50           1292           6.00         6.10
  166.48        2954.75           1295           4.00         2.00
  166.51        2955.00           1299           8.00        14.82
  166.54        2955.25           1302           4.00         2.00
  166.56        2955.50           1305           6.00         6.10
  166.59        2955.75           1309           7.00        10.46
  166.62        2956.00           1312           3.00         2.00
  166.64        2956.25           1315           5.00         2.00
  166.67        2956.50           1319           4.00         2.00
  166.70        2956.75           1322           3.00         2.00
  166.73        2957.00           1325           8.00        14.82
  166.75        2957.25           1329           7.00        10.46
  166.78        2957.50           1332           7.00        10.46
  166.81        2957.75           1335           6.00         6.10
  166.83        2958.00           1339           5.00         2.00
  166.86        2958.25           1342           6.00         6.10
  166.89        2958.50           1345           5.00         2.00
  166.92        2958.75           1348           6.00         6.10
  166.94        2959.00           1352           4.00         2.00
  166.97        2959.25           1355           5.00         2.00
  167.00        2959.50           1358           7.00        10.46
  167.02        2959.75           1362           6.00         6.10
  167.05        2960.00           1365           8.00        14.82
  167.08        2960.25           1368           7.00        10.46
  167.11        2960.50           1372           6.00         6.10
  167.13        2960.75           1375           8.00        14.82
  167.16        2961.00           1378           4.00         2.00
  167.19        2961.25           1382           8.00        14.82
  167.21        2961.50           1385           4.00         2.00
  167.24        2961.75           1388           3.00         2.00
  167.27        2962.00           1392           8.00        14.82
  167.30        2962.25           1395           4.00         2.00
  167.32        2962.50           1398           0.00         2.00
  167.35        2962.75           1402           4.00         2.00
  167.38        2963.00           1405           4.00         2.00
  167.40        2963.25           1408           5.00         2.00
  167.43        2963.50           1412           3.00         2.00
  167.46        2963.75           1415           7.00        10.46
  167.49        2964.00           1418           5.00         2.00
  167.51        2964.25           1422           2.00         2.00
  167.54        2964.50           1425           4.00         2.00
  167.57        2964.75           1428           5.00         2.00
  167.60        2965.00           1431           8.00        14.82
  167.62        2965.25           1435           4.00         2.00
  167.65        2965.50           1438           3.00         2.00
  167.68        2965.75           1441           7.00        10.46
  167.70        2966.00           1445           3.00         2.00
  167.73        2966.25           1448           5.00         2.00
  167.76        2966.50           1451           5.00         2.00
  167.78        2966.75           1455           2.00         2.00
  167.81        2967.00           1458           6.00         6.10
  167.84        2967.25           1461           5.00         2.00
  167.87        2967.50           1465           7.00        10.46
  167.89        2967.75           1468           3.00         2.00
  167.92        2968.00           1471           3.00         2.00
  167.95        2968.25           1475           6.00         6.10
  167.97        2968.50           1478           1.00         2.00
  168.00        2968.75           1481           6.00         6.10
  168.03        2969.00           1485           5.00         2.00
  168.06        2969.25           1488           6.00         6.10
  168.08        2969.50           1491           3.00         2.00
  168.11        2969.75           1495           7.00        10.46
  168.14        2970.00           1498           2.00         2.00
  168.16        2970.25           1501           8.00        14.82
  168.19        2970.50           1505           3.00         2.00
  168.22        2970.75           1508           7.00        10.46
  168.25        2971.00           1511           5.00         2.00
  168.27        2971.25           1515           2.00         2.00
  168.30        2971.50           1518           7.00        10.46
  168.33        2971.75           1521           7.00        10.46
  168.36        2972.00           1525           6.00         6.10
  168.38        2972.25           1528           5.00         2.00
  168.41        2972.50           1531           4.00         2.00
  168.44        2972.75           1535           5.00         2.00
  168.46        2973.00           1538           6.00         6.10
  168.49        2973.25           1541           7.00        10.46
  168.52        2973.50           1545           4.00         2.00
  168.55        2973.75           1548           8.00        14.82
  168.57        2974.00           1551           2.00         2.00
  168.60        2974.25           1555           6.00         6.10
  168.63        2974.50           1558           6.00         6.10
  168.65        2974.75           1561           4.00         2.00
  168.68        2975.00           1565           0.00         2.00
  168.71        2975.25           1568           8.00        14.82
  168.74        2975.50           1571           4.00         2.00
  168.76        2975.75           1575           5.00         2.00
  168.79        2976.00           1578           6.00         6.10
  168.82        2976.25           1581           4.00         2.00
  168.84        2976.50           1585           6.00         6.10
  168.87        2976.75           1588           7.00        10.46
  168.90        2977.00           1591           5.00         2.00
  168.92        2977.25           1595           6.00         6.10
  168.95        2977.50           1598           3.00         2.00
  168.98        2977.75           1601           8.00        14.82
  169.01        2978.00           1605           7.00        10.46
  169.03        2978.25           1608           8.00        14.82
  169.06        2978.50           1611           5.00         2.00
  169.09        2978.75           1615           5.00         2.00
  169.12        2979.00           1618           2.00         2.00
  169.14        2979.25           1621           7.00        10.46
  169.17        2979.50           1625           7.00        10.46
  169.20        2979.75           1628           4.00         2.00
  169.22        2980.00           1631           3.00         2.00
  169.25        2980.25           1635           2.00         2.00
  169.28        2980.50           1638           7.00        10.46
  169.31        2980.75           1641           4.00         2.00
  169.33        2981.00           1645           6.00         6.10
  169.36        2981.25           1648           3.00         2.00
  169.39        2981.50           1651           5.00         2.00
  169.41        2981.75           1655           7.00        10.46
  169.44        2982.00           1658           6.00         6.10
  169.47        2982.25           1661           5.00         2.00
  169.49        2982.50           1665           6.00         6.10
  169.52        2982.75           1668           2.00         2.00
  169.55        2983.00           1671           5.00         2.00
  169.58        2983.25           1675           1.00         2.00
  169.60        2983.50           1678           1.00         2.00
  169.63        2983.75           1681           5.00         2.00
  169.66        2984.00           1685           7.00        10.46
HS scan finished at 02:49:51
end
