************************************************************
  HS Scan of (1) Internal mercury lamp
************************************************************
Integration time is 0.2294 seconds per sample
dh040517Tamanrasset 22.79-5.529 3.057399pr865
************************************************************
Dead Time -------------------------  2.8E-08 
Number of Cycles Used -------------  4 
Starting Wavelength (Angstroms) ---  2950 
Final Wavelength (Angstoms) -------  2984 
Wavelength Increment (Angstroms) --  .25 
Filter Wheel #1 Position ---------- (1) Ground quartz diffuser (ND=2.32)
Filter Wheel #2 Position ---------- (1) Neutral Density 0.494



************************************************************
HS scan start time = 02:46:19
Dark Count =  3.3 


Time (GMT)  Wavelength (Ang)  Step Number  Raw Counts  Counts/Second

  166.68        2950.00           1233           3.00         2.00
  166.74        2950.25           1236           5.00         7.41
  166.77        2950.50           1239           7.00        16.13
  166.79        2950.75           1242           2.00         2.00
  166.82        2951.00           1246           8.00        20.49
  166.85        2951.25           1249           4.00         3.05
  166.88        2951.50           1252           3.00         2.00
  166.90        2951.75           1256           4.00         3.05
  166.93        2952.00           1259           8.00        20.49
  166.96        2952.25           1262           4.00         3.05
  166.98        2952.50           1266           0.00         2.00
  167.01        2952.75           1269           7.00        16.13
  167.04        2953.00           1272           0.00         2.00
  167.07        2953.25           1276           4.00         3.05
  167.09        2953.50           1279           7.00        16.13
  167.12        2953.75           1282           4.00         3.05
  167.15        2954.00           1286           7.00        16.13
  167.17        2954.25           1289           7.00        16.13
  167.20        2954.50           1292           6.00        11.77
  167.23        2954.75           1295           2.00         2.00
  167.25        2955.00           1299           3.00         2.00
  167.28        2955.25           1302           6.00        11.77
  167.31        2955.50           1305           3.00         2.00
  167.34        2955.75           1309           4.00         3.05
  167.36        2956.00           1312           8.00        20.49
  167.39        2956.25           1315           3.00         2.00
  167.42        2956.50           1319           1.00         2.00
  167.44        2956.75           1322           7.00        16.13
  167.47        2957.00           1325           7.00        16.13
  167.50        2957.25           1329           6.00        11.77
  167.53        2957.50           1332           6.00        11.77
  167.55        2957.75           1335           5.00         7.41
  167.58        2958.00           1339           3.00         2.00
  167.61        2958.25           1342           8.00        20.49
  167.63        2958.50           1345           8.00        20.49
  167.66        2958.75           1348           5.00         7.41
  167.69        2959.00           1352           7.00        16.13
  167.72        2959.25           1355           6.00        11.77
  167.74        2959.50           1358           2.00         2.00
  167.77        2959.75           1362           8.00        20.49
  167.80        2960.00           1365           6.00        11.77
  167.82        2960.25           1368           1.00         2.00
  167.85        2960.50           1372           8.00        20.49
  167.88        2960.75           1375           4.00         3.05
  167.90        2961.00           1378           5.00         7.41
  167.93        2961.25           1382           6.00        11.77
  167.96        2961.50           1385           0.00         2.00
  167.99        2961.75           1388           2.00         2.00
  168.01        2962.00           1392           7.00        16.13
  168.04        2962.25           1395           2.00         2.00
  168.07        2962.50           1398           8.00        20.49
  168.09        2962.75           1402           8.00        20.49
  168.12        2963.00           1405           6.00        11.77
  168.15        2963.25           1408           4.00         3.05
  168.18        2963.50           1412           8.00        20.49
  168.20        2963.75           1415           4.00         3.05
  168.23        2964.00           1418           2.00         2.00
  168.26        2964.25           1422           6.00        11.77
  168.29        2964.50           1425           6.00        11.77
  168.31        2964.75           1428           2.00         2.00
  168.34        2965.00           1431           8.00        20.49
  168.37        2965.25           1435           2.00         2.00
  168.39        2965.50           1438           1.00         2.00
  168.42        2965.75           1441           7.00        16.13
  168.45        2966.00           1445           5.00         7.41
  168.48        2966.25           1448           5.00         7.41
  168.50        2966.50           1451           2.00         2.00
  168.53        2966.75           1455           8.00        20.49
  168.56        2967.00           1458           8.00        20.49
  168.58        2967.25           1461           7.00        16.13
  168.61        2967.50           1465           7.00        16.13
  168.64        2967.75           1468           5.00         7.41
  168.67        2968.00           1471           5.00         7.41
  168.69        2968.25           1475           0.00         2.00
  168.72        2968.50           1478           7.00        16.13
  168.75        2968.75           1481           4.00         3.05
  168.77        2969.00           1485           1.00         2.00
  168.80        2969.25           1488           4.00         3.05
  168.83        2969.50           1491           6.00        11.77
  168.86        2969.75           1495           5.00         7.41
  168.88        2970.00           1498           0.00         2.00
  168.91        2970.25           1501           0.00         2.00
  168.94        2970.50           1505           6.00        11.77
  168.96        2970.75           1508           8.00        20.49
  168.99        2971.00           1511           0.00         2.00
  169.02        2971.25           1515           5.00         7.41
  169.05        2971.50           1518           6.00        11.77
  169.07        2971.75           1521           4.00         3.05
  169.10        2972.00           1525           4.00         3.05
  169.13        2972.25           1528           8.00        20.49
  169.15        2972.50           1531           5.00         7.41
  169.18        2972.75           1535           0.00         2.00
  169.21        2973.00           1538           3.00         2.00
  169.24        2973.25           1541           6.00        11.77
  169.26        2973.50           1545           3.00         2.00
  169.29        2973.75           1548           8.00        20.49
  169.32        2974.00           1551           7.00        16.13
  169.34        2974.25           1555           7.00        16.13
  169.37        2974.50           1558           8.00        20.49
  169.40        2974.75           1561           5.00         7.41
  169.43        2975.00           1565           1.00         2.00
  169.45        2975.25           1568           6.00        11.77
  169.48        2975.50           1571           4.00         3.05
  169.51        2975.75           1575           4.00         3.05
  169.54        2976.00           1578           8.00        20.49
  169.56        2976.25           1581           7.00        16.13
  169.59        2976.50           1585           5.00         7.41
  169.62        2976.75           1588           4.00         3.05
  169.64        2977.00           1591           7.00        16.13
  169.67        2977.25           1595           4.00         3.05
  169.70        2977.50           1598           0.00         2.00
  169.72        2977.75           1601           5.00         7.41
  169.75        2978.00           1605           6.00        11.77
  169.78        2978.25           1608           8.00        20.49
  169.81        2978.50           1611           6.00        11.77
  169.83        2978.75           1615           8.00        20.49
  169.86        2979.00           1618           5.00         7.41
  169.89        2979.25           1621           8.00        20.49
  169.91        2979.50           1625           2.00         2.00
  169.94        2979.75           1628           8.00        20.49
  169.97        2980.00           1631           8.00        20.49
  170.00        2980.25           1635           6.00        11.77
  170.02        2980.50           1638           8.00        20.49
  170.05        2980.75           1641           4.00         3.05
  170.08        2981.00           1645           7.00        16.13
  170.10        2981.25           1648           0.00         2.00
  170.13        2981.50           1651           3.00         2.00
  170.16        2981.75           1655           8.00        20.49
  170.19        2982.00           1658           4.00         3.05
  170.21        2982.25           1661           2.00         2.00
  170.24        2982.50           1665           2.00         2.00
  170.27        2982.75           1668           7.00        16.13
  170.29        2983.00           1671           6.00        11.77
  170.32        2983.25           1675           5.00         7.41
  170.35        2983.50           1678           6.00        11.77
  170.38        2983.75           1681           7.00        16.13
  170.40        2984.00           1685           6.00        11.77
HS scan finished at 02:50:35
end
