************************************************************
  HS Scan of (1) Internal mercury lamp
************************************************************
Integration time is 0.2294 seconds per sample
dh300417Tamanrasset 22.79-5.529 3.128775pr865
************************************************************
Dead Time -------------------------  2.8E-08 
Number of Cycles Used -------------  4 
Starting Wavelength (Angstroms) ---  2950 
Final Wavelength (Angstoms) -------  2984 
Wavelength Increment (Angstroms) --  .25 
Filter Wheel #1 Position ---------- (1) Ground quartz diffuser (ND=2.32)
Filter Wheel #2 Position ---------- (1) Neutral Density 0.494



************************************************************
HS scan start time = 02:49:20
Dark Count =  5.1 


Time (GMT)  Wavelength (Ang)  Step Number  Raw Counts  Counts/Second

  169.68        2950.00           1233           4.00         2.00
  169.75        2950.25           1236           1.00         2.00
  169.77        2950.50           1239           6.00         3.92
  169.80        2950.75           1242           6.00         3.92
  169.83        2951.00           1246           6.00         3.92
  169.85        2951.25           1249           1.00         2.00
  169.88        2951.50           1252           5.00         2.00
  169.91        2951.75           1256           5.00         2.00
  169.94        2952.00           1259           3.00         2.00
  169.96        2952.25           1262           8.00        12.64
  169.99        2952.50           1266           4.00         2.00
  170.02        2952.75           1269           9.00        17.00
  170.05        2953.00           1272           8.00        12.64
  170.07        2953.25           1276           4.00         2.00
  170.10        2953.50           1279           3.00         2.00
  170.13        2953.75           1282           5.00         2.00
  170.15        2954.00           1286           7.00         8.28
  170.18        2954.25           1289           5.00         2.00
  170.21        2954.50           1292           6.00         3.92
  170.23        2954.75           1295           7.00         8.28
  170.26        2955.00           1299           7.00         8.28
  170.29        2955.25           1302           7.00         8.28
  170.32        2955.50           1305           6.00         3.92
  170.34        2955.75           1309           3.00         2.00
  170.37        2956.00           1312           6.00         3.92
  170.40        2956.25           1315           4.00         2.00
  170.42        2956.50           1319           5.00         2.00
  170.45        2956.75           1322           8.00        12.64
  170.48        2957.00           1325           8.00        12.64
  170.51        2957.25           1329           4.00         2.00
  170.53        2957.50           1332           1.00         2.00
  170.56        2957.75           1335           5.00         2.00
  170.59        2958.00           1339           2.00         2.00
  170.61        2958.25           1342           2.00         2.00
  170.64        2958.50           1345           8.00        12.64
  170.67        2958.75           1348           2.00         2.00
  170.70        2959.00           1352           3.00         2.00
  170.72        2959.25           1355           7.00         8.28
  170.75        2959.50           1358           6.00         3.92
  170.78        2959.75           1362           4.00         2.00
  170.80        2960.00           1365           4.00         2.00
  170.83        2960.25           1368           5.00         2.00
  170.86        2960.50           1372           6.00         3.92
  170.89        2960.75           1375           2.00         2.00
  170.91        2961.00           1378           5.00         2.00
  170.94        2961.25           1382           8.00        12.64
  170.97        2961.50           1385           0.00         2.00
  170.99        2961.75           1388           7.00         8.28
  171.02        2962.00           1392           7.00         8.28
  171.05        2962.25           1395           8.00        12.64
  171.08        2962.50           1398           0.00         2.00
  171.10        2962.75           1402           4.00         2.00
  171.13        2963.00           1405           3.00         2.00
  171.16        2963.25           1408           1.00         2.00
  171.18        2963.50           1412           0.00         2.00
  171.21        2963.75           1415           9.00        17.00
  171.24        2964.00           1418           6.00         3.92
  171.27        2964.25           1422           4.00         2.00
  171.29        2964.50           1425           6.00         3.92
  171.32        2964.75           1428           8.00        12.64
  171.35        2965.00           1431           8.00        12.64
  171.37        2965.25           1435           7.00         8.28
  171.40        2965.50           1438           7.00         8.28
  171.43        2965.75           1441           3.00         2.00
  171.46        2966.00           1445           3.00         2.00
  171.48        2966.25           1448           4.00         2.00
  171.51        2966.50           1451           8.00        12.64
  171.54        2966.75           1455           3.00         2.00
  171.56        2967.00           1458           2.00         2.00
  171.59        2967.25           1461           2.00         2.00
  171.62        2967.50           1465           0.00         2.00
  171.65        2967.75           1468           8.00        12.64
  171.67        2968.00           1471           6.00         3.92
  171.70        2968.25           1475           6.00         3.92
  171.73        2968.50           1478           5.00         2.00
  171.75        2968.75           1481           8.00        12.64
  171.78        2969.00           1485           5.00         2.00
  171.81        2969.25           1488           7.00         8.28
  171.84        2969.50           1491           5.00         2.00
  171.86        2969.75           1495           6.00         3.92
  171.89        2970.00           1498           2.00         2.00
  171.92        2970.25           1501           6.00         3.92
  171.94        2970.50           1505           2.00         2.00
  171.97        2970.75           1508           6.00         3.92
  172.00        2971.00           1511           5.00         2.00
  172.03        2971.25           1515           5.00         2.00
  172.05        2971.50           1518           2.00         2.00
  172.08        2971.75           1521           5.00         2.00
  172.11        2972.00           1525           3.00         2.00
  172.13        2972.25           1528           6.00         3.92
  172.16        2972.50           1531           7.00         8.28
  172.19        2972.75           1535           2.00         2.00
  172.22        2973.00           1538           5.00         2.00
  172.24        2973.25           1541           7.00         8.28
  172.27        2973.50           1545           4.00         2.00
  172.30        2973.75           1548           8.00        12.64
  172.33        2974.00           1551           6.00         3.92
  172.35        2974.25           1555           8.00        12.64
  172.38        2974.50           1558           0.00         2.00
  172.41        2974.75           1561           2.00         2.00
  172.43        2975.00           1565           6.00         3.92
  172.46        2975.25           1568           4.00         2.00
  172.49        2975.50           1571           7.00         8.28
  172.51        2975.75           1575           5.00         2.00
  172.54        2976.00           1578           6.00         3.92
  172.57        2976.25           1581           5.00         2.00
  172.60        2976.50           1585           5.00         2.00
  172.62        2976.75           1588           5.00         2.00
  172.65        2977.00           1591           7.00         8.28
  172.68        2977.25           1595           4.00         2.00
  172.70        2977.50           1598           4.00         2.00
  172.73        2977.75           1601           8.00        12.64
  172.76        2978.00           1605           8.00        12.64
  172.79        2978.25           1608           4.00         2.00
  172.81        2978.50           1611           4.00         2.00
  172.84        2978.75           1615           8.00        12.64
  172.87        2979.00           1618           6.00         3.92
  172.89        2979.25           1621           5.00         2.00
  172.92        2979.50           1625           2.00         2.00
  172.95        2979.75           1628           8.00        12.64
  172.98        2980.00           1631           1.00         2.00
  173.00        2980.25           1635           4.00         2.00
  173.03        2980.50           1638           1.00         2.00
  173.06        2980.75           1641           6.00         3.92
  173.08        2981.00           1645           1.00         2.00
  173.11        2981.25           1648           3.00         2.00
  173.14        2981.50           1651           7.00         8.28
  173.17        2981.75           1655           3.00         2.00
  173.19        2982.00           1658           3.00         2.00
  173.22        2982.25           1661           5.00         2.00
  173.25        2982.50           1665           7.00         8.28
  173.27        2982.75           1668           9.00        17.00
  173.30        2983.00           1671           8.00        12.64
  173.33        2983.25           1675           7.00         8.28
  173.36        2983.50           1678           5.00         2.00
  173.38        2983.75           1681           8.00        12.64
  173.41        2984.00           1685           5.00         2.00
HS scan finished at 02:53:36
end
