************************************************************
  HS Scan of (1) Internal mercury lamp
************************************************************
Integration time is 0.2294 seconds per sample
dh020517Tamanrasset 22.79-5.529 3.189955pr865
************************************************************
Dead Time -------------------------  2.8E-08 
Number of Cycles Used -------------  4 
Starting Wavelength (Angstroms) ---  2950 
Final Wavelength (Angstoms) -------  2984 
Wavelength Increment (Angstroms) --  .25 
Filter Wheel #1 Position ---------- (1) Ground quartz diffuser (ND=2.32)
Filter Wheel #2 Position ---------- (1) Neutral Density 0.494



************************************************************
HS scan start time = 02:47:30
Dark Count =  5.9 


Time (GMT)  Wavelength (Ang)  Step Number  Raw Counts  Counts/Second

  167.86        2950.00           1233           2.00         2.00
  167.92        2950.25           1236           0.00         2.00
  167.95        2950.50           1239           4.00         2.00
  167.97        2950.75           1242           7.00         4.80
  168.00        2951.00           1246           8.00         9.15
  168.03        2951.25           1249           5.00         2.00
  168.06        2951.50           1252           5.00         2.00
  168.08        2951.75           1256           2.00         2.00
  168.11        2952.00           1259           4.00         2.00
  168.14        2952.25           1262           6.00         2.00
  168.16        2952.50           1266           5.00         2.00
  168.19        2952.75           1269           8.00         9.15
  168.22        2953.00           1272           4.00         2.00
  168.25        2953.25           1276           5.00         2.00
  168.27        2953.50           1279           8.00         9.15
  168.30        2953.75           1282           2.00         2.00
  168.33        2954.00           1286           6.00         2.00
  168.35        2954.25           1289           6.00         2.00
  168.38        2954.50           1292           7.00         4.80
  168.41        2954.75           1295           7.00         4.80
  168.43        2955.00           1299           1.00         2.00
  168.46        2955.25           1302           9.00        13.51
  168.49        2955.50           1305           5.00         2.00
  168.52        2955.75           1309           1.00         2.00
  168.54        2956.00           1312           1.00         2.00
  168.57        2956.25           1315           8.00         9.15
  168.60        2956.50           1319           5.00         2.00
  168.62        2956.75           1322           2.00         2.00
  168.65        2957.00           1325           6.00         2.00
  168.68        2957.25           1329           5.00         2.00
  168.71        2957.50           1332           4.00         2.00
  168.73        2957.75           1335           3.00         2.00
  168.76        2958.00           1339           2.00         2.00
  168.79        2958.25           1342           8.00         9.15
  168.81        2958.50           1345           7.00         4.80
  168.84        2958.75           1348           4.00         2.00
  168.87        2959.00           1352           7.00         4.80
  168.90        2959.25           1355           2.00         2.00
  168.92        2959.50           1358           2.00         2.00
  168.95        2959.75           1362           7.00         4.80
  168.98        2960.00           1365           9.00        13.51
  169.00        2960.25           1368           5.00         2.00
  169.03        2960.50           1372           2.00         2.00
  169.06        2960.75           1375           5.00         2.00
  169.09        2961.00           1378           7.00         4.80
  169.11        2961.25           1382           4.00         2.00
  169.14        2961.50           1385           5.00         2.00
  169.17        2961.75           1388           5.00         2.00
  169.19        2962.00           1392           2.00         2.00
  169.22        2962.25           1395           6.00         2.00
  169.25        2962.50           1398           5.00         2.00
  169.28        2962.75           1402           7.00         4.80
  169.30        2963.00           1405           4.00         2.00
  169.33        2963.25           1408           7.00         4.80
  169.36        2963.50           1412           8.00         9.15
  169.38        2963.75           1415           3.00         2.00
  169.41        2964.00           1418           6.00         2.00
  169.44        2964.25           1422           4.00         2.00
  169.47        2964.50           1425           7.00         4.80
  169.49        2964.75           1428           4.00         2.00
  169.52        2965.00           1431           8.00         9.15
  169.55        2965.25           1435           7.00         4.80
  169.57        2965.50           1438           3.00         2.00
  169.60        2965.75           1441           6.00         2.00
  169.63        2966.00           1445           4.00         2.00
  169.66        2966.25           1448           2.00         2.00
  169.68        2966.50           1451           8.00         9.15
  169.71        2966.75           1455           8.00         9.15
  169.74        2967.00           1458           7.00         4.80
  169.76        2967.25           1461           6.00         2.00
  169.79        2967.50           1465           2.00         2.00
  169.82        2967.75           1468           7.00         4.80
  169.85        2968.00           1471           7.00         4.80
  169.87        2968.25           1475           3.00         2.00
  169.90        2968.50           1478           4.00         2.00
  169.93        2968.75           1481           8.00         9.15
  169.95        2969.00           1485           7.00         4.80
  169.98        2969.25           1488           5.00         2.00
  170.01        2969.50           1491           5.00         2.00
  170.03        2969.75           1495           7.00         4.80
  170.06        2970.00           1498           0.00         2.00
  170.09        2970.25           1501           8.00         9.15
  170.12        2970.50           1505           7.00         4.80
  170.14        2970.75           1508           4.00         2.00
  170.17        2971.00           1511           6.00         2.00
  170.20        2971.25           1515           5.00         2.00
  170.22        2971.50           1518           3.00         2.00
  170.25        2971.75           1521           6.00         2.00
  170.28        2972.00           1525           7.00         4.80
  170.31        2972.25           1528           3.00         2.00
  170.33        2972.50           1531           6.00         2.00
  170.36        2972.75           1535           4.00         2.00
  170.39        2973.00           1538           2.00         2.00
  170.41        2973.25           1541           7.00         4.80
  170.44        2973.50           1545           8.00         9.15
  170.47        2973.75           1548           7.00         4.80
  170.50        2974.00           1551           5.00         2.00
  170.52        2974.25           1555           3.00         2.00
  170.55        2974.50           1558           5.00         2.00
  170.58        2974.75           1561           4.00         2.00
  170.60        2975.00           1565           6.00         2.00
  170.63        2975.25           1568           2.00         2.00
  170.66        2975.50           1571           2.00         2.00
  170.69        2975.75           1575           3.00         2.00
  170.71        2976.00           1578           5.00         2.00
  170.74        2976.25           1581           2.00         2.00
  170.77        2976.50           1585           4.00         2.00
  170.79        2976.75           1588           5.00         2.00
  170.82        2977.00           1591           3.00         2.00
  170.85        2977.25           1595           4.00         2.00
  170.88        2977.50           1598           8.00         9.15
  170.90        2977.75           1601           4.00         2.00
  170.93        2978.00           1605           2.00         2.00
  170.96        2978.25           1608           5.00         2.00
  170.98        2978.50           1611           6.00         2.00
  171.01        2978.75           1615           5.00         2.00
  171.04        2979.00           1618           6.00         2.00
  171.06        2979.25           1621           5.00         2.00
  171.09        2979.50           1625           6.00         2.00
  171.12        2979.75           1628           5.00         2.00
  171.15        2980.00           1631           9.00        13.51
  171.17        2980.25           1635           4.00         2.00
  171.20        2980.50           1638           7.00         4.80
  171.23        2980.75           1641           4.00         2.00
  171.25        2981.00           1645           2.00         2.00
  171.28        2981.25           1648           6.00         2.00
  171.31        2981.50           1651           4.00         2.00
  171.34        2981.75           1655           5.00         2.00
  171.36        2982.00           1658           3.00         2.00
  171.39        2982.25           1661           4.00         2.00
  171.42        2982.50           1665           5.00         2.00
  171.44        2982.75           1668           6.00         2.00
  171.47        2983.00           1671           3.00         2.00
  171.50        2983.25           1675           5.00         2.00
  171.53        2983.50           1678           6.00         2.00
  171.55        2983.75           1681           7.00         4.80
  171.58        2984.00           1685           4.00         2.00
HS scan finished at 02:51:46
end
