************************************************************
  HS Scan of (1) Internal mercury lamp
************************************************************
Integration time is 0.2294 seconds per sample
dh090517Tamanrasset 22.79-5.529 3.210348pr865
************************************************************
Dead Time -------------------------  2.8E-08 
Number of Cycles Used -------------  4 
Starting Wavelength (Angstroms) ---  2950 
Final Wavelength (Angstoms) -------  2984 
Wavelength Increment (Angstroms) --  .25 
Filter Wheel #1 Position ---------- (1) Ground quartz diffuser (ND=2.32)
Filter Wheel #2 Position ---------- (1) Neutral Density 0.494



************************************************************
HS scan start time = 02:43:31
Dark Count =  5.6 


Time (GMT)  Wavelength (Ang)  Step Number  Raw Counts  Counts/Second

  163.87        2950.00           1233           4.00         2.00
  163.94        2950.25           1236           3.00         2.00
  163.96        2950.50           1239           4.00         2.00
  163.99        2950.75           1242           8.00        10.46
  164.02        2951.00           1246           6.00         2.00
  164.04        2951.25           1249           8.00        10.46
  164.07        2951.50           1252           4.00         2.00
  164.10        2951.75           1256           4.00         2.00
  164.13        2952.00           1259           8.00        10.46
  164.15        2952.25           1262           7.00         6.10
  164.18        2952.50           1266           7.00         6.10
  164.21        2952.75           1269           3.00         2.00
  164.23        2953.00           1272           7.00         6.10
  164.26        2953.25           1276           7.00         6.10
  164.29        2953.50           1279           8.00        10.46
  164.32        2953.75           1282           0.00         2.00
  164.34        2954.00           1286           8.00        10.46
  164.37        2954.25           1289           6.00         2.00
  164.40        2954.50           1292           9.00        14.82
  164.42        2954.75           1295           5.00         2.00
  164.45        2955.00           1299           6.00         2.00
  164.48        2955.25           1302           5.00         2.00
  164.51        2955.50           1305           6.00         2.00
  164.53        2955.75           1309           3.00         2.00
  164.56        2956.00           1312           6.00         2.00
  164.59        2956.25           1315           4.00         2.00
  164.61        2956.50           1319           6.00         2.00
  164.64        2956.75           1322           8.00        10.46
  164.67        2957.00           1325           8.00        10.46
  164.70        2957.25           1329           4.00         2.00
  164.72        2957.50           1332           3.00         2.00
  164.75        2957.75           1335           3.00         2.00
  164.78        2958.00           1339           3.00         2.00
  164.80        2958.25           1342           4.00         2.00
  164.83        2958.50           1345           7.00         6.10
  164.86        2958.75           1348           7.00         6.10
  164.89        2959.00           1352           6.00         2.00
  164.91        2959.25           1355           0.00         2.00
  164.94        2959.50           1358           5.00         2.00
  164.97        2959.75           1362           6.00         2.00
  164.99        2960.00           1365           5.00         2.00
  165.02        2960.25           1368           6.00         2.00
  165.05        2960.50           1372           5.00         2.00
  165.08        2960.75           1375           2.00         2.00
  165.10        2961.00           1378           7.00         6.10
  165.13        2961.25           1382           2.00         2.00
  165.16        2961.50           1385           8.00        10.46
  165.18        2961.75           1388           4.00         2.00
  165.21        2962.00           1392           3.00         2.00
  165.24        2962.25           1395           5.00         2.00
  165.26        2962.50           1398           5.00         2.00
  165.29        2962.75           1402           6.00         2.00
  165.32        2963.00           1405           7.00         6.10
  165.35        2963.25           1408           7.00         6.10
  165.37        2963.50           1412           7.00         6.10
  165.40        2963.75           1415           3.00         2.00
  165.43        2964.00           1418           7.00         6.10
  165.45        2964.25           1422           5.00         2.00
  165.48        2964.50           1425           5.00         2.00
  165.51        2964.75           1428           4.00         2.00
  165.54        2965.00           1431           4.00         2.00
  165.56        2965.25           1435           5.00         2.00
  165.59        2965.50           1438           7.00         6.10
  165.62        2965.75           1441           7.00         6.10
  165.64        2966.00           1445           4.00         2.00
  165.67        2966.25           1448           2.00         2.00
  165.70        2966.50           1451           7.00         6.10
  165.73        2966.75           1455           8.00        10.46
  165.75        2967.00           1458           6.00         2.00
  165.78        2967.25           1461           4.00         2.00
  165.81        2967.50           1465           0.00         2.00
  165.83        2967.75           1468           8.00        10.46
  165.86        2968.00           1471           5.00         2.00
  165.89        2968.25           1475           8.00        10.46
  165.92        2968.50           1478           0.00         2.00
  165.94        2968.75           1481           5.00         2.00
  165.97        2969.00           1485           7.00         6.10
  166.00        2969.25           1488           6.00         2.00
  166.03        2969.50           1491           2.00         2.00
  166.05        2969.75           1495           4.00         2.00
  166.08        2970.00           1498           6.00         2.00
  166.11        2970.25           1501           7.00         6.10
  166.13        2970.50           1505           3.00         2.00
  166.16        2970.75           1508           9.00        14.82
  166.19        2971.00           1511           4.00         2.00
  166.22        2971.25           1515           6.00         2.00
  166.24        2971.50           1518           9.00        14.82
  166.27        2971.75           1521           7.00         6.10
  166.30        2972.00           1525           6.00         2.00
  166.32        2972.25           1528           6.00         2.00
  166.35        2972.50           1531           8.00        10.46
  166.38        2972.75           1535           4.00         2.00
  166.40        2973.00           1538           7.00         6.10
  166.43        2973.25           1541           6.00         2.00
  166.46        2973.50           1545           4.00         2.00
  166.49        2973.75           1548           4.00         2.00
  166.51        2974.00           1551           3.00         2.00
  166.54        2974.25           1555           6.00         2.00
  166.57        2974.50           1558           6.00         2.00
  166.59        2974.75           1561           2.00         2.00
  166.62        2975.00           1565           5.00         2.00
  166.65        2975.25           1568           8.00        10.46
  166.68        2975.50           1571           6.00         2.00
  166.70        2975.75           1575           6.00         2.00
  166.73        2976.00           1578           5.00         2.00
  166.76        2976.25           1581           4.00         2.00
  166.78        2976.50           1585           5.00         2.00
  166.81        2976.75           1588           6.00         2.00
  166.84        2977.00           1591           7.00         6.10
  166.87        2977.25           1595           6.00         2.00
  166.89        2977.50           1598           6.00         2.00
  166.92        2977.75           1601           3.00         2.00
  166.95        2978.00           1605           8.00        10.46
  166.97        2978.25           1608           3.00         2.00
  167.00        2978.50           1611           6.00         2.00
  167.03        2978.75           1615           7.00         6.10
  167.06        2979.00           1618           6.00         2.00
  167.08        2979.25           1621           8.00        10.46
  167.11        2979.50           1625           5.00         2.00
  167.14        2979.75           1628           4.00         2.00
  167.16        2980.00           1631           1.00         2.00
  167.19        2980.25           1635           4.00         2.00
  167.22        2980.50           1638           3.00         2.00
  167.25        2980.75           1641           7.00         6.10
  167.27        2981.00           1645           7.00         6.10
  167.30        2981.25           1648           3.00         2.00
  167.33        2981.50           1651           5.00         2.00
  167.35        2981.75           1655           6.00         2.00
  167.38        2982.00           1658           7.00         6.10
  167.41        2982.25           1661           8.00        10.46
  167.44        2982.50           1665           7.00         6.10
  167.46        2982.75           1668           6.00         2.00
  167.49        2983.00           1671           3.00         2.00
  167.52        2983.25           1675           4.00         2.00
  167.54        2983.50           1678           8.00        10.46
  167.57        2983.75           1681           2.00         2.00
  167.60        2984.00           1685           5.00         2.00
HS scan finished at 02:47:47
end
