************************************************************
  HS Scan of (1) Internal mercury lamp
************************************************************
Integration time is 0.2294 seconds per sample
dh150517Tamanrasset 22.79-5.529 3.246036pr865
************************************************************
Dead Time -------------------------  2.8E-08 
Number of Cycles Used -------------  4 
Starting Wavelength (Angstroms) ---  2950 
Final Wavelength (Angstoms) -------  2984 
Wavelength Increment (Angstroms) --  .25 
Filter Wheel #1 Position ---------- (1) Ground quartz diffuser (ND=2.32)
Filter Wheel #2 Position ---------- (1) Neutral Density 0.494



************************************************************
HS scan start time = 02:40:20
Dark Count =  5.5 


Time (GMT)  Wavelength (Ang)  Step Number  Raw Counts  Counts/Second

  160.69        2950.00           1233           8.00        10.90
  160.75        2950.25           1236           5.00         2.00
  160.78        2950.50           1239           7.00         6.54
  160.81        2950.75           1242           6.00         2.18
  160.83        2951.00           1246           5.00         2.00
  160.86        2951.25           1249           5.00         2.00
  160.89        2951.50           1252           7.00         6.54
  160.91        2951.75           1256           3.00         2.00
  160.94        2952.00           1259           3.00         2.00
  160.97        2952.25           1262           6.00         2.18
  161.00        2952.50           1266           7.00         6.54
  161.02        2952.75           1269           6.00         2.18
  161.05        2953.00           1272           5.00         2.00
  161.08        2953.25           1276           3.00         2.00
  161.10        2953.50           1279           5.00         2.00
  161.13        2953.75           1282           7.00         6.54
  161.16        2954.00           1286           5.00         2.00
  161.19        2954.25           1289           4.00         2.00
  161.21        2954.50           1292           2.00         2.00
  161.24        2954.75           1295           6.00         2.18
  161.27        2955.00           1299           6.00         2.18
  161.30        2955.25           1302           3.00         2.00
  161.32        2955.50           1305           6.00         2.18
  161.35        2955.75           1309           6.00         2.18
  161.38        2956.00           1312           8.00        10.90
  161.40        2956.25           1315           6.00         2.18
  161.43        2956.50           1319           3.00         2.00
  161.46        2956.75           1322           5.00         2.00
  161.49        2957.00           1325           3.00         2.00
  161.51        2957.25           1329           8.00        10.90
  161.54        2957.50           1332           7.00         6.54
  161.57        2957.75           1335           3.00         2.00
  161.59        2958.00           1339           5.00         2.00
  161.62        2958.25           1342           5.00         2.00
  161.65        2958.50           1345           7.00         6.54
  161.68        2958.75           1348           8.00        10.90
  161.70        2959.00           1352           7.00         6.54
  161.73        2959.25           1355           3.00         2.00
  161.76        2959.50           1358           4.00         2.00
  161.78        2959.75           1362           4.00         2.00
  161.81        2960.00           1365           8.00        10.90
  161.84        2960.25           1368           7.00         6.54
  161.87        2960.50           1372           5.00         2.00
  161.89        2960.75           1375           5.00         2.00
  161.92        2961.00           1378           9.00        15.26
  161.95        2961.25           1382           7.00         6.54
  161.97        2961.50           1385           3.00         2.00
  162.00        2961.75           1388           8.00        10.90
  162.03        2962.00           1392           3.00         2.00
  162.05        2962.25           1395           8.00        10.90
  162.08        2962.50           1398           6.00         2.18
  162.11        2962.75           1402           8.00        10.90
  162.14        2963.00           1405           6.00         2.18
  162.16        2963.25           1408           3.00         2.00
  162.19        2963.50           1412           8.00        10.90
  162.22        2963.75           1415           3.00         2.00
  162.25        2964.00           1418           5.00         2.00
  162.27        2964.25           1422           2.00         2.00
  162.30        2964.50           1425           3.00         2.00
  162.33        2964.75           1428           3.00         2.00
  162.36        2965.00           1431           6.00         2.18
  162.38        2965.25           1435           2.00         2.00
  162.41        2965.50           1438           5.00         2.00
  162.44        2965.75           1441           2.00         2.00
  162.46        2966.00           1445           0.00         2.00
  162.49        2966.25           1448           4.00         2.00
  162.52        2966.50           1451           8.00        10.90
  162.55        2966.75           1455           2.00         2.00
  162.57        2967.00           1458           3.00         2.00
  162.60        2967.25           1461           8.00        10.90
  162.63        2967.50           1465           4.00         2.00
  162.65        2967.75           1468           7.00         6.54
  162.68        2968.00           1471           7.00         6.54
  162.71        2968.25           1475           8.00        10.90
  162.73        2968.50           1478           5.00         2.00
  162.76        2968.75           1481           4.00         2.00
  162.79        2969.00           1485           3.00         2.00
  162.82        2969.25           1488           7.00         6.54
  162.84        2969.50           1491           5.00         2.00
  162.87        2969.75           1495           8.00        10.90
  162.90        2970.00           1498           1.00         2.00
  162.92        2970.25           1501           8.00        10.90
  162.95        2970.50           1505           7.00         6.54
  162.98        2970.75           1508           4.00         2.00
  163.01        2971.00           1511           7.00         6.54
  163.03        2971.25           1515           7.00         6.54
  163.06        2971.50           1518           6.00         2.18
  163.09        2971.75           1521           7.00         6.54
  163.11        2972.00           1525           4.00         2.00
  163.14        2972.25           1528           4.00         2.00
  163.17        2972.50           1531           6.00         2.18
  163.20        2972.75           1535           7.00         6.54
  163.22        2973.00           1538           4.00         2.00
  163.25        2973.25           1541           4.00         2.00
  163.28        2973.50           1545           6.00         2.18
  163.30        2973.75           1548           4.00         2.00
  163.33        2974.00           1551           5.00         2.00
  163.36        2974.25           1555           5.00         2.00
  163.39        2974.50           1558           6.00         2.18
  163.41        2974.75           1561           6.00         2.18
  163.44        2975.00           1565           5.00         2.00
  163.47        2975.25           1568           9.00        15.26
  163.49        2975.50           1571           5.00         2.00
  163.52        2975.75           1575           8.00        10.90
  163.55        2976.00           1578           5.00         2.00
  163.58        2976.25           1581           9.00        15.26
  163.60        2976.50           1585           6.00         2.18
  163.63        2976.75           1588           6.00         2.18
  163.66        2977.00           1591           5.00         2.00
  163.68        2977.25           1595           7.00         6.54
  163.71        2977.50           1598           4.00         2.00
  163.74        2977.75           1601           6.00         2.18
  163.77        2978.00           1605           7.00         6.54
  163.79        2978.25           1608           4.00         2.00
  163.82        2978.50           1611           7.00         6.54
  163.85        2978.75           1615           7.00         6.54
  163.87        2979.00           1618           3.00         2.00
  163.90        2979.25           1621           6.00         2.18
  163.93        2979.50           1625           7.00         6.54
  163.96        2979.75           1628           5.00         2.00
  163.98        2980.00           1631           8.00        10.90
  164.01        2980.25           1635           5.00         2.00
  164.04        2980.50           1638           4.00         2.00
  164.06        2980.75           1641           7.00         6.54
  164.09        2981.00           1645           6.00         2.18
  164.12        2981.25           1648           5.00         2.00
  164.15        2981.50           1651           4.00         2.00
  164.17        2981.75           1655           5.00         2.00
  164.20        2982.00           1658           6.00         2.18
  164.23        2982.25           1661           5.00         2.00
  164.25        2982.50           1665           5.00         2.00
  164.28        2982.75           1668           5.00         2.00
  164.31        2983.00           1671           6.00         2.18
  164.34        2983.25           1675           6.00         2.18
  164.36        2983.50           1678           9.00        15.26
  164.39        2983.75           1681           4.00         2.00
  164.42        2984.00           1685           8.00        10.90
HS scan finished at 02:44:36
end
