************************************************************
  HS Scan of (1) Internal mercury lamp
************************************************************
Integration time is 0.2294 seconds per sample
dh180517Tamanrasset 22.79-5.529 3.108382pr865
************************************************************
Dead Time -------------------------  2.8E-08 
Number of Cycles Used -------------  4 
Starting Wavelength (Angstroms) ---  2950 
Final Wavelength (Angstoms) -------  2984 
Wavelength Increment (Angstroms) --  .25 
Filter Wheel #1 Position ---------- (1) Ground quartz diffuser (ND=2.32)
Filter Wheel #2 Position ---------- (1) Neutral Density 0.494



************************************************************
HS scan start time = 02:38:20
Dark Count =  5.6 


Time (GMT)  Wavelength (Ang)  Step Number  Raw Counts  Counts/Second

  158.68        2950.00           1233           7.00         6.10
  158.75        2950.25           1236           8.00        10.46
  158.77        2950.50           1239           8.00        10.46
  158.80        2950.75           1242           4.00         2.00
  158.83        2951.00           1246           7.00         6.10
  158.86        2951.25           1249           0.00         2.00
  158.88        2951.50           1252           4.00         2.00
  158.91        2951.75           1256           2.00         2.00
  158.94        2952.00           1259           3.00         2.00
  158.96        2952.25           1262           8.00        10.46
  158.99        2952.50           1266           8.00        10.46
  159.02        2952.75           1269           8.00        10.46
  159.04        2953.00           1272           2.00         2.00
  159.07        2953.25           1276           2.00         2.00
  159.10        2953.50           1279           6.00         2.00
  159.13        2953.75           1282           0.00         2.00
  159.15        2954.00           1286           4.00         2.00
  159.18        2954.25           1289           5.00         2.00
  159.21        2954.50           1292           1.00         2.00
  159.23        2954.75           1295           5.00         2.00
  159.26        2955.00           1299           4.00         2.00
  159.29        2955.25           1302           7.00         6.10
  159.32        2955.50           1305           3.00         2.00
  159.34        2955.75           1309           6.00         2.00
  159.37        2956.00           1312           3.00         2.00
  159.40        2956.25           1315           6.00         2.00
  159.42        2956.50           1319           8.00        10.46
  159.45        2956.75           1322           3.00         2.00
  159.48        2957.00           1325           0.00         2.00
  159.51        2957.25           1329           6.00         2.00
  159.53        2957.50           1332           0.00         2.00
  159.56        2957.75           1335           0.00         2.00
  159.59        2958.00           1339           6.00         2.00
  159.61        2958.25           1342           6.00         2.00
  159.64        2958.50           1345           3.00         2.00
  159.67        2958.75           1348           5.00         2.00
  159.70        2959.00           1352           7.00         6.10
  159.72        2959.25           1355           4.00         2.00
  159.75        2959.50           1358           6.00         2.00
  159.78        2959.75           1362           6.00         2.00
  159.80        2960.00           1365           7.00         6.10
  159.83        2960.25           1368           5.00         2.00
  159.86        2960.50           1372           4.00         2.00
  159.89        2960.75           1375           8.00        10.46
  159.91        2961.00           1378           7.00         6.10
  159.94        2961.25           1382           8.00        10.46
  159.97        2961.50           1385           8.00        10.46
  159.99        2961.75           1388           8.00        10.46
  160.02        2962.00           1392           3.00         2.00
  160.05        2962.25           1395           6.00         2.00
  160.08        2962.50           1398           5.00         2.00
  160.10        2962.75           1402           6.00         2.00
  160.13        2963.00           1405           5.00         2.00
  160.16        2963.25           1408           3.00         2.00
  160.18        2963.50           1412           6.00         2.00
  160.21        2963.75           1415           3.00         2.00
  160.24        2964.00           1418           1.00         2.00
  160.27        2964.25           1422           6.00         2.00
  160.29        2964.50           1425           2.00         2.00
  160.32        2964.75           1428           7.00         6.10
  160.35        2965.00           1431           7.00         6.10
  160.37        2965.25           1435           5.00         2.00
  160.40        2965.50           1438           5.00         2.00
  160.43        2965.75           1441           4.00         2.00
  160.46        2966.00           1445           1.00         2.00
  160.48        2966.25           1448           1.00         2.00
  160.51        2966.50           1451           3.00         2.00
  160.54        2966.75           1455           8.00        10.46
  160.56        2967.00           1458           5.00         2.00
  160.59        2967.25           1461           3.00         2.00
  160.62        2967.50           1465           7.00         6.10
  160.65        2967.75           1468           6.00         2.00
  160.67        2968.00           1471           5.00         2.00
  160.70        2968.25           1475           3.00         2.00
  160.73        2968.50           1478           4.00         2.00
  160.75        2968.75           1481           6.00         2.00
  160.78        2969.00           1485           3.00         2.00
  160.81        2969.25           1488           5.00         2.00
  160.83        2969.50           1491           6.00         2.00
  160.86        2969.75           1495           4.00         2.00
  160.89        2970.00           1498           3.00         2.00
  160.92        2970.25           1501           4.00         2.00
  160.94        2970.50           1505           8.00        10.46
  160.97        2970.75           1508           1.00         2.00
  161.00        2971.00           1511           8.00        10.46
  161.02        2971.25           1515           1.00         2.00
  161.05        2971.50           1518           3.00         2.00
  161.08        2971.75           1521           3.00         2.00
  161.11        2972.00           1525           6.00         2.00
  161.13        2972.25           1528           3.00         2.00
  161.16        2972.50           1531           7.00         6.10
  161.19        2972.75           1535           2.00         2.00
  161.21        2973.00           1538           6.00         2.00
  161.24        2973.25           1541           2.00         2.00
  161.27        2973.50           1545           5.00         2.00
  161.30        2973.75           1548           6.00         2.00
  161.32        2974.00           1551           5.00         2.00
  161.35        2974.25           1555           0.00         2.00
  161.38        2974.50           1558           0.00         2.00
  161.40        2974.75           1561           3.00         2.00
  161.43        2975.00           1565           7.00         6.10
  161.46        2975.25           1568           7.00         6.10
  161.49        2975.50           1571           5.00         2.00
  161.51        2975.75           1575           4.00         2.00
  161.54        2976.00           1578           5.00         2.00
  161.57        2976.25           1581           7.00         6.10
  161.59        2976.50           1585           2.00         2.00
  161.62        2976.75           1588           4.00         2.00
  161.65        2977.00           1591           3.00         2.00
  161.68        2977.25           1595           6.00         2.00
  161.70        2977.50           1598           6.00         2.00
  161.73        2977.75           1601           5.00         2.00
  161.76        2978.00           1605           0.00         2.00
  161.78        2978.25           1608           5.00         2.00
  161.81        2978.50           1611           3.00         2.00
  161.84        2978.75           1615           4.00         2.00
  161.87        2979.00           1618           6.00         2.00
  161.89        2979.25           1621           5.00         2.00
  161.92        2979.50           1625           8.00        10.46
  161.95        2979.75           1628           8.00        10.46
  161.97        2980.00           1631           4.00         2.00
  162.00        2980.25           1635           5.00         2.00
  162.03        2980.50           1638           1.00         2.00
  162.06        2980.75           1641           6.00         2.00
  162.08        2981.00           1645           5.00         2.00
  162.11        2981.25           1648           0.00         2.00
  162.14        2981.50           1651           7.00         6.10
  162.16        2981.75           1655           3.00         2.00
  162.19        2982.00           1658           1.00         2.00
  162.22        2982.25           1661           1.00         2.00
  162.25        2982.50           1665           7.00         6.10
  162.27        2982.75           1668           8.00        10.46
  162.30        2983.00           1671           5.00         2.00
  162.33        2983.25           1675           8.00        10.46
  162.35        2983.50           1678           7.00         6.10
  162.38        2983.75           1681           7.00         6.10
  162.41        2984.00           1685           6.00         2.00
HS scan finished at 02:42:36
end
