************************************************************
  HS Scan of (1) Internal mercury lamp
************************************************************
Integration time is 0.2294 seconds per sample
dh120517Tamanrasset 22.79-5.529 3.383691pr865
************************************************************
Dead Time -------------------------  2.8E-08 
Number of Cycles Used -------------  4 
Starting Wavelength (Angstroms) ---  2950 
Final Wavelength (Angstoms) -------  2984 
Wavelength Increment (Angstroms) --  .25 
Filter Wheel #1 Position ---------- (1) Ground quartz diffuser (ND=2.32)
Filter Wheel #2 Position ---------- (1) Neutral Density 0.494



************************************************************
HS scan start time = 02:41:28
Dark Count =  6.3 


Time (GMT)  Wavelength (Ang)  Step Number  Raw Counts  Counts/Second

  161.83        2950.00           1233           8.00         7.41
  161.89        2950.25           1236           7.00         3.05
  161.92        2950.50           1239           4.00         2.00
  161.94        2950.75           1242           5.00         2.00
  161.97        2951.00           1246           9.00        11.77
  162.00        2951.25           1249           5.00         2.00
  162.02        2951.50           1252           5.00         2.00
  162.05        2951.75           1256           7.00         3.05
  162.08        2952.00           1259           8.00         7.41
  162.11        2952.25           1262           7.00         3.05
  162.13        2952.50           1266           8.00         7.41
  162.16        2952.75           1269           6.00         2.00
  162.19        2953.00           1272           6.00         2.00
  162.21        2953.25           1276           4.00         2.00
  162.24        2953.50           1279           8.00         7.41
  162.27        2953.75           1282           7.00         3.05
  162.29        2954.00           1286           8.00         7.41
  162.32        2954.25           1289           9.00        11.77
  162.35        2954.50           1292           8.00         7.41
  162.38        2954.75           1295           8.00         7.41
  162.40        2955.00           1299           4.00         2.00
  162.43        2955.25           1302           7.00         3.05
  162.46        2955.50           1305           6.00         2.00
  162.48        2955.75           1309           7.00         3.05
  162.51        2956.00           1312           4.00         2.00
  162.54        2956.25           1315           7.00         3.05
  162.57        2956.50           1319           4.00         2.00
  162.59        2956.75           1322           9.00        11.77
  162.62        2957.00           1325           8.00         7.41
  162.65        2957.25           1329           6.00         2.00
  162.68        2957.50           1332           6.00         2.00
  162.70        2957.75           1335           7.00         3.05
  162.73        2958.00           1339           6.00         2.00
  162.76        2958.25           1342           7.00         3.05
  162.78        2958.50           1345           8.00         7.41
  162.81        2958.75           1348           6.00         2.00
  162.84        2959.00           1352           6.00         2.00
  162.86        2959.25           1355           5.00         2.00
  162.89        2959.50           1358           6.00         2.00
  162.92        2959.75           1362           8.00         7.41
  162.95        2960.00           1365           5.00         2.00
  162.97        2960.25           1368           4.00         2.00
  163.00        2960.50           1372           5.00         2.00
  163.03        2960.75           1375           6.00         2.00
  163.05        2961.00           1378           4.00         2.00
  163.08        2961.25           1382           8.00         7.41
  163.11        2961.50           1385           6.00         2.00
  163.14        2961.75           1388           7.00         3.05
  163.16        2962.00           1392           5.00         2.00
  163.19        2962.25           1395           8.00         7.41
  163.22        2962.50           1398           5.00         2.00
  163.24        2962.75           1402           5.00         2.00
  163.27        2963.00           1405           7.00         3.05
  163.30        2963.25           1408           8.00         7.41
  163.33        2963.50           1412           9.00        11.77
  163.35        2963.75           1415           7.00         3.05
  163.38        2964.00           1418           8.00         7.41
  163.41        2964.25           1422           8.00         7.41
  163.43        2964.50           1425           5.00         2.00
  163.46        2964.75           1428           7.00         3.05
  163.49        2965.00           1431           6.00         2.00
  163.52        2965.25           1435           6.00         2.00
  163.54        2965.50           1438           5.00         2.00
  163.57        2965.75           1441           8.00         7.41
  163.60        2966.00           1445           8.00         7.41
  163.62        2966.25           1448           5.00         2.00
  163.65        2966.50           1451           7.00         3.05
  163.68        2966.75           1455           5.00         2.00
  163.71        2967.00           1458           7.00         3.05
  163.73        2967.25           1461           5.00         2.00
  163.76        2967.50           1465           1.00         2.00
  163.79        2967.75           1468           8.00         7.41
  163.81        2968.00           1471           5.00         2.00
  163.84        2968.25           1475           7.00         3.05
  163.87        2968.50           1478           7.00         3.05
  163.90        2968.75           1481           2.00         2.00
  163.92        2969.00           1485           6.00         2.00
  163.95        2969.25           1488           6.00         2.00
  163.98        2969.50           1491           7.00         3.05
  164.00        2969.75           1495           7.00         3.05
  164.03        2970.00           1498           6.00         2.00
  164.06        2970.25           1501           7.00         3.05
  164.09        2970.50           1505           5.00         2.00
  164.11        2970.75           1508           2.00         2.00
  164.14        2971.00           1511           6.00         2.00
  164.17        2971.25           1515           5.00         2.00
  164.19        2971.50           1518           8.00         7.41
  164.22        2971.75           1521           6.00         2.00
  164.25        2972.00           1525           6.00         2.00
  164.28        2972.25           1528           4.00         2.00
  164.30        2972.50           1531           4.00         2.00
  164.33        2972.75           1535           5.00         2.00
  164.36        2973.00           1538           8.00         7.41
  164.38        2973.25           1541           4.00         2.00
  164.41        2973.50           1545           6.00         2.00
  164.44        2973.75           1548           7.00         3.05
  164.47        2974.00           1551           5.00         2.00
  164.49        2974.25           1555           4.00         2.00
  164.52        2974.50           1558           6.00         2.00
  164.55        2974.75           1561           7.00         3.05
  164.57        2975.00           1565           6.00         2.00
  164.60        2975.25           1568           7.00         3.05
  164.63        2975.50           1571           8.00         7.41
  164.66        2975.75           1575           7.00         3.05
  164.68        2976.00           1578           6.00         2.00
  164.71        2976.25           1581           6.00         2.00
  164.74        2976.50           1585           7.00         3.05
  164.76        2976.75           1588           8.00         7.41
  164.79        2977.00           1591           7.00         3.05
  164.82        2977.25           1595           8.00         7.41
  164.84        2977.50           1598           3.00         2.00
  164.87        2977.75           1601           7.00         3.05
  164.90        2978.00           1605           7.00         3.05
  164.93        2978.25           1608           7.00         3.05
  164.95        2978.50           1611           7.00         3.05
  164.98        2978.75           1615           8.00         7.41
  165.01        2979.00           1618           8.00         7.41
  165.04        2979.25           1621           6.00         2.00
  165.06        2979.50           1625           4.00         2.00
  165.09        2979.75           1628           7.00         3.05
  165.12        2980.00           1631           5.00         2.00
  165.14        2980.25           1635           5.00         2.00
  165.17        2980.50           1638           5.00         2.00
  165.20        2980.75           1641           3.00         2.00
  165.22        2981.00           1645           7.00         3.05
  165.25        2981.25           1648           5.00         2.00
  165.28        2981.50           1651           5.00         2.00
  165.31        2981.75           1655           6.00         2.00
  165.33        2982.00           1658           3.00         2.00
  165.36        2982.25           1661           6.00         2.00
  165.39        2982.50           1665           7.00         3.05
  165.41        2982.75           1668           4.00         2.00
  165.44        2983.00           1671           4.00         2.00
  165.47        2983.25           1675           7.00         3.05
  165.50        2983.50           1678           6.00         2.00
  165.52        2983.75           1681           6.00         2.00
  165.55        2984.00           1685           5.00         2.00
HS scan finished at 02:45:44
end
