************************************************************
  HS Scan of (1) Internal mercury lamp
************************************************************
Integration time is 0.2294 seconds per sample
dh100517Tamanrasset 22.79-5.529 3.103284pr865
************************************************************
Dead Time -------------------------  2.8E-08 
Number of Cycles Used -------------  4 
Starting Wavelength (Angstroms) ---  2950 
Final Wavelength (Angstoms) -------  2984 
Wavelength Increment (Angstroms) --  .25 
Filter Wheel #1 Position ---------- (1) Ground quartz diffuser (ND=2.32)
Filter Wheel #2 Position ---------- (1) Neutral Density 0.494



************************************************************
HS scan start time = 02:42:17
Dark Count =  4.4 


Time (GMT)  Wavelength (Ang)  Step Number  Raw Counts  Counts/Second

  162.65        2950.00           1233           7.00        11.33
  162.71        2950.25           1236           0.00         2.00
  162.74        2950.50           1239           4.00         2.00
  162.76        2950.75           1242           4.00         2.00
  162.79        2951.00           1246           2.00         2.00
  162.82        2951.25           1249           5.00         2.62
  162.85        2951.50           1252           4.00         2.00
  162.87        2951.75           1256           4.00         2.00
  162.90        2952.00           1259           3.00         2.00
  162.93        2952.25           1262           6.00         6.97
  162.95        2952.50           1266           3.00         2.00
  162.98        2952.75           1269           5.00         2.62
  163.01        2953.00           1272           2.00         2.00
  163.04        2953.25           1276           3.00         2.00
  163.06        2953.50           1279           6.00         6.97
  163.09        2953.75           1282           5.00         2.62
  163.12        2954.00           1286           8.00        15.69
  163.14        2954.25           1289           4.00         2.00
  163.17        2954.50           1292           4.00         2.00
  163.20        2954.75           1295           6.00         6.97
  163.23        2955.00           1299           6.00         6.97
  163.25        2955.25           1302           5.00         2.62
  163.28        2955.50           1305           4.00         2.00
  163.31        2955.75           1309           5.00         2.62
  163.33        2956.00           1312           9.00        20.05
  163.36        2956.25           1315           4.00         2.00
  163.39        2956.50           1319           4.00         2.00
  163.42        2956.75           1322           7.00        11.33
  163.44        2957.00           1325           0.00         2.00
  163.47        2957.25           1329           5.00         2.62
  163.50        2957.50           1332           4.00         2.00
  163.52        2957.75           1335           3.00         2.00
  163.55        2958.00           1339           8.00        15.69
  163.58        2958.25           1342           5.00         2.62
  163.61        2958.50           1345           7.00        11.33
  163.63        2958.75           1348           6.00         6.97
  163.66        2959.00           1352           6.00         6.97
  163.69        2959.25           1355           4.00         2.00
  163.71        2959.50           1358           6.00         6.97
  163.74        2959.75           1362           3.00         2.00
  163.77        2960.00           1365           6.00         6.97
  163.80        2960.25           1368           2.00         2.00
  163.82        2960.50           1372           7.00        11.33
  163.85        2960.75           1375           6.00         6.97
  163.88        2961.00           1378           8.00        15.69
  163.90        2961.25           1382           4.00         2.00
  163.93        2961.50           1385           7.00        11.33
  163.96        2961.75           1388           3.00         2.00
  163.99        2962.00           1392           2.00         2.00
  164.01        2962.25           1395           2.00         2.00
  164.04        2962.50           1398           6.00         6.97
  164.07        2962.75           1402           8.00        15.69
  164.09        2963.00           1405           6.00         6.97
  164.12        2963.25           1408           3.00         2.00
  164.15        2963.50           1412           6.00         6.97
  164.17        2963.75           1415           5.00         2.62
  164.20        2964.00           1418           2.00         2.00
  164.23        2964.25           1422           3.00         2.00
  164.26        2964.50           1425           6.00         6.97
  164.28        2964.75           1428           4.00         2.00
  164.31        2965.00           1431           7.00        11.33
  164.34        2965.25           1435           4.00         2.00
  164.36        2965.50           1438           6.00         6.97
  164.39        2965.75           1441           5.00         2.62
  164.42        2966.00           1445           1.00         2.00
  164.45        2966.25           1448           8.00        15.69
  164.47        2966.50           1451           2.00         2.00
  164.50        2966.75           1455           2.00         2.00
  164.53        2967.00           1458           0.00         2.00
  164.56        2967.25           1461           7.00        11.33
  164.58        2967.50           1465           3.00         2.00
  164.61        2967.75           1468           0.00         2.00
  164.64        2968.00           1471           7.00        11.33
  164.66        2968.25           1475           8.00        15.69
  164.69        2968.50           1478           8.00        15.69
  164.72        2968.75           1481           5.00         2.62
  164.74        2969.00           1485           5.00         2.62
  164.77        2969.25           1488           7.00        11.33
  164.80        2969.50           1491           6.00         6.97
  164.83        2969.75           1495           5.00         2.62
  164.85        2970.00           1498           7.00        11.33
  164.88        2970.25           1501           3.00         2.00
  164.91        2970.50           1505           4.00         2.00
  164.93        2970.75           1508           8.00        15.69
  164.96        2971.00           1511           6.00         6.97
  164.99        2971.25           1515           5.00         2.62
  165.02        2971.50           1518           6.00         6.97
  165.04        2971.75           1521           5.00         2.62
  165.07        2972.00           1525           4.00         2.00
  165.10        2972.25           1528           8.00        15.69
  165.12        2972.50           1531           2.00         2.00
  165.15        2972.75           1535           5.00         2.62
  165.18        2973.00           1538           1.00         2.00
  165.21        2973.25           1541           3.00         2.00
  165.23        2973.50           1545           5.00         2.62
  165.26        2973.75           1548           4.00         2.00
  165.29        2974.00           1551           0.00         2.00
  165.32        2974.25           1555           4.00         2.00
  165.34        2974.50           1558           5.00         2.62
  165.37        2974.75           1561           3.00         2.00
  165.40        2975.00           1565           3.00         2.00
  165.42        2975.25           1568           1.00         2.00
  165.45        2975.50           1571           5.00         2.62
  165.48        2975.75           1575           4.00         2.00
  165.50        2976.00           1578           1.00         2.00
  165.53        2976.25           1581           7.00        11.33
  165.56        2976.50           1585           9.00        20.05
  165.59        2976.75           1588           8.00        15.69
  165.61        2977.00           1591           7.00        11.33
  165.64        2977.25           1595           6.00         6.97
  165.67        2977.50           1598           2.00         2.00
  165.69        2977.75           1601           4.00         2.00
  165.72        2978.00           1605           4.00         2.00
  165.75        2978.25           1608           2.00         2.00
  165.78        2978.50           1611           3.00         2.00
  165.80        2978.75           1615           5.00         2.62
  165.83        2979.00           1618           6.00         6.97
  165.86        2979.25           1621           2.00         2.00
  165.88        2979.50           1625           5.00         2.62
  165.91        2979.75           1628           7.00        11.33
  165.94        2980.00           1631           7.00        11.33
  165.97        2980.25           1635           4.00         2.00
  165.99        2980.50           1638           8.00        15.69
  166.02        2980.75           1641           0.00         2.00
  166.05        2981.00           1645           4.00         2.00
  166.07        2981.25           1648           7.00        11.33
  166.10        2981.50           1651           3.00         2.00
  166.13        2981.75           1655           6.00         6.97
  166.16        2982.00           1658           0.00         2.00
  166.18        2982.25           1661           6.00         6.97
  166.21        2982.50           1665           0.00         2.00
  166.24        2982.75           1668           5.00         2.62
  166.26        2983.00           1671           5.00         2.62
  166.29        2983.25           1675           5.00         2.62
  166.32        2983.50           1678           8.00        15.69
  166.35        2983.75           1681           6.00         6.97
  166.37        2984.00           1685           3.00         2.00
HS scan finished at 02:46:34
end
