************************************************************
  HS Scan of (1) Internal mercury lamp
************************************************************
Integration time is 0.2294 seconds per sample
dh190517Tamanrasset 22.79-5.529 3.281725pr865
************************************************************
Dead Time -------------------------  2.8E-08 
Number of Cycles Used -------------  4 
Starting Wavelength (Angstroms) ---  2950 
Final Wavelength (Angstoms) -------  2984 
Wavelength Increment (Angstroms) --  .25 
Filter Wheel #1 Position ---------- (1) Ground quartz diffuser (ND=2.32)
Filter Wheel #2 Position ---------- (1) Neutral Density 0.494



************************************************************
HS scan start time = 02:38:19
Dark Count =  6.4 


Time (GMT)  Wavelength (Ang)  Step Number  Raw Counts  Counts/Second

  158.68        2950.00           1233           2.00         2.00
  158.74        2950.25           1236           9.00        11.33
  158.77        2950.50           1239           6.00         2.00
  158.80        2950.75           1242           5.00         2.00
  158.82        2951.00           1246           9.00        11.33
  158.85        2951.25           1249           7.00         2.62
  158.88        2951.50           1252           5.00         2.00
  158.90        2951.75           1256           7.00         2.62
  158.93        2952.00           1259           4.00         2.00
  158.96        2952.25           1262           5.00         2.00
  158.99        2952.50           1266           6.00         2.00
  159.01        2952.75           1269           6.00         2.00
  159.04        2953.00           1272           3.00         2.00
  159.07        2953.25           1276           7.00         2.62
  159.09        2953.50           1279           5.00         2.00
  159.12        2953.75           1282           7.00         2.62
  159.15        2954.00           1286           4.00         2.00
  159.17        2954.25           1289           4.00         2.00
  159.20        2954.50           1292           4.00         2.00
  159.23        2954.75           1295           7.00         2.62
  159.26        2955.00           1299           9.00        11.33
  159.28        2955.25           1302           8.00         6.97
  159.31        2955.50           1305           6.00         2.00
  159.34        2955.75           1309           3.00         2.00
  159.36        2956.00           1312           5.00         2.00
  159.39        2956.25           1315           4.00         2.00
  159.42        2956.50           1319           7.00         2.62
  159.45        2956.75           1322           7.00         2.62
  159.47        2957.00           1325           8.00         6.97
  159.50        2957.25           1329           4.00         2.00
  159.53        2957.50           1332           7.00         2.62
  159.55        2957.75           1335           7.00         2.62
  159.58        2958.00           1339           3.00         2.00
  159.61        2958.25           1342           4.00         2.00
  159.64        2958.50           1345           7.00         2.62
  159.66        2958.75           1348           7.00         2.62
  159.69        2959.00           1352           5.00         2.00
  159.72        2959.25           1355           8.00         6.97
  159.74        2959.50           1358           6.00         2.00
  159.77        2959.75           1362           5.00         2.00
  159.80        2960.00           1365           5.00         2.00
  159.83        2960.25           1368           6.00         2.00
  159.85        2960.50           1372           8.00         6.97
  159.88        2960.75           1375           2.00         2.00
  159.91        2961.00           1378           7.00         2.62
  159.93        2961.25           1382           6.00         2.00
  159.96        2961.50           1385           4.00         2.00
  159.99        2961.75           1388           7.00         2.62
  160.02        2962.00           1392           4.00         2.00
  160.04        2962.25           1395           0.00         2.00
  160.07        2962.50           1398           4.00         2.00
  160.10        2962.75           1402           8.00         6.97
  160.12        2963.00           1405           8.00         6.97
  160.15        2963.25           1408           9.00        11.33
  160.18        2963.50           1412           7.00         2.62
  160.21        2963.75           1415           6.00         2.00
  160.23        2964.00           1418           1.00         2.00
  160.26        2964.25           1422           4.00         2.00
  160.29        2964.50           1425           4.00         2.00
  160.31        2964.75           1428           5.00         2.00
  160.34        2965.00           1431           5.00         2.00
  160.37        2965.25           1435           5.00         2.00
  160.40        2965.50           1438           4.00         2.00
  160.42        2965.75           1441           6.00         2.00
  160.45        2966.00           1445           6.00         2.00
  160.48        2966.25           1448           5.00         2.00
  160.50        2966.50           1451           5.00         2.00
  160.53        2966.75           1455           2.00         2.00
  160.56        2967.00           1458           7.00         2.62
  160.59        2967.25           1461           4.00         2.00
  160.61        2967.50           1465           5.00         2.00
  160.64        2967.75           1468           6.00         2.00
  160.67        2968.00           1471           5.00         2.00
  160.69        2968.25           1475           6.00         2.00
  160.72        2968.50           1478           2.00         2.00
  160.75        2968.75           1481           6.00         2.00
  160.78        2969.00           1485           4.00         2.00
  160.80        2969.25           1488           4.00         2.00
  160.83        2969.50           1491           0.00         2.00
  160.86        2969.75           1495           4.00         2.00
  160.88        2970.00           1498           6.00         2.00
  160.91        2970.25           1501           7.00         2.62
  160.94        2970.50           1505           8.00         6.97
  160.97        2970.75           1508           8.00         6.97
  160.99        2971.00           1511           5.00         2.00
  161.02        2971.25           1515           7.00         2.62
  161.05        2971.50           1518           5.00         2.00
  161.07        2971.75           1521           5.00         2.00
  161.10        2972.00           1525           5.00         2.00
  161.13        2972.25           1528           4.00         2.00
  161.16        2972.50           1531           4.00         2.00
  161.18        2972.75           1535           7.00         2.62
  161.21        2973.00           1538           9.00        11.33
  161.24        2973.25           1541           8.00         6.97
  161.26        2973.50           1545           4.00         2.00
  161.29        2973.75           1548           6.00         2.00
  161.32        2974.00           1551           2.00         2.00
  161.34        2974.25           1555           6.00         2.00
  161.37        2974.50           1558           4.00         2.00
  161.40        2974.75           1561           4.00         2.00
  161.43        2975.00           1565           4.00         2.00
  161.45        2975.25           1568           6.00         2.00
  161.48        2975.50           1571           3.00         2.00
  161.51        2975.75           1575           7.00         2.62
  161.53        2976.00           1578           8.00         6.97
  161.56        2976.25           1581           5.00         2.00
  161.59        2976.50           1585           5.00         2.00
  161.62        2976.75           1588           3.00         2.00
  161.64        2977.00           1591           4.00         2.00
  161.67        2977.25           1595           5.00         2.00
  161.70        2977.50           1598           6.00         2.00
  161.72        2977.75           1601           6.00         2.00
  161.75        2978.00           1605           3.00         2.00
  161.78        2978.25           1608           5.00         2.00
  161.81        2978.50           1611           9.00        11.33
  161.83        2978.75           1615           7.00         2.62
  161.86        2979.00           1618           8.00         6.97
  161.89        2979.25           1621           3.00         2.00
  161.91        2979.50           1625           7.00         2.62
  161.94        2979.75           1628           6.00         2.00
  161.97        2980.00           1631           7.00         2.62
  162.00        2980.25           1635           7.00         2.62
  162.02        2980.50           1638           7.00         2.62
  162.05        2980.75           1641           6.00         2.00
  162.08        2981.00           1645           2.00         2.00
  162.10        2981.25           1648           5.00         2.00
  162.13        2981.50           1651           5.00         2.00
  162.16        2981.75           1655           5.00         2.00
  162.19        2982.00           1658           7.00         2.62
  162.21        2982.25           1661           5.00         2.00
  162.24        2982.50           1665           5.00         2.00
  162.27        2982.75           1668           6.00         2.00
  162.30        2983.00           1671           6.00         2.00
  162.32        2983.25           1675           4.00         2.00
  162.35        2983.50           1678           5.00         2.00
  162.38        2983.75           1681           4.00         2.00
  162.40        2984.00           1685           5.00         2.00
HS scan finished at 02:42:35
end
