************************************************************
  HS Scan of (1) Internal mercury lamp
************************************************************
Integration time is 0.2294 seconds per sample
dh110517Tamanrasset 22.79-5.529 3.14407pr865
************************************************************
Dead Time -------------------------  2.8E-08 
Number of Cycles Used -------------  4 
Starting Wavelength (Angstroms) ---  2950 
Final Wavelength (Angstoms) -------  2984 
Wavelength Increment (Angstroms) --  .25 
Filter Wheel #1 Position ---------- (1) Ground quartz diffuser (ND=2.32)
Filter Wheel #2 Position ---------- (1) Neutral Density 0.494



************************************************************
HS scan start time = 02:42:28
Dark Count =  4.9 


Time (GMT)  Wavelength (Ang)  Step Number  Raw Counts  Counts/Second

  162.82        2950.00           1233           5.00         2.00
  162.89        2950.25           1236           7.00         9.15
  162.91        2950.50           1239           6.00         4.80
  162.94        2950.75           1242           3.00         2.00
  162.97        2951.00           1246           7.00         9.15
  163.00        2951.25           1249           8.00        13.51
  163.02        2951.50           1252           6.00         4.80
  163.05        2951.75           1256           2.00         2.00
  163.08        2952.00           1259           5.00         2.00
  163.10        2952.25           1262           3.00         2.00
  163.13        2952.50           1266           5.00         2.00
  163.16        2952.75           1269           7.00         9.15
  163.18        2953.00           1272           4.00         2.00
  163.21        2953.25           1276           5.00         2.00
  163.24        2953.50           1279           4.00         2.00
  163.27        2953.75           1282           2.00         2.00
  163.29        2954.00           1286           3.00         2.00
  163.32        2954.25           1289           6.00         4.80
  163.35        2954.50           1292           8.00        13.51
  163.37        2954.75           1295           4.00         2.00
  163.40        2955.00           1299           5.00         2.00
  163.43        2955.25           1302           4.00         2.00
  163.46        2955.50           1305           5.00         2.00
  163.48        2955.75           1309           6.00         4.80
  163.51        2956.00           1312           7.00         9.15
  163.54        2956.25           1315           0.00         2.00
  163.57        2956.50           1319           3.00         2.00
  163.59        2956.75           1322           3.00         2.00
  163.62        2957.00           1325           0.00         2.00
  163.65        2957.25           1329           1.00         2.00
  163.67        2957.50           1332           7.00         9.15
  163.70        2957.75           1335           0.00         2.00
  163.73        2958.00           1339           6.00         4.80
  163.75        2958.25           1342           3.00         2.00
  163.78        2958.50           1345           5.00         2.00
  163.81        2958.75           1348           6.00         4.80
  163.84        2959.00           1352           7.00         9.15
  163.86        2959.25           1355           7.00         9.15
  163.89        2959.50           1358           5.00         2.00
  163.92        2959.75           1362           7.00         9.15
  163.94        2960.00           1365           6.00         4.80
  163.97        2960.25           1368           4.00         2.00
  164.00        2960.50           1372           8.00        13.51
  164.03        2960.75           1375           5.00         2.00
  164.05        2961.00           1378           5.00         2.00
  164.08        2961.25           1382           3.00         2.00
  164.11        2961.50           1385           4.00         2.00
  164.14        2961.75           1388           7.00         9.15
  164.16        2962.00           1392           5.00         2.00
  164.19        2962.25           1395           5.00         2.00
  164.22        2962.50           1398           5.00         2.00
  164.24        2962.75           1402           3.00         2.00
  164.27        2963.00           1405           2.00         2.00
  164.30        2963.25           1408           6.00         4.80
  164.33        2963.50           1412           7.00         9.15
  164.35        2963.75           1415           5.00         2.00
  164.38        2964.00           1418           6.00         4.80
  164.41        2964.25           1422           4.00         2.00
  164.43        2964.50           1425           6.00         4.80
  164.46        2964.75           1428           4.00         2.00
  164.49        2965.00           1431           5.00         2.00
  164.52        2965.25           1435           4.00         2.00
  164.54        2965.50           1438           4.00         2.00
  164.57        2965.75           1441           1.00         2.00
  164.60        2966.00           1445           6.00         4.80
  164.62        2966.25           1448           8.00        13.51
  164.65        2966.50           1451           6.00         4.80
  164.68        2966.75           1455           5.00         2.00
  164.70        2967.00           1458           7.00         9.15
  164.73        2967.25           1461           3.00         2.00
  164.76        2967.50           1465           7.00         9.15
  164.79        2967.75           1468           8.00        13.51
  164.81        2968.00           1471           5.00         2.00
  164.84        2968.25           1475           5.00         2.00
  164.87        2968.50           1478           3.00         2.00
  164.89        2968.75           1481           5.00         2.00
  164.92        2969.00           1485           7.00         9.15
  164.95        2969.25           1488           5.00         2.00
  164.98        2969.50           1491           3.00         2.00
  165.00        2969.75           1495           4.00         2.00
  165.03        2970.00           1498           2.00         2.00
  165.06        2970.25           1501           7.00         9.15
  165.08        2970.50           1505           0.00         2.00
  165.11        2970.75           1508           3.00         2.00
  165.14        2971.00           1511           2.00         2.00
  165.17        2971.25           1515           3.00         2.00
  165.19        2971.50           1518           4.00         2.00
  165.22        2971.75           1521           7.00         9.15
  165.25        2972.00           1525           4.00         2.00
  165.27        2972.25           1528           0.00         2.00
  165.30        2972.50           1531           2.00         2.00
  165.33        2972.75           1535           8.00        13.51
  165.36        2973.00           1538           3.00         2.00
  165.38        2973.25           1541           0.00         2.00
  165.41        2973.50           1545           6.00         4.80
  165.44        2973.75           1548           3.00         2.00
  165.46        2974.00           1551           6.00         4.80
  165.49        2974.25           1555           1.00         2.00
  165.52        2974.50           1558           4.00         2.00
  165.55        2974.75           1561           2.00         2.00
  165.57        2975.00           1565           6.00         4.80
  165.60        2975.25           1568           4.00         2.00
  165.63        2975.50           1571           8.00        13.51
  165.65        2975.75           1575           7.00         9.15
  165.68        2976.00           1578           6.00         4.80
  165.71        2976.25           1581           5.00         2.00
  165.74        2976.50           1585           5.00         2.00
  165.76        2976.75           1588           8.00        13.51
  165.79        2977.00           1591           8.00        13.51
  165.82        2977.25           1595           4.00         2.00
  165.84        2977.50           1598           1.00         2.00
  165.87        2977.75           1601           6.00         4.80
  165.90        2978.00           1605           6.00         4.80
  165.93        2978.25           1608           6.00         4.80
  165.95        2978.50           1611           4.00         2.00
  165.98        2978.75           1615           5.00         2.00
  166.01        2979.00           1618           8.00        13.51
  166.03        2979.25           1621           1.00         2.00
  166.06        2979.50           1625           3.00         2.00
  166.09        2979.75           1628           7.00         9.15
  166.12        2980.00           1631           5.00         2.00
  166.14        2980.25           1635           5.00         2.00
  166.17        2980.50           1638           5.00         2.00
  166.20        2980.75           1641           6.00         4.80
  166.22        2981.00           1645           8.00        13.51
  166.25        2981.25           1648           7.00         9.15
  166.28        2981.50           1651           1.00         2.00
  166.31        2981.75           1655           6.00         4.80
  166.33        2982.00           1658           7.00         9.15
  166.36        2982.25           1661           7.00         9.15
  166.39        2982.50           1665           6.00         4.80
  166.41        2982.75           1668           8.00        13.51
  166.44        2983.00           1671           5.00         2.00
  166.47        2983.25           1675           7.00         9.15
  166.49        2983.50           1678           3.00         2.00
  166.52        2983.75           1681           7.00         9.15
  166.55        2984.00           1685           7.00         9.15
HS scan finished at 02:46:44
end
