************************************************************
  HS Scan of (1) Internal mercury lamp
************************************************************
Integration time is 0.2294 seconds per sample
dh140517Tamanrasset 22.79-5.529 3.307216pr865
************************************************************
Dead Time -------------------------  2.8E-08 
Number of Cycles Used -------------  4 
Starting Wavelength (Angstroms) ---  2950 
Final Wavelength (Angstoms) -------  2984 
Wavelength Increment (Angstroms) --  .25 
Filter Wheel #1 Position ---------- (1) Ground quartz diffuser (ND=2.32)
Filter Wheel #2 Position ---------- (1) Neutral Density 0.494



************************************************************
HS scan start time = 02:40:21
Dark Count =  5.9 


Time (GMT)  Wavelength (Ang)  Step Number  Raw Counts  Counts/Second

  160.70        2950.00           1233           7.00         4.80
  160.76        2950.25           1236           8.00         9.15
  160.79        2950.50           1239           3.00         2.00
  160.82        2950.75           1242           6.00         2.00
  160.84        2951.00           1246           4.00         2.00
  160.87        2951.25           1249           6.00         2.00
  160.90        2951.50           1252           4.00         2.00
  160.92        2951.75           1256           3.00         2.00
  160.95        2952.00           1259           6.00         2.00
  160.98        2952.25           1262           2.00         2.00
  161.01        2952.50           1266           3.00         2.00
  161.03        2952.75           1269           8.00         9.15
  161.06        2953.00           1272           7.00         4.80
  161.09        2953.25           1276           6.00         2.00
  161.11        2953.50           1279           7.00         4.80
  161.14        2953.75           1282           2.00         2.00
  161.17        2954.00           1286           8.00         9.15
  161.20        2954.25           1289           0.00         2.00
  161.22        2954.50           1292           7.00         4.80
  161.25        2954.75           1295           8.00         9.15
  161.28        2955.00           1299           5.00         2.00
  161.30        2955.25           1302           6.00         2.00
  161.33        2955.50           1305           0.00         2.00
  161.36        2955.75           1309           5.00         2.00
  161.38        2956.00           1312           7.00         4.80
  161.41        2956.25           1315           7.00         4.80
  161.44        2956.50           1319           6.00         2.00
  161.47        2956.75           1322           4.00         2.00
  161.49        2957.00           1325           6.00         2.00
  161.52        2957.25           1329           9.00        13.51
  161.55        2957.50           1332           4.00         2.00
  161.58        2957.75           1335           6.00         2.00
  161.60        2958.00           1339           7.00         4.80
  161.63        2958.25           1342           5.00         2.00
  161.66        2958.50           1345           6.00         2.00
  161.68        2958.75           1348           4.00         2.00
  161.71        2959.00           1352           5.00         2.00
  161.74        2959.25           1355           5.00         2.00
  161.77        2959.50           1358           6.00         2.00
  161.79        2959.75           1362           7.00         4.80
  161.82        2960.00           1365           6.00         2.00
  161.85        2960.25           1368           7.00         4.80
  161.87        2960.50           1372           7.00         4.80
  161.90        2960.75           1375           7.00         4.80
  161.93        2961.00           1378           6.00         2.00
  161.96        2961.25           1382           7.00         4.80
  161.98        2961.50           1385           8.00         9.15
  162.01        2961.75           1388           8.00         9.15
  162.04        2962.00           1392           5.00         2.00
  162.06        2962.25           1395           6.00         2.00
  162.09        2962.50           1398           7.00         4.80
  162.12        2962.75           1402           7.00         4.80
  162.15        2963.00           1405           1.00         2.00
  162.17        2963.25           1408           5.00         2.00
  162.20        2963.50           1412           9.00        13.51
  162.23        2963.75           1415           2.00         2.00
  162.25        2964.00           1418           0.00         2.00
  162.28        2964.25           1422           7.00         4.80
  162.31        2964.50           1425           5.00         2.00
  162.34        2964.75           1428           6.00         2.00
  162.36        2965.00           1431           3.00         2.00
  162.39        2965.25           1435           5.00         2.00
  162.42        2965.50           1438           5.00         2.00
  162.44        2965.75           1441           6.00         2.00
  162.47        2966.00           1445           7.00         4.80
  162.50        2966.25           1448           5.00         2.00
  162.53        2966.50           1451           1.00         2.00
  162.55        2966.75           1455           8.00         9.15
  162.58        2967.00           1458           4.00         2.00
  162.61        2967.25           1461           4.00         2.00
  162.63        2967.50           1465           6.00         2.00
  162.66        2967.75           1468           2.00         2.00
  162.69        2968.00           1471           8.00         9.15
  162.72        2968.25           1475           9.00        13.51
  162.74        2968.50           1478           4.00         2.00
  162.77        2968.75           1481           5.00         2.00
  162.80        2969.00           1485           6.00         2.00
  162.82        2969.25           1488           6.00         2.00
  162.85        2969.50           1491           2.00         2.00
  162.88        2969.75           1495           6.00         2.00
  162.90        2970.00           1498           5.00         2.00
  162.93        2970.25           1501           4.00         2.00
  162.96        2970.50           1505           6.00         2.00
  162.99        2970.75           1508           1.00         2.00
  163.01        2971.00           1511           4.00         2.00
  163.04        2971.25           1515           8.00         9.15
  163.07        2971.50           1518           9.00        13.51
  163.09        2971.75           1521           7.00         4.80
  163.12        2972.00           1525           5.00         2.00
  163.15        2972.25           1528           2.00         2.00
  163.18        2972.50           1531           5.00         2.00
  163.20        2972.75           1535           7.00         4.80
  163.23        2973.00           1538           8.00         9.15
  163.26        2973.25           1541           4.00         2.00
  163.28        2973.50           1545           6.00         2.00
  163.31        2973.75           1548           8.00         9.15
  163.34        2974.00           1551           5.00         2.00
  163.37        2974.25           1555           6.00         2.00
  163.39        2974.50           1558           7.00         4.80
  163.42        2974.75           1561           8.00         9.15
  163.45        2975.00           1565           5.00         2.00
  163.47        2975.25           1568           7.00         4.80
  163.50        2975.50           1571           4.00         2.00
  163.53        2975.75           1575           5.00         2.00
  163.56        2976.00           1578           4.00         2.00
  163.58        2976.25           1581           6.00         2.00
  163.61        2976.50           1585           8.00         9.15
  163.64        2976.75           1588           6.00         2.00
  163.66        2977.00           1591           8.00         9.15
  163.69        2977.25           1595           4.00         2.00
  163.72        2977.50           1598           6.00         2.00
  163.75        2977.75           1601           6.00         2.00
  163.77        2978.00           1605           7.00         4.80
  163.80        2978.25           1608           6.00         2.00
  163.83        2978.50           1611           6.00         2.00
  163.85        2978.75           1615           4.00         2.00
  163.88        2979.00           1618           5.00         2.00
  163.91        2979.25           1621           0.00         2.00
  163.93        2979.50           1625           6.00         2.00
  163.96        2979.75           1628           4.00         2.00
  163.99        2980.00           1631           6.00         2.00
  164.02        2980.25           1635           6.00         2.00
  164.04        2980.50           1638           3.00         2.00
  164.07        2980.75           1641           6.00         2.00
  164.10        2981.00           1645           1.00         2.00
  164.13        2981.25           1648           6.00         2.00
  164.15        2981.50           1651           6.00         2.00
  164.18        2981.75           1655           4.00         2.00
  164.21        2982.00           1658           5.00         2.00
  164.23        2982.25           1661           3.00         2.00
  164.26        2982.50           1665           5.00         2.00
  164.29        2982.75           1668           4.00         2.00
  164.32        2983.00           1671           6.00         2.00
  164.34        2983.25           1675           7.00         4.80
  164.37        2983.50           1678           4.00         2.00
  164.40        2983.75           1681           3.00         2.00
  164.42        2984.00           1685           3.00         2.00
HS scan finished at 02:44:37
end
