************************************************************
  HS Scan of (1) Internal mercury lamp
************************************************************
Integration time is 0.2294 seconds per sample
dh160517Tamanrasset 22.79-5.529 3.103284pr865
************************************************************
Dead Time -------------------------  2.8E-08 
Number of Cycles Used -------------  4 
Starting Wavelength (Angstroms) ---  2950 
Final Wavelength (Angstoms) -------  2984 
Wavelength Increment (Angstroms) --  .25 
Filter Wheel #1 Position ---------- (1) Ground quartz diffuser (ND=2.32)
Filter Wheel #2 Position ---------- (1) Neutral Density 0.494



************************************************************
HS scan start time = 02:39:17
Dark Count =  4.6 


Time (GMT)  Wavelength (Ang)  Step Number  Raw Counts  Counts/Second

  159.64        2950.00           1233           7.00        10.46
  159.71        2950.25           1236           6.00         6.10
  159.73        2950.50           1239           5.00         2.00
  159.76        2950.75           1242           2.00         2.00
  159.79        2951.00           1246           3.00         2.00
  159.81        2951.25           1249           6.00         6.10
  159.84        2951.50           1252           6.00         6.10
  159.87        2951.75           1256           2.00         2.00
  159.90        2952.00           1259           5.00         2.00
  159.92        2952.25           1262           5.00         2.00
  159.95        2952.50           1266           5.00         2.00
  159.98        2952.75           1269           6.00         6.10
  160.00        2953.00           1272           6.00         6.10
  160.03        2953.25           1276           3.00         2.00
  160.06        2953.50           1279           0.00         2.00
  160.09        2953.75           1282           7.00        10.46
  160.11        2954.00           1286           3.00         2.00
  160.14        2954.25           1289           5.00         2.00
  160.17        2954.50           1292           6.00         6.10
  160.19        2954.75           1295           5.00         2.00
  160.22        2955.00           1299           5.00         2.00
  160.25        2955.25           1302           5.00         2.00
  160.28        2955.50           1305           2.00         2.00
  160.30        2955.75           1309           3.00         2.00
  160.33        2956.00           1312           6.00         6.10
  160.36        2956.25           1315           8.00        14.82
  160.38        2956.50           1319           4.00         2.00
  160.41        2956.75           1322           7.00        10.46
  160.44        2957.00           1325           5.00         2.00
  160.46        2957.25           1329           8.00        14.82
  160.49        2957.50           1332           0.00         2.00
  160.52        2957.75           1335           6.00         6.10
  160.55        2958.00           1339           4.00         2.00
  160.57        2958.25           1342           7.00        10.46
  160.60        2958.50           1345           8.00        14.82
  160.63        2958.75           1348           4.00         2.00
  160.65        2959.00           1352           7.00        10.46
  160.68        2959.25           1355           5.00         2.00
  160.71        2959.50           1358           8.00        14.82
  160.74        2959.75           1362           6.00         6.10
  160.76        2960.00           1365           3.00         2.00
  160.79        2960.25           1368           7.00        10.46
  160.82        2960.50           1372           8.00        14.82
  160.84        2960.75           1375           5.00         2.00
  160.87        2961.00           1378           8.00        14.82
  160.90        2961.25           1382           5.00         2.00
  160.93        2961.50           1385           5.00         2.00
  160.95        2961.75           1388           3.00         2.00
  160.98        2962.00           1392           7.00        10.46
  161.01        2962.25           1395           3.00         2.00
  161.03        2962.50           1398           5.00         2.00
  161.06        2962.75           1402           2.00         2.00
  161.09        2963.00           1405           6.00         6.10
  161.12        2963.25           1408           4.00         2.00
  161.14        2963.50           1412           6.00         6.10
  161.17        2963.75           1415           8.00        14.82
  161.20        2964.00           1418           2.00         2.00
  161.22        2964.25           1422           8.00        14.82
  161.25        2964.50           1425           0.00         2.00
  161.28        2964.75           1428           8.00        14.82
  161.31        2965.00           1431           6.00         6.10
  161.33        2965.25           1435           8.00        14.82
  161.36        2965.50           1438           6.00         6.10
  161.39        2965.75           1441           5.00         2.00
  161.41        2966.00           1445           2.00         2.00
  161.44        2966.25           1448           6.00         6.10
  161.47        2966.50           1451           1.00         2.00
  161.50        2966.75           1455           4.00         2.00
  161.52        2967.00           1458           4.00         2.00
  161.55        2967.25           1461           2.00         2.00
  161.58        2967.50           1465           8.00        14.82
  161.60        2967.75           1468           2.00         2.00
  161.63        2968.00           1471           1.00         2.00
  161.66        2968.25           1475           2.00         2.00
  161.69        2968.50           1478           7.00        10.46
  161.71        2968.75           1481           8.00        14.82
  161.74        2969.00           1485           8.00        14.82
  161.77        2969.25           1488           6.00         6.10
  161.79        2969.50           1491           6.00         6.10
  161.82        2969.75           1495           7.00        10.46
  161.85        2970.00           1498           5.00         2.00
  161.88        2970.25           1501           6.00         6.10
  161.90        2970.50           1505           5.00         2.00
  161.93        2970.75           1508           8.00        14.82
  161.96        2971.00           1511           6.00         6.10
  161.98        2971.25           1515           4.00         2.00
  162.01        2971.50           1518           5.00         2.00
  162.04        2971.75           1521           5.00         2.00
  162.06        2972.00           1525           4.00         2.00
  162.09        2972.25           1528           8.00        14.82
  162.12        2972.50           1531           6.00         6.10
  162.15        2972.75           1535           7.00        10.46
  162.17        2973.00           1538           8.00        14.82
  162.20        2973.25           1541           4.00         2.00
  162.23        2973.50           1545           8.00        14.82
  162.25        2973.75           1548           5.00         2.00
  162.28        2974.00           1551           8.00        14.82
  162.31        2974.25           1555           8.00        14.82
  162.34        2974.50           1558           6.00         6.10
  162.36        2974.75           1561           6.00         6.10
  162.39        2975.00           1565           8.00        14.82
  162.42        2975.25           1568           2.00         2.00
  162.44        2975.50           1571           4.00         2.00
  162.47        2975.75           1575           4.00         2.00
  162.50        2976.00           1578           8.00        14.82
  162.52        2976.25           1581           5.00         2.00
  162.55        2976.50           1585           3.00         2.00
  162.58        2976.75           1588           7.00        10.46
  162.61        2977.00           1591           4.00         2.00
  162.63        2977.25           1595           0.00         2.00
  162.66        2977.50           1598           5.00         2.00
  162.69        2977.75           1601           8.00        14.82
  162.71        2978.00           1605           8.00        14.82
  162.74        2978.25           1608           2.00         2.00
  162.77        2978.50           1611           5.00         2.00
  162.80        2978.75           1615           2.00         2.00
  162.82        2979.00           1618           4.00         2.00
  162.85        2979.25           1621           8.00        14.82
  162.88        2979.50           1625           4.00         2.00
  162.90        2979.75           1628           5.00         2.00
  162.93        2980.00           1631           6.00         6.10
  162.96        2980.25           1635           6.00         6.10
  162.99        2980.50           1638           6.00         6.10
  163.01        2980.75           1641           4.00         2.00
  163.04        2981.00           1645           0.00         2.00
  163.07        2981.25           1648           6.00         6.10
  163.09        2981.50           1651           6.00         6.10
  163.12        2981.75           1655           8.00        14.82
  163.15        2982.00           1658           1.00         2.00
  163.18        2982.25           1661           6.00         6.10
  163.20        2982.50           1665           5.00         2.00
  163.23        2982.75           1668           8.00        14.82
  163.26        2983.00           1671           8.00        14.82
  163.28        2983.25           1675           5.00         2.00
  163.31        2983.50           1678           2.00         2.00
  163.34        2983.75           1681           7.00        10.46
  163.36        2984.00           1685           7.00        10.46
HS scan finished at 02:43:33
end
