************************************************************
  HS Scan of (1) Internal mercury lamp
************************************************************
Integration time is 0.2294 seconds per sample
dh170517Tamanrasset 22.79-5.529 3.302118pr865
************************************************************
Dead Time -------------------------  2.8E-08 
Number of Cycles Used -------------  4 
Starting Wavelength (Angstroms) ---  2950 
Final Wavelength (Angstoms) -------  2984 
Wavelength Increment (Angstroms) --  .25 
Filter Wheel #1 Position ---------- (1) Ground quartz diffuser (ND=2.32)
Filter Wheel #2 Position ---------- (1) Neutral Density 0.494



************************************************************
HS scan start time = 02:39:16
Dark Count =  5.3 


Time (GMT)  Wavelength (Ang)  Step Number  Raw Counts  Counts/Second

  159.63        2950.00           1233           4.00         2.00
  159.69        2950.25           1236           7.00         7.41
  159.72        2950.50           1239           6.00         3.05
  159.75        2950.75           1242           5.00         2.00
  159.77        2951.00           1246           5.00         2.00
  159.80        2951.25           1249           6.00         3.05
  159.83        2951.50           1252           7.00         7.41
  159.86        2951.75           1256           5.00         2.00
  159.88        2952.00           1259           7.00         7.41
  159.91        2952.25           1262           4.00         2.00
  159.94        2952.50           1266           7.00         7.41
  159.96        2952.75           1269           8.00        11.77
  159.99        2953.00           1272           7.00         7.41
  160.02        2953.25           1276           4.00         2.00
  160.05        2953.50           1279           6.00         3.05
  160.07        2953.75           1282           2.00         2.00
  160.10        2954.00           1286           6.00         3.05
  160.13        2954.25           1289           5.00         2.00
  160.15        2954.50           1292           8.00        11.77
  160.18        2954.75           1295           7.00         7.41
  160.21        2955.00           1299           8.00        11.77
  160.24        2955.25           1302           8.00        11.77
  160.26        2955.50           1305           4.00         2.00
  160.29        2955.75           1309           5.00         2.00
  160.32        2956.00           1312           9.00        16.13
  160.34        2956.25           1315           1.00         2.00
  160.37        2956.50           1319           4.00         2.00
  160.40        2956.75           1322           6.00         3.05
  160.42        2957.00           1325           5.00         2.00
  160.45        2957.25           1329           6.00         3.05
  160.48        2957.50           1332           3.00         2.00
  160.51        2957.75           1335           4.00         2.00
  160.53        2958.00           1339           4.00         2.00
  160.56        2958.25           1342           3.00         2.00
  160.59        2958.50           1345           5.00         2.00
  160.61        2958.75           1348           6.00         3.05
  160.64        2959.00           1352           5.00         2.00
  160.67        2959.25           1355           5.00         2.00
  160.70        2959.50           1358           8.00        11.77
  160.72        2959.75           1362           6.00         3.05
  160.75        2960.00           1365           6.00         3.05
  160.78        2960.25           1368           2.00         2.00
  160.80        2960.50           1372           4.00         2.00
  160.83        2960.75           1375           4.00         2.00
  160.86        2961.00           1378           8.00        11.77
  160.89        2961.25           1382           6.00         3.05
  160.91        2961.50           1385           8.00        11.77
  160.94        2961.75           1388           6.00         3.05
  160.97        2962.00           1392           3.00         2.00
  160.99        2962.25           1395           7.00         7.41
  161.02        2962.50           1398           9.00        16.13
  161.05        2962.75           1402           5.00         2.00
  161.08        2963.00           1405           5.00         2.00
  161.10        2963.25           1408           5.00         2.00
  161.13        2963.50           1412           6.00         3.05
  161.16        2963.75           1415           7.00         7.41
  161.18        2964.00           1418           4.00         2.00
  161.21        2964.25           1422           7.00         7.41
  161.24        2964.50           1425           5.00         2.00
  161.27        2964.75           1428           3.00         2.00
  161.29        2965.00           1431           9.00        16.13
  161.32        2965.25           1435           6.00         3.05
  161.35        2965.50           1438           8.00        11.77
  161.37        2965.75           1441           4.00         2.00
  161.40        2966.00           1445           4.00         2.00
  161.43        2966.25           1448           5.00         2.00
  161.46        2966.50           1451           7.00         7.41
  161.48        2966.75           1455           7.00         7.41
  161.51        2967.00           1458           3.00         2.00
  161.54        2967.25           1461           4.00         2.00
  161.56        2967.50           1465           2.00         2.00
  161.59        2967.75           1468           7.00         7.41
  161.62        2968.00           1471           3.00         2.00
  161.65        2968.25           1475           8.00        11.77
  161.67        2968.50           1478           7.00         7.41
  161.70        2968.75           1481           1.00         2.00
  161.73        2969.00           1485           7.00         7.41
  161.75        2969.25           1488           5.00         2.00
  161.78        2969.50           1491           7.00         7.41
  161.81        2969.75           1495           6.00         3.05
  161.84        2970.00           1498           6.00         3.05
  161.86        2970.25           1501           7.00         7.41
  161.89        2970.50           1505           7.00         7.41
  161.92        2970.75           1508           4.00         2.00
  161.94        2971.00           1511           7.00         7.41
  161.97        2971.25           1515           4.00         2.00
  162.00        2971.50           1518           5.00         2.00
  162.03        2971.75           1521           3.00         2.00
  162.05        2972.00           1525           7.00         7.41
  162.08        2972.25           1528           7.00         7.41
  162.11        2972.50           1531           6.00         3.05
  162.13        2972.75           1535           4.00         2.00
  162.16        2973.00           1538           6.00         3.05
  162.19        2973.25           1541           4.00         2.00
  162.21        2973.50           1545           8.00        11.77
  162.24        2973.75           1548           5.00         2.00
  162.27        2974.00           1551           6.00         3.05
  162.30        2974.25           1555           3.00         2.00
  162.32        2974.50           1558           6.00         3.05
  162.35        2974.75           1561           5.00         2.00
  162.38        2975.00           1565           9.00        16.13
  162.40        2975.25           1568           3.00         2.00
  162.43        2975.50           1571           7.00         7.41
  162.46        2975.75           1575           6.00         3.05
  162.49        2976.00           1578           5.00         2.00
  162.51        2976.25           1581           8.00        11.77
  162.54        2976.50           1585           5.00         2.00
  162.57        2976.75           1588           4.00         2.00
  162.59        2977.00           1591           4.00         2.00
  162.62        2977.25           1595           4.00         2.00
  162.65        2977.50           1598           6.00         3.05
  162.68        2977.75           1601           6.00         3.05
  162.70        2978.00           1605           5.00         2.00
  162.73        2978.25           1608           4.00         2.00
  162.76        2978.50           1611           5.00         2.00
  162.78        2978.75           1615           5.00         2.00
  162.81        2979.00           1618           6.00         3.05
  162.84        2979.25           1621           3.00         2.00
  162.87        2979.50           1625           8.00        11.77
  162.89        2979.75           1628           8.00        11.77
  162.92        2980.00           1631           5.00         2.00
  162.95        2980.25           1635           5.00         2.00
  162.97        2980.50           1638           5.00         2.00
  163.00        2980.75           1641           2.00         2.00
  163.03        2981.00           1645           9.00        16.13
  163.05        2981.25           1648           6.00         3.05
  163.08        2981.50           1651           7.00         7.41
  163.11        2981.75           1655           8.00        11.77
  163.14        2982.00           1658           7.00         7.41
  163.16        2982.25           1661           4.00         2.00
  163.19        2982.50           1665           8.00        11.77
  163.22        2982.75           1668           6.00         3.05
  163.24        2983.00           1671           8.00        11.77
  163.27        2983.25           1675           6.00         3.05
  163.30        2983.50           1678           7.00         7.41
  163.33        2983.75           1681           6.00         3.05
  163.35        2984.00           1685           8.00        11.77
HS scan finished at 02:43:32
end
