************************************************************
  HS Scan of (1) Internal mercury lamp
************************************************************
Integration time is 0.2294 seconds per sample
dh130517Tamanrasset 22.79-5.529 3.419379pr865
************************************************************
Dead Time -------------------------  2.8E-08 
Number of Cycles Used -------------  4 
Starting Wavelength (Angstroms) ---  2950 
Final Wavelength (Angstoms) -------  2984 
Wavelength Increment (Angstroms) --  .25 
Filter Wheel #1 Position ---------- (1) Ground quartz diffuser (ND=2.32)
Filter Wheel #2 Position ---------- (1) Neutral Density 0.494



************************************************************
HS scan start time = 02:41:17
Dark Count =  5.9 


Time (GMT)  Wavelength (Ang)  Step Number  Raw Counts  Counts/Second

  161.63        2950.00           1233          10.00        17.87
  161.70        2950.25           1236           5.00         2.00
  161.72        2950.50           1239           7.00         4.80
  161.75        2950.75           1242           6.00         2.00
  161.78        2951.00           1246           7.00         4.80
  161.81        2951.25           1249           6.00         2.00
  161.83        2951.50           1252           5.00         2.00
  161.86        2951.75           1256           7.00         4.80
  161.89        2952.00           1259           6.00         2.00
  161.91        2952.25           1262           6.00         2.00
  161.94        2952.50           1266          10.00        17.87
  161.97        2952.75           1269           7.00         4.80
  162.00        2953.00           1272           9.00        13.51
  162.02        2953.25           1276           7.00         4.80
  162.05        2953.50           1279           5.00         2.00
  162.08        2953.75           1282           6.00         2.00
  162.10        2954.00           1286           4.00         2.00
  162.13        2954.25           1289           5.00         2.00
  162.16        2954.50           1292           6.00         2.00
  162.19        2954.75           1295           6.00         2.00
  162.21        2955.00           1299           6.00         2.00
  162.24        2955.25           1302           5.00         2.00
  162.27        2955.50           1305           7.00         4.80
  162.29        2955.75           1309           7.00         4.80
  162.32        2956.00           1312           6.00         2.00
  162.35        2956.25           1315           5.00         2.00
  162.38        2956.50           1319           7.00         4.80
  162.40        2956.75           1322           5.00         2.00
  162.43        2957.00           1325           6.00         2.00
  162.46        2957.25           1329           6.00         2.00
  162.48        2957.50           1332           5.00         2.00
  162.51        2957.75           1335           6.00         2.00
  162.54        2958.00           1339           8.00         9.15
  162.57        2958.25           1342           9.00        13.51
  162.59        2958.50           1345           8.00         9.15
  162.62        2958.75           1348           8.00         9.15
  162.65        2959.00           1352           5.00         2.00
  162.67        2959.25           1355           8.00         9.15
  162.70        2959.50           1358           7.00         4.80
  162.73        2959.75           1362           5.00         2.00
  162.75        2960.00           1365          11.00        22.23
  162.78        2960.25           1368           8.00         9.15
  162.81        2960.50           1372           5.00         2.00
  162.84        2960.75           1375           7.00         4.80
  162.86        2961.00           1378           6.00         2.00
  162.89        2961.25           1382           6.00         2.00
  162.92        2961.50           1385           4.00         2.00
  162.95        2961.75           1388           7.00         4.80
  162.97        2962.00           1392           8.00         9.15
  163.00        2962.25           1395           7.00         4.80
  163.03        2962.50           1398           6.00         2.00
  163.05        2962.75           1402           4.00         2.00
  163.08        2963.00           1405           6.00         2.00
  163.11        2963.25           1408           3.00         2.00
  163.14        2963.50           1412           6.00         2.00
  163.16        2963.75           1415           8.00         9.15
  163.19        2964.00           1418          10.00        17.87
  163.22        2964.25           1422           7.00         4.80
  163.24        2964.50           1425           9.00        13.51
  163.27        2964.75           1428           6.00         2.00
  163.30        2965.00           1431           6.00         2.00
  163.33        2965.25           1435          10.00        17.87
  163.35        2965.50           1438           4.00         2.00
  163.38        2965.75           1441           6.00         2.00
  163.41        2966.00           1445           6.00         2.00
  163.43        2966.25           1448           8.00         9.15
  163.46        2966.50           1451           8.00         9.15
  163.49        2966.75           1455           5.00         2.00
  163.51        2967.00           1458           2.00         2.00
  163.54        2967.25           1461           4.00         2.00
  163.57        2967.50           1465           8.00         9.15
  163.60        2967.75           1468           7.00         4.80
  163.62        2968.00           1471           6.00         2.00
  163.65        2968.25           1475           8.00         9.15
  163.68        2968.50           1478           5.00         2.00
  163.70        2968.75           1481           5.00         2.00
  163.73        2969.00           1485           5.00         2.00
  163.76        2969.25           1488           4.00         2.00
  163.79        2969.50           1491           6.00         2.00
  163.81        2969.75           1495           5.00         2.00
  163.84        2970.00           1498           6.00         2.00
  163.87        2970.25           1501           6.00         2.00
  163.89        2970.50           1505           7.00         4.80
  163.92        2970.75           1508           8.00         9.15
  163.95        2971.00           1511           8.00         9.15
  163.98        2971.25           1515           7.00         4.80
  164.00        2971.50           1518           6.00         2.00
  164.03        2971.75           1521           8.00         9.15
  164.06        2972.00           1525           8.00         9.15
  164.08        2972.25           1528           8.00         9.15
  164.11        2972.50           1531           6.00         2.00
  164.14        2972.75           1535           5.00         2.00
  164.17        2973.00           1538          10.00        17.87
  164.19        2973.25           1541           6.00         2.00
  164.22        2973.50           1545           7.00         4.80
  164.25        2973.75           1548           6.00         2.00
  164.27        2974.00           1551           7.00         4.80
  164.30        2974.25           1555           5.00         2.00
  164.33        2974.50           1558           5.00         2.00
  164.36        2974.75           1561           8.00         9.15
  164.38        2975.00           1565           6.00         2.00
  164.41        2975.25           1568           6.00         2.00
  164.44        2975.50           1571           6.00         2.00
  164.46        2975.75           1575           8.00         9.15
  164.49        2976.00           1578           7.00         4.80
  164.52        2976.25           1581           8.00         9.15
  164.55        2976.50           1585           7.00         4.80
  164.57        2976.75           1588           6.00         2.00
  164.60        2977.00           1591           5.00         2.00
  164.63        2977.25           1595           9.00        13.51
  164.65        2977.50           1598           7.00         4.80
  164.68        2977.75           1601           7.00         4.80
  164.71        2978.00           1605           8.00         9.15
  164.74        2978.25           1608           7.00         4.80
  164.76        2978.50           1611           3.00         2.00
  164.79        2978.75           1615           5.00         2.00
  164.82        2979.00           1618           7.00         4.80
  164.84        2979.25           1621           7.00         4.80
  164.87        2979.50           1625           5.00         2.00
  164.90        2979.75           1628           8.00         9.15
  164.92        2980.00           1631           7.00         4.80
  164.95        2980.25           1635           7.00         4.80
  164.98        2980.50           1638           5.00         2.00
  165.01        2980.75           1641           5.00         2.00
  165.03        2981.00           1645           6.00         2.00
  165.06        2981.25           1648           3.00         2.00
  165.09        2981.50           1651           4.00         2.00
  165.11        2981.75           1655           7.00         4.80
  165.14        2982.00           1658           5.00         2.00
  165.17        2982.25           1661           7.00         4.80
  165.20        2982.50           1665           6.00         2.00
  165.22        2982.75           1668           8.00         9.15
  165.25        2983.00           1671           8.00         9.15
  165.28        2983.25           1675           5.00         2.00
  165.30        2983.50           1678           6.00         2.00
  165.33        2983.75           1681           7.00         4.80
  165.36        2984.00           1685           8.00         9.15
HS scan finished at 02:45:33
end
