************************************************************
  HS Scan of (1) Internal mercury lamp
************************************************************
Integration time is 0.2294 seconds per sample
dh200517Tamanrasset 22.79-5.529 3.348003pr865
************************************************************
Dead Time -------------------------  2.8E-08 
Number of Cycles Used -------------  4 
Starting Wavelength (Angstroms) ---  2950 
Final Wavelength (Angstoms) -------  2984 
Wavelength Increment (Angstroms) --  .25 
Filter Wheel #1 Position ---------- (1) Ground quartz diffuser (ND=2.32)
Filter Wheel #2 Position ---------- (1) Neutral Density 0.494



************************************************************
HS scan start time = 02:38:29
Dark Count =  6.1 


Time (GMT)  Wavelength (Ang)  Step Number  Raw Counts  Counts/Second

  158.84        2950.00           1233           4.00         2.00
  158.90        2950.25           1236           8.00         8.28
  158.93        2950.50           1239           5.00         2.00
  158.95        2950.75           1242           8.00         8.28
  158.98        2951.00           1246           8.00         8.28
  159.01        2951.25           1249           3.00         2.00
  159.04        2951.50           1252           5.00         2.00
  159.06        2951.75           1256           5.00         2.00
  159.09        2952.00           1259           4.00         2.00
  159.12        2952.25           1262           4.00         2.00
  159.14        2952.50           1266           6.00         2.00
  159.17        2952.75           1269           9.00        12.64
  159.20        2953.00           1272           3.00         2.00
  159.23        2953.25           1276           6.00         2.00
  159.25        2953.50           1279           7.00         3.92
  159.28        2953.75           1282           6.00         2.00
  159.31        2954.00           1286           6.00         2.00
  159.34        2954.25           1289           6.00         2.00
  159.36        2954.50           1292           8.00         8.28
  159.39        2954.75           1295           8.00         8.28
  159.42        2955.00           1299           6.00         2.00
  159.44        2955.25           1302           5.00         2.00
  159.47        2955.50           1305           4.00         2.00
  159.50        2955.75           1309           4.00         2.00
  159.53        2956.00           1312           5.00         2.00
  159.55        2956.25           1315           6.00         2.00
  159.58        2956.50           1319           4.00         2.00
  159.61        2956.75           1322           4.00         2.00
  159.64        2957.00           1325           6.00         2.00
  159.66        2957.25           1329           5.00         2.00
  159.69        2957.50           1332           5.00         2.00
  159.72        2957.75           1335           4.00         2.00
  159.74        2958.00           1339           5.00         2.00
  159.77        2958.25           1342           7.00         3.92
  159.80        2958.50           1345           8.00         8.28
  159.82        2958.75           1348           4.00         2.00
  159.85        2959.00           1352           6.00         2.00
  159.88        2959.25           1355           5.00         2.00
  159.91        2959.50           1358           7.00         3.92
  159.93        2959.75           1362           7.00         3.92
  159.96        2960.00           1365           7.00         3.92
  159.99        2960.25           1368           7.00         3.92
  160.01        2960.50           1372           5.00         2.00
  160.04        2960.75           1375           5.00         2.00
  160.07        2961.00           1378           7.00         3.92
  160.10        2961.25           1382           6.00         2.00
  160.12        2961.50           1385           8.00         8.28
  160.15        2961.75           1388           3.00         2.00
  160.18        2962.00           1392           7.00         3.92
  160.21        2962.25           1395           8.00         8.28
  160.23        2962.50           1398           5.00         2.00
  160.26        2962.75           1402           4.00         2.00
  160.29        2963.00           1405           5.00         2.00
  160.31        2963.25           1408           4.00         2.00
  160.34        2963.50           1412           6.00         2.00
  160.37        2963.75           1415           7.00         3.92
  160.40        2964.00           1418           5.00         2.00
  160.42        2964.25           1422           8.00         8.28
  160.45        2964.50           1425           6.00         2.00
  160.48        2964.75           1428           4.00         2.00
  160.50        2965.00           1431           4.00         2.00
  160.53        2965.25           1435           4.00         2.00
  160.56        2965.50           1438           3.00         2.00
  160.59        2965.75           1441           8.00         8.28
  160.61        2966.00           1445           2.00         2.00
  160.64        2966.25           1448           6.00         2.00
  160.67        2966.50           1451           9.00        12.64
  160.69        2966.75           1455           7.00         3.92
  160.72        2967.00           1458           9.00        12.64
  160.75        2967.25           1461           5.00         2.00
  160.77        2967.50           1465           4.00         2.00
  160.80        2967.75           1468           4.00         2.00
  160.83        2968.00           1471           5.00         2.00
  160.86        2968.25           1475           6.00         2.00
  160.88        2968.50           1478           4.00         2.00
  160.91        2968.75           1481           4.00         2.00
  160.94        2969.00           1485           5.00         2.00
  160.96        2969.25           1488           7.00         3.92
  160.99        2969.50           1491           7.00         3.92
  161.02        2969.75           1495           6.00         2.00
  161.05        2970.00           1498           6.00         2.00
  161.07        2970.25           1501           5.00         2.00
  161.10        2970.50           1505           7.00         3.92
  161.13        2970.75           1508           7.00         3.92
  161.15        2971.00           1511           5.00         2.00
  161.18        2971.25           1515           7.00         3.92
  161.21        2971.50           1518           6.00         2.00
  161.24        2971.75           1521           8.00         8.28
  161.26        2972.00           1525           5.00         2.00
  161.29        2972.25           1528           5.00         2.00
  161.32        2972.50           1531           8.00         8.28
  161.34        2972.75           1535           6.00         2.00
  161.37        2973.00           1538           9.00        12.64
  161.40        2973.25           1541           8.00         8.28
  161.43        2973.50           1545           8.00         8.28
  161.45        2973.75           1548           4.00         2.00
  161.48        2974.00           1551           6.00         2.00
  161.51        2974.25           1555           5.00         2.00
  161.53        2974.50           1558           6.00         2.00
  161.56        2974.75           1561           7.00         3.92
  161.59        2975.00           1565           7.00         3.92
  161.62        2975.25           1568           6.00         2.00
  161.64        2975.50           1571           4.00         2.00
  161.67        2975.75           1575           6.00         2.00
  161.70        2976.00           1578           3.00         2.00
  161.72        2976.25           1581           8.00         8.28
  161.75        2976.50           1585           6.00         2.00
  161.78        2976.75           1588           7.00         3.92
  161.80        2977.00           1591           5.00         2.00
  161.83        2977.25           1595           7.00         3.92
  161.86        2977.50           1598           5.00         2.00
  161.89        2977.75           1601           2.00         2.00
  161.91        2978.00           1605           1.00         2.00
  161.94        2978.25           1608           7.00         3.92
  161.97        2978.50           1611           7.00         3.92
  161.99        2978.75           1615           7.00         3.92
  162.02        2979.00           1618           6.00         2.00
  162.05        2979.25           1621           8.00         8.28
  162.08        2979.50           1625           7.00         3.92
  162.10        2979.75           1628           5.00         2.00
  162.13        2980.00           1631           6.00         2.00
  162.16        2980.25           1635           7.00         3.92
  162.18        2980.50           1638           9.00        12.64
  162.21        2980.75           1641           7.00         3.92
  162.24        2981.00           1645           6.00         2.00
  162.27        2981.25           1648           6.00         2.00
  162.29        2981.50           1651           6.00         2.00
  162.32        2981.75           1655           9.00        12.64
  162.35        2982.00           1658           3.00         2.00
  162.37        2982.25           1661           6.00         2.00
  162.40        2982.50           1665           6.00         2.00
  162.43        2982.75           1668           8.00         8.28
  162.46        2983.00           1671           6.00         2.00
  162.48        2983.25           1675           8.00         8.28
  162.51        2983.50           1678           6.00         2.00
  162.54        2983.75           1681           5.00         2.00
  162.56        2984.00           1685           5.00         2.00
HS scan finished at 02:42:45
end
