************************************************************
  HS Scan of (1) Internal mercury lamp
************************************************************
Integration time is 0.2294 seconds per sample
dh280517Tamanrasset 22.79-5.529 3.26643pr865
************************************************************
Dead Time -------------------------  2.8E-08 
Number of Cycles Used -------------  4 
Starting Wavelength (Angstroms) ---  2950 
Final Wavelength (Angstoms) -------  2984 
Wavelength Increment (Angstroms) --  .25 
Filter Wheel #1 Position ---------- (1) Ground quartz diffuser (ND=2.32)
Filter Wheel #2 Position ---------- (1) Neutral Density 0.494



************************************************************
HS scan start time = 02:35:16
Dark Count =  5.5 


Time (GMT)  Wavelength (Ang)  Step Number  Raw Counts  Counts/Second

  155.63        2950.00           1233           6.00         2.18
  155.69        2950.25           1236           5.00         2.00
  155.72        2950.50           1239           5.00         2.00
  155.75        2950.75           1242           5.00         2.00
  155.77        2951.00           1246           6.00         2.18
  155.80        2951.25           1249           7.00         6.54
  155.83        2951.50           1252           4.00         2.00
  155.86        2951.75           1256           6.00         2.18
  155.88        2952.00           1259           7.00         6.54
  155.91        2952.25           1262           7.00         6.54
  155.94        2952.50           1266           3.00         2.00
  155.96        2952.75           1269           5.00         2.00
  155.99        2953.00           1272           6.00         2.18
  156.02        2953.25           1276           3.00         2.00
  156.05        2953.50           1279           5.00         2.00
  156.07        2953.75           1282           5.00         2.00
  156.10        2954.00           1286           5.00         2.00
  156.13        2954.25           1289           2.00         2.00
  156.15        2954.50           1292           6.00         2.18
  156.18        2954.75           1295           7.00         6.54
  156.21        2955.00           1299           8.00        10.90
  156.24        2955.25           1302           7.00         6.54
  156.26        2955.50           1305           7.00         6.54
  156.29        2955.75           1309           7.00         6.54
  156.32        2956.00           1312           3.00         2.00
  156.34        2956.25           1315           8.00        10.90
  156.37        2956.50           1319           6.00         2.18
  156.40        2956.75           1322           4.00         2.00
  156.43        2957.00           1325           5.00         2.00
  156.45        2957.25           1329           8.00        10.90
  156.48        2957.50           1332           6.00         2.18
  156.51        2957.75           1335           7.00         6.54
  156.53        2958.00           1339           5.00         2.00
  156.56        2958.25           1342           5.00         2.00
  156.59        2958.50           1345           7.00         6.54
  156.61        2958.75           1348           4.00         2.00
  156.64        2959.00           1352           7.00         6.54
  156.67        2959.25           1355           9.00        15.26
  156.70        2959.50           1358           3.00         2.00
  156.72        2959.75           1362           8.00        10.90
  156.75        2960.00           1365           8.00        10.90
  156.78        2960.25           1368           7.00         6.54
  156.80        2960.50           1372           4.00         2.00
  156.83        2960.75           1375           6.00         2.18
  156.86        2961.00           1378           5.00         2.00
  156.89        2961.25           1382           6.00         2.18
  156.91        2961.50           1385           3.00         2.00
  156.94        2961.75           1388           6.00         2.18
  156.97        2962.00           1392           5.00         2.00
  156.99        2962.25           1395           4.00         2.00
  157.02        2962.50           1398           4.00         2.00
  157.05        2962.75           1402           7.00         6.54
  157.08        2963.00           1405           5.00         2.00
  157.10        2963.25           1408           7.00         6.54
  157.13        2963.50           1412           4.00         2.00
  157.16        2963.75           1415           5.00         2.00
  157.18        2964.00           1418           6.00         2.18
  157.21        2964.25           1422           7.00         6.54
  157.24        2964.50           1425           7.00         6.54
  157.27        2964.75           1428           3.00         2.00
  157.29        2965.00           1431           3.00         2.00
  157.32        2965.25           1435           3.00         2.00
  157.35        2965.50           1438           5.00         2.00
  157.37        2965.75           1441           7.00         6.54
  157.40        2966.00           1445           7.00         6.54
  157.43        2966.25           1448           5.00         2.00
  157.46        2966.50           1451           2.00         2.00
  157.48        2966.75           1455           6.00         2.18
  157.51        2967.00           1458           0.00         2.00
  157.54        2967.25           1461           9.00        15.26
  157.56        2967.50           1465           3.00         2.00
  157.59        2967.75           1468           3.00         2.00
  157.62        2968.00           1471           4.00         2.00
  157.65        2968.25           1475           8.00        10.90
  157.67        2968.50           1478           6.00         2.18
  157.70        2968.75           1481           7.00         6.54
  157.73        2969.00           1485           1.00         2.00
  157.75        2969.25           1488           7.00         6.54
  157.78        2969.50           1491           5.00         2.00
  157.81        2969.75           1495           4.00         2.00
  157.84        2970.00           1498           6.00         2.18
  157.86        2970.25           1501           4.00         2.00
  157.89        2970.50           1505           8.00        10.90
  157.92        2970.75           1508           3.00         2.00
  157.94        2971.00           1511           6.00         2.18
  157.97        2971.25           1515           8.00        10.90
  158.00        2971.50           1518           6.00         2.18
  158.03        2971.75           1521           6.00         2.18
  158.05        2972.00           1525           6.00         2.18
  158.08        2972.25           1528           2.00         2.00
  158.11        2972.50           1531           7.00         6.54
  158.13        2972.75           1535           7.00         6.54
  158.16        2973.00           1538           5.00         2.00
  158.19        2973.25           1541           5.00         2.00
  158.22        2973.50           1545           5.00         2.00
  158.24        2973.75           1548           3.00         2.00
  158.27        2974.00           1551           9.00        15.26
  158.30        2974.25           1555           5.00         2.00
  158.32        2974.50           1558           3.00         2.00
  158.35        2974.75           1561           4.00         2.00
  158.38        2975.00           1565           7.00         6.54
  158.40        2975.25           1568           4.00         2.00
  158.43        2975.50           1571           4.00         2.00
  158.46        2975.75           1575           4.00         2.00
  158.49        2976.00           1578           5.00         2.00
  158.51        2976.25           1581           3.00         2.00
  158.54        2976.50           1585           3.00         2.00
  158.57        2976.75           1588           4.00         2.00
  158.59        2977.00           1591           4.00         2.00
  158.62        2977.25           1595           6.00         2.18
  158.65        2977.50           1598           6.00         2.18
  158.68        2977.75           1601           6.00         2.18
  158.70        2978.00           1605           4.00         2.00
  158.73        2978.25           1608           3.00         2.00
  158.76        2978.50           1611           2.00         2.00
  158.78        2978.75           1615           6.00         2.18
  158.81        2979.00           1618           7.00         6.54
  158.84        2979.25           1621           5.00         2.00
  158.87        2979.50           1625           2.00         2.00
  158.89        2979.75           1628           4.00         2.00
  158.92        2980.00           1631           5.00         2.00
  158.95        2980.25           1635           6.00         2.18
  158.97        2980.50           1638           5.00         2.00
  159.00        2980.75           1641           5.00         2.00
  159.03        2981.00           1645           4.00         2.00
  159.06        2981.25           1648           5.00         2.00
  159.08        2981.50           1651           5.00         2.00
  159.11        2981.75           1655           4.00         2.00
  159.14        2982.00           1658           6.00         2.18
  159.16        2982.25           1661           6.00         2.18
  159.19        2982.50           1665           8.00        10.90
  159.22        2982.75           1668           7.00         6.54
  159.25        2983.00           1671           3.00         2.00
  159.27        2983.25           1675           5.00         2.00
  159.30        2983.50           1678           6.00         2.18
  159.33        2983.75           1681           5.00         2.00
  159.35        2984.00           1685           2.00         2.00
HS scan finished at 02:39:32
end
