************************************************************
  HS Scan of (1) Internal mercury lamp
************************************************************
Integration time is 0.2294 seconds per sample
dh290517Tamanrasset 22.79-5.529 3.307216pr865
************************************************************
Dead Time -------------------------  2.8E-08 
Number of Cycles Used -------------  4 
Starting Wavelength (Angstroms) ---  2950 
Final Wavelength (Angstoms) -------  2984 
Wavelength Increment (Angstroms) --  .25 
Filter Wheel #1 Position ---------- (1) Ground quartz diffuser (ND=2.32)
Filter Wheel #2 Position ---------- (1) Neutral Density 0.494



************************************************************
HS scan start time = 02:35:17
Dark Count =  6.9 


Time (GMT)  Wavelength (Ang)  Step Number  Raw Counts  Counts/Second

  155.64        2950.00           1233           5.00         2.00
  155.70        2950.25           1236           4.00         2.00
  155.73        2950.50           1239           7.00         2.00
  155.75        2950.75           1242           2.00         2.00
  155.78        2951.00           1246           5.00         2.00
  155.81        2951.25           1249           5.00         2.00
  155.84        2951.50           1252           6.00         2.00
  155.86        2951.75           1256           7.00         2.00
  155.89        2952.00           1259           6.00         2.00
  155.92        2952.25           1262           4.00         2.00
  155.94        2952.50           1266           6.00         2.00
  155.97        2952.75           1269           6.00         2.00
  156.00        2953.00           1272           5.00         2.00
  156.02        2953.25           1276           6.00         2.00
  156.05        2953.50           1279           3.00         2.00
  156.08        2953.75           1282           5.00         2.00
  156.11        2954.00           1286           4.00         2.00
  156.13        2954.25           1289           7.00         2.00
  156.16        2954.50           1292           6.00         2.00
  156.19        2954.75           1295           8.00         4.80
  156.21        2955.00           1299           6.00         2.00
  156.24        2955.25           1302           5.00         2.00
  156.27        2955.50           1305           8.00         4.80
  156.30        2955.75           1309           8.00         4.80
  156.32        2956.00           1312           2.00         2.00
  156.35        2956.25           1315           7.00         2.00
  156.38        2956.50           1319           3.00         2.00
  156.40        2956.75           1322           4.00         2.00
  156.43        2957.00           1325           7.00         2.00
  156.46        2957.25           1329           6.00         2.00
  156.49        2957.50           1332           3.00         2.00
  156.51        2957.75           1335           4.00         2.00
  156.54        2958.00           1339           6.00         2.00
  156.57        2958.25           1342           6.00         2.00
  156.60        2958.50           1345           5.00         2.00
  156.62        2958.75           1348           5.00         2.00
  156.65        2959.00           1352           8.00         4.80
  156.68        2959.25           1355           5.00         2.00
  156.70        2959.50           1358           6.00         2.00
  156.73        2959.75           1362           8.00         4.80
  156.76        2960.00           1365           6.00         2.00
  156.79        2960.25           1368           7.00         2.00
  156.81        2960.50           1372           7.00         2.00
  156.84        2960.75           1375           4.00         2.00
  156.87        2961.00           1378           6.00         2.00
  156.89        2961.25           1382           0.00         2.00
  156.92        2961.50           1385           4.00         2.00
  156.95        2961.75           1388           6.00         2.00
  156.98        2962.00           1392           6.00         2.00
  157.00        2962.25           1395           5.00         2.00
  157.03        2962.50           1398           4.00         2.00
  157.06        2962.75           1402           5.00         2.00
  157.08        2963.00           1405           6.00         2.00
  157.11        2963.25           1408           7.00         2.00
  157.14        2963.50           1412           6.00         2.00
  157.17        2963.75           1415           5.00         2.00
  157.19        2964.00           1418           3.00         2.00
  157.22        2964.25           1422           5.00         2.00
  157.25        2964.50           1425           4.00         2.00
  157.27        2964.75           1428           4.00         2.00
  157.30        2965.00           1431           4.00         2.00
  157.33        2965.25           1435           8.00         4.80
  157.36        2965.50           1438           7.00         2.00
  157.38        2965.75           1441           5.00         2.00
  157.41        2966.00           1445           6.00         2.00
  157.44        2966.25           1448           9.00         9.15
  157.46        2966.50           1451           5.00         2.00
  157.49        2966.75           1455           5.00         2.00
  157.52        2967.00           1458           8.00         4.80
  157.55        2967.25           1461           7.00         2.00
  157.57        2967.50           1465           5.00         2.00
  157.60        2967.75           1468           3.00         2.00
  157.63        2968.00           1471           6.00         2.00
  157.65        2968.25           1475           4.00         2.00
  157.68        2968.50           1478           7.00         2.00
  157.71        2968.75           1481           6.00         2.00
  157.73        2969.00           1485           7.00         2.00
  157.76        2969.25           1488           5.00         2.00
  157.79        2969.50           1491           5.00         2.00
  157.82        2969.75           1495           6.00         2.00
  157.84        2970.00           1498           3.00         2.00
  157.87        2970.25           1501           4.00         2.00
  157.90        2970.50           1505           8.00         4.80
  157.92        2970.75           1508           6.00         2.00
  157.95        2971.00           1511           7.00         2.00
  157.98        2971.25           1515           5.00         2.00
  158.01        2971.50           1518           4.00         2.00
  158.03        2971.75           1521           7.00         2.00
  158.06        2972.00           1525           7.00         2.00
  158.09        2972.25           1528           7.00         2.00
  158.11        2972.50           1531           7.00         2.00
  158.14        2972.75           1535           8.00         4.80
  158.17        2973.00           1538           4.00         2.00
  158.20        2973.25           1541           4.00         2.00
  158.22        2973.50           1545           8.00         4.80
  158.25        2973.75           1548           6.00         2.00
  158.28        2974.00           1551           3.00         2.00
  158.31        2974.25           1555           6.00         2.00
  158.33        2974.50           1558           7.00         2.00
  158.36        2974.75           1561           5.00         2.00
  158.39        2975.00           1565           5.00         2.00
  158.41        2975.25           1568           8.00         4.80
  158.44        2975.50           1571           8.00         4.80
  158.47        2975.75           1575           4.00         2.00
  158.49        2976.00           1578           5.00         2.00
  158.52        2976.25           1581           8.00         4.80
  158.55        2976.50           1585           6.00         2.00
  158.58        2976.75           1588           4.00         2.00
  158.60        2977.00           1591           4.00         2.00
  158.63        2977.25           1595           6.00         2.00
  158.66        2977.50           1598           3.00         2.00
  158.68        2977.75           1601           5.00         2.00
  158.71        2978.00           1605           6.00         2.00
  158.74        2978.25           1608           6.00         2.00
  158.77        2978.50           1611           4.00         2.00
  158.79        2978.75           1615           5.00         2.00
  158.82        2979.00           1618           6.00         2.00
  158.85        2979.25           1621           5.00         2.00
  158.87        2979.50           1625           4.00         2.00
  158.90        2979.75           1628           6.00         2.00
  158.93        2980.00           1631           5.00         2.00
  158.96        2980.25           1635           4.00         2.00
  158.98        2980.50           1638           6.00         2.00
  159.01        2980.75           1641           5.00         2.00
  159.04        2981.00           1645           6.00         2.00
  159.06        2981.25           1648           7.00         2.00
  159.09        2981.50           1651           3.00         2.00
  159.12        2981.75           1655           6.00         2.00
  159.15        2982.00           1658           7.00         2.00
  159.17        2982.25           1661           6.00         2.00
  159.20        2982.50           1665           8.00         4.80
  159.23        2982.75           1668           6.00         2.00
  159.26        2983.00           1671           8.00         4.80
  159.28        2983.25           1675           7.00         2.00
  159.31        2983.50           1678           4.00         2.00
  159.34        2983.75           1681           7.00         2.00
  159.36        2984.00           1685           5.00         2.00
HS scan finished at 02:39:33
end
