************************************************************
  HS Scan of (1) Internal mercury lamp
************************************************************
Integration time is 0.2294 seconds per sample
dh240517Tamanrasset 22.79-5.529 3.261331pr865
************************************************************
Dead Time -------------------------  2.8E-08 
Number of Cycles Used -------------  4 
Starting Wavelength (Angstroms) ---  2950 
Final Wavelength (Angstoms) -------  2984 
Wavelength Increment (Angstroms) --  .25 
Filter Wheel #1 Position ---------- (1) Ground quartz diffuser (ND=2.32)
Filter Wheel #2 Position ---------- (1) Neutral Density 0.494



************************************************************
HS scan start time = 02:36:17
Dark Count =  6 


Time (GMT)  Wavelength (Ang)  Step Number  Raw Counts  Counts/Second

  156.64        2950.00           1233           7.00         4.36
  156.71        2950.25           1236           7.00         4.36
  156.73        2950.50           1239           7.00         4.36
  156.76        2950.75           1242           6.00         2.00
  156.79        2951.00           1246           2.00         2.00
  156.81        2951.25           1249           6.00         2.00
  156.84        2951.50           1252           6.00         2.00
  156.87        2951.75           1256           7.00         4.36
  156.90        2952.00           1259           7.00         4.36
  156.92        2952.25           1262           2.00         2.00
  156.95        2952.50           1266           4.00         2.00
  156.98        2952.75           1269           8.00         8.72
  157.00        2953.00           1272           5.00         2.00
  157.03        2953.25           1276           2.00         2.00
  157.06        2953.50           1279           7.00         4.36
  157.09        2953.75           1282           4.00         2.00
  157.11        2954.00           1286           9.00        13.08
  157.14        2954.25           1289           7.00         4.36
  157.17        2954.50           1292           5.00         2.00
  157.19        2954.75           1295           3.00         2.00
  157.22        2955.00           1299           3.00         2.00
  157.25        2955.25           1302           3.00         2.00
  157.28        2955.50           1305           7.00         4.36
  157.30        2955.75           1309           7.00         4.36
  157.33        2956.00           1312           5.00         2.00
  157.36        2956.25           1315           7.00         4.36
  157.38        2956.50           1319           7.00         4.36
  157.41        2956.75           1322           6.00         2.00
  157.44        2957.00           1325           5.00         2.00
  157.46        2957.25           1329           4.00         2.00
  157.49        2957.50           1332           7.00         4.36
  157.52        2957.75           1335           5.00         2.00
  157.55        2958.00           1339           6.00         2.00
  157.57        2958.25           1342           5.00         2.00
  157.60        2958.50           1345           3.00         2.00
  157.63        2958.75           1348           4.00         2.00
  157.65        2959.00           1352           7.00         4.36
  157.68        2959.25           1355           6.00         2.00
  157.71        2959.50           1358           4.00         2.00
  157.74        2959.75           1362           7.00         4.36
  157.76        2960.00           1365           3.00         2.00
  157.79        2960.25           1368           6.00         2.00
  157.82        2960.50           1372           4.00         2.00
  157.84        2960.75           1375           6.00         2.00
  157.87        2961.00           1378           6.00         2.00
  157.90        2961.25           1382           7.00         4.36
  157.93        2961.50           1385           8.00         8.72
  157.95        2961.75           1388           5.00         2.00
  157.98        2962.00           1392           8.00         8.72
  158.01        2962.25           1395           6.00         2.00
  158.03        2962.50           1398           7.00         4.36
  158.06        2962.75           1402           6.00         2.00
  158.09        2963.00           1405           6.00         2.00
  158.12        2963.25           1408           8.00         8.72
  158.14        2963.50           1412           2.00         2.00
  158.17        2963.75           1415           3.00         2.00
  158.20        2964.00           1418           6.00         2.00
  158.22        2964.25           1422           8.00         8.72
  158.25        2964.50           1425           2.00         2.00
  158.28        2964.75           1428           6.00         2.00
  158.31        2965.00           1431           7.00         4.36
  158.33        2965.25           1435           6.00         2.00
  158.36        2965.50           1438           3.00         2.00
  158.39        2965.75           1441           7.00         4.36
  158.41        2966.00           1445           5.00         2.00
  158.44        2966.25           1448           6.00         2.00
  158.47        2966.50           1451           5.00         2.00
  158.50        2966.75           1455           4.00         2.00
  158.52        2967.00           1458           6.00         2.00
  158.55        2967.25           1461           7.00         4.36
  158.58        2967.50           1465           6.00         2.00
  158.60        2967.75           1468           5.00         2.00
  158.63        2968.00           1471           4.00         2.00
  158.66        2968.25           1475           5.00         2.00
  158.69        2968.50           1478           4.00         2.00
  158.71        2968.75           1481           6.00         2.00
  158.74        2969.00           1485           6.00         2.00
  158.77        2969.25           1488           2.00         2.00
  158.79        2969.50           1491           7.00         4.36
  158.82        2969.75           1495           3.00         2.00
  158.85        2970.00           1498           7.00         4.36
  158.88        2970.25           1501           7.00         4.36
  158.90        2970.50           1505           6.00         2.00
  158.93        2970.75           1508           4.00         2.00
  158.96        2971.00           1511           3.00         2.00
  158.98        2971.25           1515           4.00         2.00
  159.01        2971.50           1518           5.00         2.00
  159.04        2971.75           1521           7.00         4.36
  159.07        2972.00           1525           5.00         2.00
  159.09        2972.25           1528           4.00         2.00
  159.12        2972.50           1531           7.00         4.36
  159.15        2972.75           1535           2.00         2.00
  159.17        2973.00           1538           7.00         4.36
  159.20        2973.25           1541           8.00         8.72
  159.23        2973.50           1545           6.00         2.00
  159.26        2973.75           1548           6.00         2.00
  159.28        2974.00           1551           7.00         4.36
  159.31        2974.25           1555           6.00         2.00
  159.34        2974.50           1558           8.00         8.72
  159.36        2974.75           1561           4.00         2.00
  159.39        2975.00           1565           2.00         2.00
  159.42        2975.25           1568           5.00         2.00
  159.45        2975.50           1571           7.00         4.36
  159.47        2975.75           1575           3.00         2.00
  159.50        2976.00           1578           2.00         2.00
  159.53        2976.25           1581           3.00         2.00
  159.55        2976.50           1585           4.00         2.00
  159.58        2976.75           1588           3.00         2.00
  159.61        2977.00           1591           5.00         2.00
  159.64        2977.25           1595           4.00         2.00
  159.66        2977.50           1598           4.00         2.00
  159.69        2977.75           1601           7.00         4.36
  159.72        2978.00           1605           7.00         4.36
  159.74        2978.25           1608           9.00        13.08
  159.77        2978.50           1611           3.00         2.00
  159.80        2978.75           1615           7.00         4.36
  159.83        2979.00           1618           5.00         2.00
  159.85        2979.25           1621           4.00         2.00
  159.88        2979.50           1625           7.00         4.36
  159.91        2979.75           1628           5.00         2.00
  159.93        2980.00           1631           5.00         2.00
  159.96        2980.25           1635           5.00         2.00
  159.99        2980.50           1638           6.00         2.00
  160.02        2980.75           1641           4.00         2.00
  160.04        2981.00           1645           7.00         4.36
  160.07        2981.25           1648           7.00         4.36
  160.10        2981.50           1651           7.00         4.36
  160.12        2981.75           1655           4.00         2.00
  160.15        2982.00           1658           5.00         2.00
  160.18        2982.25           1661           6.00         2.00
  160.21        2982.50           1665           3.00         2.00
  160.23        2982.75           1668           5.00         2.00
  160.26        2983.00           1671           4.00         2.00
  160.29        2983.25           1675           4.00         2.00
  160.31        2983.50           1678           4.00         2.00
  160.34        2983.75           1681           5.00         2.00
  160.37        2984.00           1685           6.00         2.00
HS scan finished at 02:40:33
end
