************************************************************
  HS Scan of (1) Internal mercury lamp
************************************************************
Integration time is 0.2294 seconds per sample
dh230517Tamanrasset 22.79-5.529 3.281725pr865
************************************************************
Dead Time -------------------------  2.8E-08 
Number of Cycles Used -------------  4 
Starting Wavelength (Angstroms) ---  2950 
Final Wavelength (Angstoms) -------  2984 
Wavelength Increment (Angstroms) --  .25 
Filter Wheel #1 Position ---------- (1) Ground quartz diffuser (ND=2.32)
Filter Wheel #2 Position ---------- (1) Neutral Density 0.494



************************************************************
HS scan start time = 02:37:29
Dark Count =  4.7 


Time (GMT)  Wavelength (Ang)  Step Number  Raw Counts  Counts/Second

  157.83        2950.00           1233           9.00        18.74
  157.90        2950.25           1236           6.00         5.67
  157.92        2950.50           1239           7.00        10.03
  157.95        2950.75           1242           6.00         5.67
  157.98        2951.00           1246           4.00         2.00
  158.00        2951.25           1249           6.00         5.67
  158.03        2951.50           1252           4.00         2.00
  158.06        2951.75           1256           6.00         5.67
  158.09        2952.00           1259           8.00        14.39
  158.11        2952.25           1262           3.00         2.00
  158.14        2952.50           1266           8.00        14.39
  158.17        2952.75           1269           8.00        14.39
  158.19        2953.00           1272           6.00         5.67
  158.22        2953.25           1276           8.00        14.39
  158.25        2953.50           1279           5.00         2.00
  158.28        2953.75           1282           5.00         2.00
  158.30        2954.00           1286           5.00         2.00
  158.33        2954.25           1289           4.00         2.00
  158.36        2954.50           1292           4.00         2.00
  158.38        2954.75           1295           6.00         5.67
  158.41        2955.00           1299           4.00         2.00
  158.44        2955.25           1302           7.00        10.03
  158.47        2955.50           1305           5.00         2.00
  158.49        2955.75           1309           9.00        18.74
  158.52        2956.00           1312           5.00         2.00
  158.55        2956.25           1315           7.00        10.03
  158.57        2956.50           1319           8.00        14.39
  158.60        2956.75           1322           3.00         2.00
  158.63        2957.00           1325           9.00        18.74
  158.66        2957.25           1329           7.00        10.03
  158.68        2957.50           1332           7.00        10.03
  158.71        2957.75           1335           6.00         5.67
  158.74        2958.00           1339           6.00         5.67
  158.77        2958.25           1342           5.00         2.00
  158.79        2958.50           1345           4.00         2.00
  158.82        2958.75           1348           6.00         5.67
  158.85        2959.00           1352           7.00        10.03
  158.87        2959.25           1355           4.00         2.00
  158.90        2959.50           1358           5.00         2.00
  158.93        2959.75           1362           4.00         2.00
  158.96        2960.00           1365           6.00         5.67
  158.98        2960.25           1368           6.00         5.67
  159.01        2960.50           1372           3.00         2.00
  159.04        2960.75           1375           5.00         2.00
  159.06        2961.00           1378           4.00         2.00
  159.09        2961.25           1382           4.00         2.00
  159.12        2961.50           1385           4.00         2.00
  159.15        2961.75           1388           6.00         5.67
  159.17        2962.00           1392           5.00         2.00
  159.20        2962.25           1395           7.00        10.03
  159.23        2962.50           1398           8.00        14.39
  159.26        2962.75           1402           5.00         2.00
  159.28        2963.00           1405           8.00        14.39
  159.31        2963.25           1408           5.00         2.00
  159.34        2963.50           1412           5.00         2.00
  159.36        2963.75           1415           4.00         2.00
  159.39        2964.00           1418           2.00         2.00
  159.42        2964.25           1422           5.00         2.00
  159.45        2964.50           1425           7.00        10.03
  159.47        2964.75           1428           4.00         2.00
  159.50        2965.00           1431           6.00         5.67
  159.53        2965.25           1435           6.00         5.67
  159.55        2965.50           1438           6.00         5.67
  159.58        2965.75           1441           6.00         5.67
  159.61        2966.00           1445           7.00        10.03
  159.63        2966.25           1448           6.00         5.67
  159.66        2966.50           1451           6.00         5.67
  159.69        2966.75           1455           6.00         5.67
  159.72        2967.00           1458           3.00         2.00
  159.74        2967.25           1461           4.00         2.00
  159.77        2967.50           1465           5.00         2.00
  159.80        2967.75           1468           2.00         2.00
  159.83        2968.00           1471           5.00         2.00
  159.85        2968.25           1475           8.00        14.39
  159.88        2968.50           1478           0.00         2.00
  159.91        2968.75           1481           6.00         5.67
  159.93        2969.00           1485           4.00         2.00
  159.96        2969.25           1488           5.00         2.00
  159.99        2969.50           1491           6.00         5.67
  160.02        2969.75           1495           4.00         2.00
  160.04        2970.00           1498           4.00         2.00
  160.07        2970.25           1501           5.00         2.00
  160.10        2970.50           1505           8.00        14.39
  160.12        2970.75           1508           5.00         2.00
  160.15        2971.00           1511           7.00        10.03
  160.18        2971.25           1515           7.00        10.03
  160.21        2971.50           1518           6.00         5.67
  160.23        2971.75           1521           5.00         2.00
  160.26        2972.00           1525           3.00         2.00
  160.29        2972.25           1528           6.00         5.67
  160.31        2972.50           1531           1.00         2.00
  160.34        2972.75           1535           6.00         5.67
  160.37        2973.00           1538           6.00         5.67
  160.39        2973.25           1541           8.00        14.39
  160.42        2973.50           1545           5.00         2.00
  160.45        2973.75           1548           8.00        14.39
  160.48        2974.00           1551           7.00        10.03
  160.50        2974.25           1555           6.00         5.67
  160.53        2974.50           1558           2.00         2.00
  160.56        2974.75           1561           6.00         5.67
  160.58        2975.00           1565           6.00         5.67
  160.61        2975.25           1568           6.00         5.67
  160.64        2975.50           1571           9.00        18.74
  160.67        2975.75           1575           7.00        10.03
  160.69        2976.00           1578           7.00        10.03
  160.72        2976.25           1581           5.00         2.00
  160.75        2976.50           1585           3.00         2.00
  160.78        2976.75           1588           6.00         5.67
  160.80        2977.00           1591           6.00         5.67
  160.83        2977.25           1595           8.00        14.39
  160.86        2977.50           1598           6.00         5.67
  160.88        2977.75           1601           7.00        10.03
  160.91        2978.00           1605           7.00        10.03
  160.94        2978.25           1608           5.00         2.00
  160.97        2978.50           1611           7.00        10.03
  160.99        2978.75           1615           6.00         5.67
  161.02        2979.00           1618           8.00        14.39
  161.05        2979.25           1621           7.00        10.03
  161.07        2979.50           1625           5.00         2.00
  161.10        2979.75           1628           2.00         2.00
  161.13        2980.00           1631           6.00         5.67
  161.16        2980.25           1635           7.00        10.03
  161.18        2980.50           1638           7.00        10.03
  161.21        2980.75           1641           5.00         2.00
  161.24        2981.00           1645           4.00         2.00
  161.26        2981.25           1648           4.00         2.00
  161.29        2981.50           1651           5.00         2.00
  161.32        2981.75           1655           6.00         5.67
  161.35        2982.00           1658           5.00         2.00
  161.37        2982.25           1661           5.00         2.00
  161.40        2982.50           1665           7.00        10.03
  161.43        2982.75           1668           5.00         2.00
  161.45        2983.00           1671           7.00        10.03
  161.48        2983.25           1675           4.00         2.00
  161.51        2983.50           1678           7.00        10.03
  161.54        2983.75           1681           8.00        14.39
  161.56        2984.00           1685           6.00         5.67
HS scan finished at 02:41:45
end
