************************************************************
  HS Scan of (1) Internal mercury lamp
************************************************************
Integration time is 0.2294 seconds per sample
dh250517Tamanrasset 22.79-5.529 3.123676pr865
************************************************************
Dead Time -------------------------  2.8E-08 
Number of Cycles Used -------------  4 
Starting Wavelength (Angstroms) ---  2950 
Final Wavelength (Angstoms) -------  2984 
Wavelength Increment (Angstroms) --  .25 
Filter Wheel #1 Position ---------- (1) Ground quartz diffuser (ND=2.32)
Filter Wheel #2 Position ---------- (1) Neutral Density 0.494



************************************************************
HS scan start time = 02:36:28
Dark Count =  5.5 


Time (GMT)  Wavelength (Ang)  Step Number  Raw Counts  Counts/Second

  156.83        2950.00           1233           2.00         2.00
  156.89        2950.25           1236           2.00         2.00
  156.92        2950.50           1239           4.00         2.00
  156.95        2950.75           1242           8.00        10.90
  156.97        2951.00           1246           7.00         6.54
  157.00        2951.25           1249           8.00        10.90
  157.03        2951.50           1252           0.00         2.00
  157.05        2951.75           1256           5.00         2.00
  157.08        2952.00           1259           7.00         6.54
  157.11        2952.25           1262           7.00         6.54
  157.14        2952.50           1266           3.00         2.00
  157.16        2952.75           1269           4.00         2.00
  157.19        2953.00           1272           5.00         2.00
  157.22        2953.25           1276           7.00         6.54
  157.24        2953.50           1279           7.00         6.54
  157.27        2953.75           1282           6.00         2.18
  157.30        2954.00           1286           8.00        10.90
  157.33        2954.25           1289           3.00         2.00
  157.35        2954.50           1292           6.00         2.18
  157.38        2954.75           1295           7.00         6.54
  157.41        2955.00           1299           5.00         2.00
  157.43        2955.25           1302           8.00        10.90
  157.46        2955.50           1305           8.00        10.90
  157.49        2955.75           1309           5.00         2.00
  157.51        2956.00           1312           5.00         2.00
  157.54        2956.25           1315           4.00         2.00
  157.57        2956.50           1319           7.00         6.54
  157.60        2956.75           1322           7.00         6.54
  157.62        2957.00           1325           5.00         2.00
  157.65        2957.25           1329           7.00         6.54
  157.68        2957.50           1332           7.00         6.54
  157.70        2957.75           1335           4.00         2.00
  157.73        2958.00           1339           9.00        15.26
  157.76        2958.25           1342           3.00         2.00
  157.79        2958.50           1345           7.00         6.54
  157.81        2958.75           1348           4.00         2.00
  157.84        2959.00           1352           7.00         6.54
  157.87        2959.25           1355           1.00         2.00
  157.89        2959.50           1358           5.00         2.00
  157.92        2959.75           1362           5.00         2.00
  157.95        2960.00           1365           4.00         2.00
  157.98        2960.25           1368           4.00         2.00
  158.00        2960.50           1372           5.00         2.00
  158.03        2960.75           1375           7.00         6.54
  158.06        2961.00           1378           2.00         2.00
  158.08        2961.25           1382           7.00         6.54
  158.11        2961.50           1385           8.00        10.90
  158.14        2961.75           1388           8.00        10.90
  158.17        2962.00           1392           4.00         2.00
  158.19        2962.25           1395           8.00        10.90
  158.22        2962.50           1398           7.00         6.54
  158.25        2962.75           1402           5.00         2.00
  158.27        2963.00           1405           3.00         2.00
  158.30        2963.25           1408           3.00         2.00
  158.33        2963.50           1412           5.00         2.00
  158.35        2963.75           1415           6.00         2.18
  158.38        2964.00           1418           4.00         2.00
  158.41        2964.25           1422           8.00        10.90
  158.44        2964.50           1425           6.00         2.18
  158.46        2964.75           1428           0.00         2.00
  158.49        2965.00           1431           6.00         2.18
  158.52        2965.25           1435           7.00         6.54
  158.55        2965.50           1438           6.00         2.18
  158.57        2965.75           1441           7.00         6.54
  158.60        2966.00           1445           3.00         2.00
  158.63        2966.25           1448           8.00        10.90
  158.65        2966.50           1451           2.00         2.00
  158.68        2966.75           1455           4.00         2.00
  158.71        2967.00           1458           4.00         2.00
  158.74        2967.25           1461           4.00         2.00
  158.76        2967.50           1465           8.00        10.90
  158.79        2967.75           1468           8.00        10.90
  158.82        2968.00           1471           6.00         2.18
  158.84        2968.25           1475           3.00         2.00
  158.87        2968.50           1478           6.00         2.18
  158.90        2968.75           1481           6.00         2.18
  158.93        2969.00           1485           5.00         2.00
  158.95        2969.25           1488           8.00        10.90
  158.98        2969.50           1491           3.00         2.00
  159.01        2969.75           1495           3.00         2.00
  159.03        2970.00           1498           5.00         2.00
  159.06        2970.25           1501           7.00         6.54
  159.09        2970.50           1505           5.00         2.00
  159.12        2970.75           1508           5.00         2.00
  159.14        2971.00           1511           8.00        10.90
  159.17        2971.25           1515           7.00         6.54
  159.20        2971.50           1518           6.00         2.18
  159.22        2971.75           1521           4.00         2.00
  159.25        2972.00           1525           8.00        10.90
  159.28        2972.25           1528           3.00         2.00
  159.30        2972.50           1531           6.00         2.18
  159.33        2972.75           1535           7.00         6.54
  159.36        2973.00           1538           7.00         6.54
  159.39        2973.25           1541           4.00         2.00
  159.41        2973.50           1545           3.00         2.00
  159.44        2973.75           1548           1.00         2.00
  159.47        2974.00           1551           4.00         2.00
  159.49        2974.25           1555           6.00         2.18
  159.52        2974.50           1558           4.00         2.00
  159.55        2974.75           1561           0.00         2.00
  159.58        2975.00           1565           2.00         2.00
  159.60        2975.25           1568           4.00         2.00
  159.63        2975.50           1571           6.00         2.18
  159.66        2975.75           1575           7.00         6.54
  159.68        2976.00           1578           4.00         2.00
  159.71        2976.25           1581           6.00         2.18
  159.74        2976.50           1585           4.00         2.00
  159.77        2976.75           1588           4.00         2.00
  159.79        2977.00           1591           4.00         2.00
  159.82        2977.25           1595           7.00         6.54
  159.85        2977.50           1598           5.00         2.00
  159.87        2977.75           1601           4.00         2.00
  159.90        2978.00           1605           3.00         2.00
  159.93        2978.25           1608           3.00         2.00
  159.96        2978.50           1611           4.00         2.00
  159.98        2978.75           1615           1.00         2.00
  160.01        2979.00           1618           8.00        10.90
  160.04        2979.25           1621           5.00         2.00
  160.06        2979.50           1625           7.00         6.54
  160.09        2979.75           1628           4.00         2.00
  160.12        2980.00           1631           7.00         6.54
  160.15        2980.25           1635           7.00         6.54
  160.17        2980.50           1638           7.00         6.54
  160.20        2980.75           1641           2.00         2.00
  160.23        2981.00           1645           3.00         2.00
  160.25        2981.25           1648           5.00         2.00
  160.28        2981.50           1651           5.00         2.00
  160.31        2981.75           1655           5.00         2.00
  160.34        2982.00           1658           7.00         6.54
  160.36        2982.25           1661           6.00         2.18
  160.39        2982.50           1665           8.00        10.90
  160.42        2982.75           1668           7.00         6.54
  160.44        2983.00           1671           2.00         2.00
  160.47        2983.25           1675           7.00         6.54
  160.50        2983.50           1678           4.00         2.00
  160.53        2983.75           1681           8.00        10.90
  160.55        2984.00           1685           7.00         6.54
HS scan finished at 02:40:44
end
