************************************************************
  HS Scan of (1) Internal mercury lamp
************************************************************
Integration time is 0.2294 seconds per sample
dh270517Tamanrasset 22.79-5.529 3.286823pr865
************************************************************
Dead Time -------------------------  2.8E-08 
Number of Cycles Used -------------  4 
Starting Wavelength (Angstroms) ---  2950 
Final Wavelength (Angstoms) -------  2984 
Wavelength Increment (Angstroms) --  .25 
Filter Wheel #1 Position ---------- (1) Ground quartz diffuser (ND=2.32)
Filter Wheel #2 Position ---------- (1) Neutral Density 0.494



************************************************************
HS scan start time = 02:36:17
Dark Count =  6.7 


Time (GMT)  Wavelength (Ang)  Step Number  Raw Counts  Counts/Second

  156.64        2950.00           1233           8.00         5.67
  156.71        2950.25           1236           6.00         2.00
  156.73        2950.50           1239           7.00         2.00
  156.76        2950.75           1242           1.00         2.00
  156.79        2951.00           1246           4.00         2.00
  156.82        2951.25           1249           6.00         2.00
  156.84        2951.50           1252           5.00         2.00
  156.87        2951.75           1256           7.00         2.00
  156.90        2952.00           1259           5.00         2.00
  156.93        2952.25           1262           5.00         2.00
  156.95        2952.50           1266           7.00         2.00
  156.98        2952.75           1269           4.00         2.00
  157.01        2953.00           1272           5.00         2.00
  157.03        2953.25           1276           7.00         2.00
  157.06        2953.50           1279           7.00         2.00
  157.09        2953.75           1282           8.00         5.67
  157.12        2954.00           1286           7.00         2.00
  157.14        2954.25           1289           3.00         2.00
  157.17        2954.50           1292           7.00         2.00
  157.20        2954.75           1295           2.00         2.00
  157.22        2955.00           1299           7.00         2.00
  157.25        2955.25           1302           8.00         5.67
  157.28        2955.50           1305           3.00         2.00
  157.31        2955.75           1309           3.00         2.00
  157.33        2956.00           1312           7.00         2.00
  157.36        2956.25           1315           7.00         2.00
  157.39        2956.50           1319           5.00         2.00
  157.41        2956.75           1322           8.00         5.67
  157.44        2957.00           1325           6.00         2.00
  157.47        2957.25           1329           4.00         2.00
  157.50        2957.50           1332           5.00         2.00
  157.52        2957.75           1335           7.00         2.00
  157.55        2958.00           1339           6.00         2.00
  157.58        2958.25           1342           5.00         2.00
  157.60        2958.50           1345           8.00         5.67
  157.63        2958.75           1348           5.00         2.00
  157.66        2959.00           1352           7.00         2.00
  157.69        2959.25           1355           2.00         2.00
  157.71        2959.50           1358           8.00         5.67
  157.74        2959.75           1362           4.00         2.00
  157.77        2960.00           1365           8.00         5.67
  157.79        2960.25           1368           5.00         2.00
  157.82        2960.50           1372           3.00         2.00
  157.85        2960.75           1375           5.00         2.00
  157.88        2961.00           1378           7.00         2.00
  157.90        2961.25           1382           7.00         2.00
  157.93        2961.50           1385           6.00         2.00
  157.96        2961.75           1388           4.00         2.00
  157.98        2962.00           1392           5.00         2.00
  158.01        2962.25           1395           6.00         2.00
  158.04        2962.50           1398           8.00         5.67
  158.07        2962.75           1402           6.00         2.00
  158.09        2963.00           1405           6.00         2.00
  158.12        2963.25           1408           2.00         2.00
  158.15        2963.50           1412           5.00         2.00
  158.17        2963.75           1415           8.00         5.67
  158.20        2964.00           1418           4.00         2.00
  158.23        2964.25           1422           5.00         2.00
  158.26        2964.50           1425           8.00         5.67
  158.28        2964.75           1428           5.00         2.00
  158.31        2965.00           1431           9.00        10.03
  158.34        2965.25           1435           2.00         2.00
  158.36        2965.50           1438           5.00         2.00
  158.39        2965.75           1441           6.00         2.00
  158.42        2966.00           1445           7.00         2.00
  158.45        2966.25           1448           7.00         2.00
  158.47        2966.50           1451           6.00         2.00
  158.50        2966.75           1455           7.00         2.00
  158.53        2967.00           1458           4.00         2.00
  158.55        2967.25           1461           9.00        10.03
  158.58        2967.50           1465           4.00         2.00
  158.61        2967.75           1468           7.00         2.00
  158.64        2968.00           1471           6.00         2.00
  158.66        2968.25           1475           4.00         2.00
  158.69        2968.50           1478           5.00         2.00
  158.72        2968.75           1481           4.00         2.00
  158.74        2969.00           1485           5.00         2.00
  158.77        2969.25           1488           3.00         2.00
  158.80        2969.50           1491           3.00         2.00
  158.82        2969.75           1495           4.00         2.00
  158.85        2970.00           1498           7.00         2.00
  158.88        2970.25           1501           6.00         2.00
  158.91        2970.50           1505           4.00         2.00
  158.93        2970.75           1508           5.00         2.00
  158.96        2971.00           1511           5.00         2.00
  158.99        2971.25           1515           4.00         2.00
  159.02        2971.50           1518           7.00         2.00
  159.04        2971.75           1521           5.00         2.00
  159.07        2972.00           1525           9.00        10.03
  159.10        2972.25           1528           6.00         2.00
  159.12        2972.50           1531           4.00         2.00
  159.15        2972.75           1535           9.00        10.03
  159.18        2973.00           1538           7.00         2.00
  159.20        2973.25           1541           4.00         2.00
  159.23        2973.50           1545           5.00         2.00
  159.26        2973.75           1548           5.00         2.00
  159.29        2974.00           1551           7.00         2.00
  159.31        2974.25           1555           3.00         2.00
  159.34        2974.50           1558           4.00         2.00
  159.37        2974.75           1561           4.00         2.00
  159.39        2975.00           1565           6.00         2.00
  159.42        2975.25           1568           5.00         2.00
  159.45        2975.50           1571           7.00         2.00
  159.48        2975.75           1575           8.00         5.67
  159.50        2976.00           1578           5.00         2.00
  159.53        2976.25           1581           6.00         2.00
  159.56        2976.50           1585           7.00         2.00
  159.58        2976.75           1588           6.00         2.00
  159.61        2977.00           1591           7.00         2.00
  159.64        2977.25           1595           4.00         2.00
  159.67        2977.50           1598           2.00         2.00
  159.69        2977.75           1601           8.00         5.67
  159.72        2978.00           1605           7.00         2.00
  159.75        2978.25           1608           7.00         2.00
  159.77        2978.50           1611           4.00         2.00
  159.80        2978.75           1615           5.00         2.00
  159.83        2979.00           1618           6.00         2.00
  159.86        2979.25           1621           5.00         2.00
  159.88        2979.50           1625           3.00         2.00
  159.91        2979.75           1628           5.00         2.00
  159.94        2980.00           1631           7.00         2.00
  159.96        2980.25           1635           4.00         2.00
  159.99        2980.50           1638           5.00         2.00
  160.02        2980.75           1641           7.00         2.00
  160.05        2981.00           1645           5.00         2.00
  160.07        2981.25           1648           6.00         2.00
  160.10        2981.50           1651           6.00         2.00
  160.13        2981.75           1655           6.00         2.00
  160.15        2982.00           1658           5.00         2.00
  160.18        2982.25           1661           7.00         2.00
  160.21        2982.50           1665           8.00         5.67
  160.24        2982.75           1668           6.00         2.00
  160.26        2983.00           1671           7.00         2.00
  160.29        2983.25           1675           4.00         2.00
  160.32        2983.50           1678           8.00         5.67
  160.34        2983.75           1681           2.00         2.00
  160.37        2984.00           1685           3.00         2.00
HS scan finished at 02:40:34
end
