************************************************************
  HS Scan of (1) Internal mercury lamp
************************************************************
Integration time is 0.2294 seconds per sample
dh210517Tamanrasset 22.79-5.529 3.307216pr865
************************************************************
Dead Time -------------------------  2.8E-08 
Number of Cycles Used -------------  4 
Starting Wavelength (Angstroms) ---  2950 
Final Wavelength (Angstoms) -------  2984 
Wavelength Increment (Angstroms) --  .25 
Filter Wheel #1 Position ---------- (1) Ground quartz diffuser (ND=2.32)
Filter Wheel #2 Position ---------- (1) Neutral Density 0.494



************************************************************
HS scan start time = 02:37:29
Dark Count =  5.1 


Time (GMT)  Wavelength (Ang)  Step Number  Raw Counts  Counts/Second

  157.84        2950.00           1233           6.00         3.92
  157.90        2950.25           1236           5.00         2.00
  157.93        2950.50           1239           6.00         3.92
  157.96        2950.75           1242           6.00         3.92
  157.98        2951.00           1246           9.00        17.00
  158.01        2951.25           1249           7.00         8.28
  158.04        2951.50           1252           9.00        17.00
  158.07        2951.75           1256           6.00         3.92
  158.09        2952.00           1259           6.00         3.92
  158.12        2952.25           1262           6.00         3.92
  158.15        2952.50           1266           8.00        12.64
  158.17        2952.75           1269           7.00         8.28
  158.20        2953.00           1272           7.00         8.28
  158.23        2953.25           1276           8.00        12.64
  158.26        2953.50           1279           6.00         3.92
  158.28        2953.75           1282           5.00         2.00
  158.31        2954.00           1286           6.00         3.92
  158.34        2954.25           1289           1.00         2.00
  158.36        2954.50           1292           3.00         2.00
  158.39        2954.75           1295           3.00         2.00
  158.42        2955.00           1299           8.00        12.64
  158.44        2955.25           1302           8.00        12.64
  158.47        2955.50           1305           8.00        12.64
  158.50        2955.75           1309           4.00         2.00
  158.53        2956.00           1312           9.00        17.00
  158.55        2956.25           1315           6.00         3.92
  158.58        2956.50           1319           5.00         2.00
  158.61        2956.75           1322           8.00        12.64
  158.63        2957.00           1325           8.00        12.64
  158.66        2957.25           1329           6.00         3.92
  158.69        2957.50           1332           7.00         8.28
  158.72        2957.75           1335           8.00        12.64
  158.74        2958.00           1339           7.00         8.28
  158.77        2958.25           1342           7.00         8.28
  158.80        2958.50           1345           6.00         3.92
  158.82        2958.75           1348           4.00         2.00
  158.85        2959.00           1352           7.00         8.28
  158.88        2959.25           1355           4.00         2.00
  158.91        2959.50           1358           5.00         2.00
  158.93        2959.75           1362           5.00         2.00
  158.96        2960.00           1365           4.00         2.00
  158.99        2960.25           1368           7.00         8.28
  159.01        2960.50           1372           5.00         2.00
  159.04        2960.75           1375           7.00         8.28
  159.07        2961.00           1378           8.00        12.64
  159.10        2961.25           1382           5.00         2.00
  159.12        2961.50           1385           4.00         2.00
  159.15        2961.75           1388           8.00        12.64
  159.18        2962.00           1392           6.00         3.92
  159.20        2962.25           1395           4.00         2.00
  159.23        2962.50           1398           3.00         2.00
  159.26        2962.75           1402           7.00         8.28
  159.29        2963.00           1405           9.00        17.00
  159.31        2963.25           1408           3.00         2.00
  159.34        2963.50           1412           5.00         2.00
  159.37        2963.75           1415           4.00         2.00
  159.39        2964.00           1418           4.00         2.00
  159.42        2964.25           1422           7.00         8.28
  159.45        2964.50           1425           5.00         2.00
  159.48        2964.75           1428           5.00         2.00
  159.50        2965.00           1431           3.00         2.00
  159.53        2965.25           1435           8.00        12.64
  159.56        2965.50           1438           3.00         2.00
  159.58        2965.75           1441           6.00         3.92
  159.61        2966.00           1445           6.00         3.92
  159.64        2966.25           1448           8.00        12.64
  159.67        2966.50           1451           6.00         3.92
  159.69        2966.75           1455           6.00         3.92
  159.72        2967.00           1458           5.00         2.00
  159.75        2967.25           1461           4.00         2.00
  159.77        2967.50           1465           5.00         2.00
  159.80        2967.75           1468           4.00         2.00
  159.83        2968.00           1471           8.00        12.64
  159.86        2968.25           1475           9.00        17.00
  159.88        2968.50           1478           8.00        12.64
  159.91        2968.75           1481           5.00         2.00
  159.94        2969.00           1485           5.00         2.00
  159.96        2969.25           1488           8.00        12.64
  159.99        2969.50           1491           4.00         2.00
  160.02        2969.75           1495           0.00         2.00
  160.05        2970.00           1498           4.00         2.00
  160.07        2970.25           1501           9.00        17.00
  160.10        2970.50           1505           7.00         8.28
  160.13        2970.75           1508           7.00         8.28
  160.15        2971.00           1511           3.00         2.00
  160.18        2971.25           1515           4.00         2.00
  160.21        2971.50           1518           4.00         2.00
  160.24        2971.75           1521           4.00         2.00
  160.26        2972.00           1525           5.00         2.00
  160.29        2972.25           1528           5.00         2.00
  160.32        2972.50           1531           5.00         2.00
  160.34        2972.75           1535           5.00         2.00
  160.37        2973.00           1538           5.00         2.00
  160.40        2973.25           1541           4.00         2.00
  160.43        2973.50           1545           7.00         8.28
  160.45        2973.75           1548           7.00         8.28
  160.48        2974.00           1551           7.00         8.28
  160.51        2974.25           1555           5.00         2.00
  160.53        2974.50           1558           3.00         2.00
  160.56        2974.75           1561           4.00         2.00
  160.59        2975.00           1565           8.00        12.64
  160.62        2975.25           1568           6.00         3.92
  160.64        2975.50           1571           4.00         2.00
  160.67        2975.75           1575           3.00         2.00
  160.70        2976.00           1578           3.00         2.00
  160.72        2976.25           1581           7.00         8.28
  160.75        2976.50           1585           5.00         2.00
  160.78        2976.75           1588           8.00        12.64
  160.81        2977.00           1591           7.00         8.28
  160.83        2977.25           1595           6.00         3.92
  160.86        2977.50           1598           6.00         3.92
  160.89        2977.75           1601           6.00         3.92
  160.91        2978.00           1605           4.00         2.00
  160.94        2978.25           1608           8.00        12.64
  160.97        2978.50           1611           6.00         3.92
  161.00        2978.75           1615           7.00         8.28
  161.02        2979.00           1618           4.00         2.00
  161.05        2979.25           1621           3.00         2.00
  161.08        2979.50           1625           5.00         2.00
  161.10        2979.75           1628           4.00         2.00
  161.13        2980.00           1631           5.00         2.00
  161.16        2980.25           1635           6.00         3.92
  161.19        2980.50           1638           6.00         3.92
  161.21        2980.75           1641           8.00        12.64
  161.24        2981.00           1645           8.00        12.64
  161.27        2981.25           1648           7.00         8.28
  161.29        2981.50           1651           6.00         3.92
  161.32        2981.75           1655           4.00         2.00
  161.35        2982.00           1658           8.00        12.64
  161.38        2982.25           1661           8.00        12.64
  161.40        2982.50           1665           8.00        12.64
  161.43        2982.75           1668           7.00         8.28
  161.46        2983.00           1671           4.00         2.00
  161.48        2983.25           1675           8.00        12.64
  161.51        2983.50           1678           7.00         8.28
  161.54        2983.75           1681           6.00         3.92
  161.57        2984.00           1685           5.00         2.00
HS scan finished at 02:41:45
end
