************************************************************
  HS Scan of (1) Internal mercury lamp
************************************************************
Integration time is 0.2294 seconds per sample
dh220517Tamanrasset 22.79-5.529 3.281725pr865
************************************************************
Dead Time -------------------------  2.8E-08 
Number of Cycles Used -------------  4 
Starting Wavelength (Angstroms) ---  2950 
Final Wavelength (Angstoms) -------  2984 
Wavelength Increment (Angstroms) --  .25 
Filter Wheel #1 Position ---------- (1) Ground quartz diffuser (ND=2.32)
Filter Wheel #2 Position ---------- (1) Neutral Density 0.494



************************************************************
HS scan start time = 02:37:29
Dark Count =  6.1 


Time (GMT)  Wavelength (Ang)  Step Number  Raw Counts  Counts/Second

  157.84        2950.00           1233           6.00         2.00
  157.90        2950.25           1236           5.00         2.00
  157.93        2950.50           1239           6.00         2.00
  157.96        2950.75           1242           6.00         2.00
  157.99        2951.00           1246           2.00         2.00
  158.01        2951.25           1249           2.00         2.00
  158.04        2951.50           1252           8.00         8.28
  158.07        2951.75           1256           5.00         2.00
  158.09        2952.00           1259           5.00         2.00
  158.12        2952.25           1262           9.00        12.64
  158.15        2952.50           1266           4.00         2.00
  158.18        2952.75           1269           8.00         8.28
  158.20        2953.00           1272           4.00         2.00
  158.23        2953.25           1276           6.00         2.00
  158.26        2953.50           1279           5.00         2.00
  158.28        2953.75           1282           5.00         2.00
  158.31        2954.00           1286           4.00         2.00
  158.34        2954.25           1289           2.00         2.00
  158.37        2954.50           1292           5.00         2.00
  158.39        2954.75           1295           8.00         8.28
  158.42        2955.00           1299           6.00         2.00
  158.45        2955.25           1302           8.00         8.28
  158.47        2955.50           1305           8.00         8.28
  158.50        2955.75           1309           6.00         2.00
  158.53        2956.00           1312           6.00         2.00
  158.56        2956.25           1315           8.00         8.28
  158.58        2956.50           1319           5.00         2.00
  158.61        2956.75           1322           6.00         2.00
  158.64        2957.00           1325           7.00         3.92
  158.66        2957.25           1329           0.00         2.00
  158.69        2957.50           1332           6.00         2.00
  158.72        2957.75           1335           7.00         3.92
  158.75        2958.00           1339           4.00         2.00
  158.77        2958.25           1342           6.00         2.00
  158.80        2958.50           1345           4.00         2.00
  158.83        2958.75           1348           6.00         2.00
  158.85        2959.00           1352           8.00         8.28
  158.88        2959.25           1355           6.00         2.00
  158.91        2959.50           1358           0.00         2.00
  158.94        2959.75           1362           6.00         2.00
  158.96        2960.00           1365           2.00         2.00
  158.99        2960.25           1368           4.00         2.00
  159.02        2960.50           1372           5.00         2.00
  159.04        2960.75           1375           4.00         2.00
  159.07        2961.00           1378           8.00         8.28
  159.10        2961.25           1382           6.00         2.00
  159.13        2961.50           1385           5.00         2.00
  159.15        2961.75           1388           5.00         2.00
  159.18        2962.00           1392           8.00         8.28
  159.21        2962.25           1395           1.00         2.00
  159.23        2962.50           1398           6.00         2.00
  159.26        2962.75           1402           4.00         2.00
  159.29        2963.00           1405           7.00         3.92
  159.32        2963.25           1408           7.00         3.92
  159.34        2963.50           1412           8.00         8.28
  159.37        2963.75           1415           5.00         2.00
  159.40        2964.00           1418           2.00         2.00
  159.42        2964.25           1422           4.00         2.00
  159.45        2964.50           1425           5.00         2.00
  159.48        2964.75           1428           5.00         2.00
  159.51        2965.00           1431           3.00         2.00
  159.53        2965.25           1435           5.00         2.00
  159.56        2965.50           1438           4.00         2.00
  159.59        2965.75           1441           5.00         2.00
  159.61        2966.00           1445           5.00         2.00
  159.64        2966.25           1448           5.00         2.00
  159.67        2966.50           1451           5.00         2.00
  159.70        2966.75           1455           6.00         2.00
  159.72        2967.00           1458           6.00         2.00
  159.75        2967.25           1461           6.00         2.00
  159.78        2967.50           1465           6.00         2.00
  159.80        2967.75           1468           9.00        12.64
  159.83        2968.00           1471           5.00         2.00
  159.86        2968.25           1475           4.00         2.00
  159.89        2968.50           1478           6.00         2.00
  159.91        2968.75           1481           8.00         8.28
  159.94        2969.00           1485           4.00         2.00
  159.97        2969.25           1488           5.00         2.00
  159.99        2969.50           1491           3.00         2.00
  160.02        2969.75           1495           5.00         2.00
  160.05        2970.00           1498           6.00         2.00
  160.08        2970.25           1501           7.00         3.92
  160.10        2970.50           1505           7.00         3.92
  160.13        2970.75           1508           5.00         2.00
  160.16        2971.00           1511           5.00         2.00
  160.18        2971.25           1515           3.00         2.00
  160.21        2971.50           1518           7.00         3.92
  160.24        2971.75           1521           3.00         2.00
  160.27        2972.00           1525           7.00         3.92
  160.29        2972.25           1528           4.00         2.00
  160.32        2972.50           1531           9.00        12.64
  160.35        2972.75           1535           8.00         8.28
  160.37        2973.00           1538           4.00         2.00
  160.40        2973.25           1541           1.00         2.00
  160.43        2973.50           1545           5.00         2.00
  160.46        2973.75           1548           6.00         2.00
  160.48        2974.00           1551           7.00         3.92
  160.51        2974.25           1555           5.00         2.00
  160.54        2974.50           1558           7.00         3.92
  160.56        2974.75           1561           6.00         2.00
  160.59        2975.00           1565           7.00         3.92
  160.62        2975.25           1568           5.00         2.00
  160.65        2975.50           1571           5.00         2.00
  160.67        2975.75           1575           3.00         2.00
  160.70        2976.00           1578           8.00         8.28
  160.73        2976.25           1581           6.00         2.00
  160.75        2976.50           1585           5.00         2.00
  160.78        2976.75           1588           4.00         2.00
  160.81        2977.00           1591           6.00         2.00
  160.84        2977.25           1595           8.00         8.28
  160.86        2977.50           1598           4.00         2.00
  160.89        2977.75           1601           6.00         2.00
  160.92        2978.00           1605           8.00         8.28
  160.94        2978.25           1608           4.00         2.00
  160.97        2978.50           1611           5.00         2.00
  161.00        2978.75           1615           6.00         2.00
  161.02        2979.00           1618           6.00         2.00
  161.05        2979.25           1621           3.00         2.00
  161.08        2979.50           1625           6.00         2.00
  161.11        2979.75           1628           5.00         2.00
  161.13        2980.00           1631           5.00         2.00
  161.16        2980.25           1635           4.00         2.00
  161.19        2980.50           1638           5.00         2.00
  161.21        2980.75           1641           8.00         8.28
  161.24        2981.00           1645           7.00         3.92
  161.27        2981.25           1648           6.00         2.00
  161.30        2981.50           1651           3.00         2.00
  161.32        2981.75           1655           4.00         2.00
  161.35        2982.00           1658           8.00         8.28
  161.38        2982.25           1661           5.00         2.00
  161.40        2982.50           1665           7.00         3.92
  161.43        2982.75           1668           9.00        12.64
  161.46        2983.00           1671           4.00         2.00
  161.49        2983.25           1675           9.00        12.64
  161.51        2983.50           1678           6.00         2.00
  161.54        2983.75           1681           4.00         2.00
  161.57        2984.00           1685           2.00         2.00
HS scan finished at 02:41:45
end
