************************************************************
  HS Scan of (1) Internal mercury lamp
************************************************************
Integration time is 0.2294 seconds per sample
dh050617Tamanrasset 22.79-5.529 3.210348pr865
************************************************************
Dead Time -------------------------  2.8E-08 
Number of Cycles Used -------------  4 
Starting Wavelength (Angstroms) ---  2950 
Final Wavelength (Angstoms) -------  2984 
Wavelength Increment (Angstroms) --  .25 
Filter Wheel #1 Position ---------- (1) Ground quartz diffuser (ND=2.32)
Filter Wheel #2 Position ---------- (1) Neutral Density 0.494



************************************************************
HS scan start time = 02:34:20
Dark Count =  5.4 


Time (GMT)  Wavelength (Ang)  Step Number  Raw Counts  Counts/Second

  154.69        2950.00           1233           2.00         2.00
  154.75        2950.25           1236           9.00        15.69
  154.78        2950.50           1239           5.00         2.00
  154.80        2950.75           1242           6.00         2.62
  154.83        2951.00           1246           6.00         2.62
  154.86        2951.25           1249           7.00         6.97
  154.88        2951.50           1252           5.00         2.00
  154.91        2951.75           1256           2.00         2.00
  154.94        2952.00           1259           6.00         2.62
  154.97        2952.25           1262           6.00         2.62
  154.99        2952.50           1266           1.00         2.00
  155.02        2952.75           1269           2.00         2.00
  155.05        2953.00           1272           8.00        11.33
  155.07        2953.25           1276           4.00         2.00
  155.10        2953.50           1279           4.00         2.00
  155.13        2953.75           1282           6.00         2.62
  155.16        2954.00           1286           3.00         2.00
  155.18        2954.25           1289           2.00         2.00
  155.21        2954.50           1292           2.00         2.00
  155.24        2954.75           1295           8.00        11.33
  155.26        2955.00           1299           1.00         2.00
  155.29        2955.25           1302           3.00         2.00
  155.32        2955.50           1305           2.00         2.00
  155.35        2955.75           1309           3.00         2.00
  155.37        2956.00           1312           5.00         2.00
  155.40        2956.25           1315           3.00         2.00
  155.43        2956.50           1319           5.00         2.00
  155.45        2956.75           1322           7.00         6.97
  155.48        2957.00           1325           6.00         2.62
  155.51        2957.25           1329           1.00         2.00
  155.54        2957.50           1332           7.00         6.97
  155.56        2957.75           1335           5.00         2.00
  155.59        2958.00           1339           6.00         2.62
  155.62        2958.25           1342           8.00        11.33
  155.64        2958.50           1345           3.00         2.00
  155.67        2958.75           1348           5.00         2.00
  155.70        2959.00           1352           4.00         2.00
  155.73        2959.25           1355           4.00         2.00
  155.75        2959.50           1358           5.00         2.00
  155.78        2959.75           1362           6.00         2.62
  155.81        2960.00           1365           5.00         2.00
  155.83        2960.25           1368           8.00        11.33
  155.86        2960.50           1372           3.00         2.00
  155.89        2960.75           1375           3.00         2.00
  155.92        2961.00           1378           6.00         2.62
  155.94        2961.25           1382           4.00         2.00
  155.97        2961.50           1385           7.00         6.97
  156.00        2961.75           1388           7.00         6.97
  156.02        2962.00           1392           7.00         6.97
  156.05        2962.25           1395           7.00         6.97
  156.08        2962.50           1398           3.00         2.00
  156.11        2962.75           1402           2.00         2.00
  156.13        2963.00           1405           7.00         6.97
  156.16        2963.25           1408           4.00         2.00
  156.19        2963.50           1412           4.00         2.00
  156.21        2963.75           1415           2.00         2.00
  156.24        2964.00           1418           8.00        11.33
  156.27        2964.25           1422           8.00        11.33
  156.30        2964.50           1425           3.00         2.00
  156.32        2964.75           1428           6.00         2.62
  156.35        2965.00           1431           5.00         2.00
  156.38        2965.25           1435           3.00         2.00
  156.40        2965.50           1438           3.00         2.00
  156.43        2965.75           1441           5.00         2.00
  156.46        2966.00           1445           4.00         2.00
  156.48        2966.25           1448           5.00         2.00
  156.51        2966.50           1451           5.00         2.00
  156.54        2966.75           1455           5.00         2.00
  156.57        2967.00           1458           5.00         2.00
  156.59        2967.25           1461           5.00         2.00
  156.62        2967.50           1465           5.00         2.00
  156.65        2967.75           1468           8.00        11.33
  156.68        2968.00           1471           9.00        15.69
  156.70        2968.25           1475           6.00         2.62
  156.73        2968.50           1478           3.00         2.00
  156.76        2968.75           1481           3.00         2.00
  156.78        2969.00           1485           8.00        11.33
  156.81        2969.25           1488           3.00         2.00
  156.84        2969.50           1491           8.00        11.33
  156.87        2969.75           1495           7.00         6.97
  156.89        2970.00           1498           5.00         2.00
  156.92        2970.25           1501           4.00         2.00
  156.95        2970.50           1505           2.00         2.00
  156.97        2970.75           1508           5.00         2.00
  157.00        2971.00           1511           9.00        15.69
  157.03        2971.25           1515           5.00         2.00
  157.06        2971.50           1518           8.00        11.33
  157.08        2971.75           1521           6.00         2.62
  157.11        2972.00           1525           7.00         6.97
  157.14        2972.25           1528           8.00        11.33
  157.16        2972.50           1531           3.00         2.00
  157.19        2972.75           1535           6.00         2.62
  157.22        2973.00           1538           6.00         2.62
  157.24        2973.25           1541           4.00         2.00
  157.27        2973.50           1545           8.00        11.33
  157.30        2973.75           1548           7.00         6.97
  157.33        2974.00           1551           7.00         6.97
  157.35        2974.25           1555           7.00         6.97
  157.38        2974.50           1558           6.00         2.62
  157.41        2974.75           1561           7.00         6.97
  157.43        2975.00           1565           5.00         2.00
  157.46        2975.25           1568           9.00        15.69
  157.49        2975.50           1571           6.00         2.62
  157.52        2975.75           1575           4.00         2.00
  157.54        2976.00           1578           7.00         6.97
  157.57        2976.25           1581           8.00        11.33
  157.60        2976.50           1585           4.00         2.00
  157.62        2976.75           1588           4.00         2.00
  157.65        2977.00           1591           1.00         2.00
  157.68        2977.25           1595           2.00         2.00
  157.71        2977.50           1598           7.00         6.97
  157.73        2977.75           1601           7.00         6.97
  157.76        2978.00           1605           5.00         2.00
  157.79        2978.25           1608           5.00         2.00
  157.82        2978.50           1611           5.00         2.00
  157.84        2978.75           1615           4.00         2.00
  157.87        2979.00           1618           6.00         2.62
  157.90        2979.25           1621           5.00         2.00
  157.92        2979.50           1625           3.00         2.00
  157.95        2979.75           1628           6.00         2.62
  157.98        2980.00           1631           5.00         2.00
  158.01        2980.25           1635           7.00         6.97
  158.03        2980.50           1638           7.00         6.97
  158.06        2980.75           1641           1.00         2.00
  158.09        2981.00           1645           7.00         6.97
  158.11        2981.25           1648           7.00         6.97
  158.14        2981.50           1651           6.00         2.62
  158.17        2981.75           1655           8.00        11.33
  158.19        2982.00           1658           8.00        11.33
  158.22        2982.25           1661           7.00         6.97
  158.25        2982.50           1665           6.00         2.62
  158.28        2982.75           1668           7.00         6.97
  158.30        2983.00           1671           8.00        11.33
  158.33        2983.25           1675           8.00        11.33
  158.36        2983.50           1678           3.00         2.00
  158.38        2983.75           1681           8.00        11.33
  158.41        2984.00           1685           5.00         2.00
HS scan finished at 02:38:36
end
