************************************************************
  HS Scan of (1) Internal mercury lamp
************************************************************
Integration time is 0.2294 seconds per sample
dh060617Tamanrasset 22.79-5.529 3.200151pr865
************************************************************
Dead Time -------------------------  2.8E-08 
Number of Cycles Used -------------  4 
Starting Wavelength (Angstroms) ---  2950 
Final Wavelength (Angstoms) -------  2984 
Wavelength Increment (Angstroms) --  .25 
Filter Wheel #1 Position ---------- (1) Ground quartz diffuser (ND=2.32)
Filter Wheel #2 Position ---------- (1) Neutral Density 0.494



************************************************************
HS scan start time = 02:34:30
Dark Count =  5.8 


Time (GMT)  Wavelength (Ang)  Step Number  Raw Counts  Counts/Second

  154.86        2950.00           1233           5.00         2.00
  154.92        2950.25           1236           5.00         2.00
  154.95        2950.50           1239           6.00         2.00
  154.97        2950.75           1242           4.00         2.00
  155.00        2951.00           1246           3.00         2.00
  155.03        2951.25           1249           7.00         5.23
  155.06        2951.50           1252           3.00         2.00
  155.08        2951.75           1256           3.00         2.00
  155.11        2952.00           1259           4.00         2.00
  155.14        2952.25           1262           8.00         9.59
  155.16        2952.50           1266           7.00         5.23
  155.19        2952.75           1269           7.00         5.23
  155.22        2953.00           1272           8.00         9.59
  155.25        2953.25           1276           5.00         2.00
  155.27        2953.50           1279           5.00         2.00
  155.30        2953.75           1282           2.00         2.00
  155.33        2954.00           1286           6.00         2.00
  155.35        2954.25           1289           7.00         5.23
  155.38        2954.50           1292           7.00         5.23
  155.41        2954.75           1295           6.00         2.00
  155.43        2955.00           1299           5.00         2.00
  155.46        2955.25           1302           7.00         5.23
  155.49        2955.50           1305           6.00         2.00
  155.52        2955.75           1309           4.00         2.00
  155.54        2956.00           1312           5.00         2.00
  155.57        2956.25           1315           4.00         2.00
  155.60        2956.50           1319           4.00         2.00
  155.62        2956.75           1322           6.00         2.00
  155.65        2957.00           1325           5.00         2.00
  155.68        2957.25           1329           8.00         9.59
  155.71        2957.50           1332           4.00         2.00
  155.73        2957.75           1335           7.00         5.23
  155.76        2958.00           1339           7.00         5.23
  155.79        2958.25           1342           5.00         2.00
  155.81        2958.50           1345           3.00         2.00
  155.84        2958.75           1348           4.00         2.00
  155.87        2959.00           1352           3.00         2.00
  155.90        2959.25           1355           6.00         2.00
  155.92        2959.50           1358           5.00         2.00
  155.95        2959.75           1362           6.00         2.00
  155.98        2960.00           1365           7.00         5.23
  156.00        2960.25           1368           7.00         5.23
  156.03        2960.50           1372           3.00         2.00
  156.06        2960.75           1375           5.00         2.00
  156.09        2961.00           1378           5.00         2.00
  156.11        2961.25           1382           2.00         2.00
  156.14        2961.50           1385           7.00         5.23
  156.17        2961.75           1388           7.00         5.23
  156.19        2962.00           1392           7.00         5.23
  156.22        2962.25           1395           4.00         2.00
  156.25        2962.50           1398           4.00         2.00
  156.28        2962.75           1402           8.00         9.59
  156.30        2963.00           1405           7.00         5.23
  156.33        2963.25           1408           2.00         2.00
  156.36        2963.50           1412           7.00         5.23
  156.38        2963.75           1415           0.00         2.00
  156.41        2964.00           1418           2.00         2.00
  156.44        2964.25           1422           6.00         2.00
  156.46        2964.50           1425           7.00         5.23
  156.49        2964.75           1428           4.00         2.00
  156.52        2965.00           1431           6.00         2.00
  156.55        2965.25           1435           3.00         2.00
  156.57        2965.50           1438           1.00         2.00
  156.60        2965.75           1441           7.00         5.23
  156.63        2966.00           1445           8.00         9.59
  156.65        2966.25           1448           6.00         2.00
  156.68        2966.50           1451           8.00         9.59
  156.71        2966.75           1455           4.00         2.00
  156.74        2967.00           1458           8.00         9.59
  156.76        2967.25           1461           3.00         2.00
  156.79        2967.50           1465           2.00         2.00
  156.82        2967.75           1468           4.00         2.00
  156.84        2968.00           1471           8.00         9.59
  156.87        2968.25           1475           8.00         9.59
  156.90        2968.50           1478           6.00         2.00
  156.93        2968.75           1481           7.00         5.23
  156.95        2969.00           1485           8.00         9.59
  156.98        2969.25           1488           2.00         2.00
  157.01        2969.50           1491           4.00         2.00
  157.03        2969.75           1495           5.00         2.00
  157.06        2970.00           1498           3.00         2.00
  157.09        2970.25           1501           3.00         2.00
  157.12        2970.50           1505           4.00         2.00
  157.14        2970.75           1508           1.00         2.00
  157.17        2971.00           1511           3.00         2.00
  157.20        2971.25           1515           4.00         2.00
  157.22        2971.50           1518           6.00         2.00
  157.25        2971.75           1521           4.00         2.00
  157.28        2972.00           1525           5.00         2.00
  157.31        2972.25           1528           7.00         5.23
  157.33        2972.50           1531           2.00         2.00
  157.36        2972.75           1535           3.00         2.00
  157.39        2973.00           1538           8.00         9.59
  157.41        2973.25           1541           9.00        13.95
  157.44        2973.50           1545           6.00         2.00
  157.47        2973.75           1548           6.00         2.00
  157.50        2974.00           1551           5.00         2.00
  157.52        2974.25           1555           6.00         2.00
  157.55        2974.50           1558           4.00         2.00
  157.58        2974.75           1561           5.00         2.00
  157.60        2975.00           1565           6.00         2.00
  157.63        2975.25           1568           4.00         2.00
  157.66        2975.50           1571           6.00         2.00
  157.69        2975.75           1575           5.00         2.00
  157.71        2976.00           1578           8.00         9.59
  157.74        2976.25           1581           5.00         2.00
  157.77        2976.50           1585           4.00         2.00
  157.79        2976.75           1588           7.00         5.23
  157.82        2977.00           1591           6.00         2.00
  157.85        2977.25           1595           8.00         9.59
  157.87        2977.50           1598           4.00         2.00
  157.90        2977.75           1601           4.00         2.00
  157.93        2978.00           1605           1.00         2.00
  157.96        2978.25           1608           1.00         2.00
  157.98        2978.50           1611           4.00         2.00
  158.01        2978.75           1615           1.00         2.00
  158.04        2979.00           1618           7.00         5.23
  158.06        2979.25           1621           4.00         2.00
  158.09        2979.50           1625           2.00         2.00
  158.12        2979.75           1628           4.00         2.00
  158.15        2980.00           1631           5.00         2.00
  158.17        2980.25           1635           6.00         2.00
  158.20        2980.50           1638           5.00         2.00
  158.23        2980.75           1641           5.00         2.00
  158.25        2981.00           1645           8.00         9.59
  158.28        2981.25           1648           4.00         2.00
  158.31        2981.50           1651           7.00         5.23
  158.34        2981.75           1655           3.00         2.00
  158.36        2982.00           1658           8.00         9.59
  158.39        2982.25           1661           3.00         2.00
  158.42        2982.50           1665           7.00         5.23
  158.44        2982.75           1668           6.00         2.00
  158.47        2983.00           1671           5.00         2.00
  158.50        2983.25           1675           7.00         5.23
  158.53        2983.50           1678           6.00         2.00
  158.55        2983.75           1681           7.00         5.23
  158.58        2984.00           1685           7.00         5.23
HS scan finished at 02:38:46
end
