************************************************************
  HS Scan of (1) Internal mercury lamp
************************************************************
Integration time is 0.2294 seconds per sample
dh080617Tamanrasset 22.79-5.529 3.123676pr865
************************************************************
Dead Time -------------------------  2.8E-08 
Number of Cycles Used -------------  4 
Starting Wavelength (Angstroms) ---  2950 
Final Wavelength (Angstoms) -------  2984 
Wavelength Increment (Angstroms) --  .25 
Filter Wheel #1 Position ---------- (1) Ground quartz diffuser (ND=2.32)
Filter Wheel #2 Position ---------- (1) Neutral Density 0.494



************************************************************
HS scan start time = 02:34:17
Dark Count =  5.6 


Time (GMT)  Wavelength (Ang)  Step Number  Raw Counts  Counts/Second

  154.64        2950.00           1233           2.00         2.00
  154.70        2950.25           1236           8.00        10.46
  154.73        2950.50           1239           8.00        10.46
  154.75        2950.75           1242           5.00         2.00
  154.78        2951.00           1246           0.00         2.00
  154.81        2951.25           1249           6.00         2.00
  154.84        2951.50           1252           3.00         2.00
  154.86        2951.75           1256           2.00         2.00
  154.89        2952.00           1259           5.00         2.00
  154.92        2952.25           1262           2.00         2.00
  154.94        2952.50           1266           4.00         2.00
  154.97        2952.75           1269           2.00         2.00
  155.00        2953.00           1272           2.00         2.00
  155.02        2953.25           1276           3.00         2.00
  155.05        2953.50           1279           5.00         2.00
  155.08        2953.75           1282           7.00         6.10
  155.11        2954.00           1286           8.00        10.46
  155.13        2954.25           1289           5.00         2.00
  155.16        2954.50           1292           4.00         2.00
  155.19        2954.75           1295           6.00         2.00
  155.21        2955.00           1299           6.00         2.00
  155.24        2955.25           1302           9.00        14.82
  155.27        2955.50           1305           5.00         2.00
  155.30        2955.75           1309           6.00         2.00
  155.32        2956.00           1312           7.00         6.10
  155.35        2956.25           1315           6.00         2.00
  155.38        2956.50           1319           3.00         2.00
  155.40        2956.75           1322           2.00         2.00
  155.43        2957.00           1325           4.00         2.00
  155.46        2957.25           1329           5.00         2.00
  155.49        2957.50           1332           4.00         2.00
  155.51        2957.75           1335           7.00         6.10
  155.54        2958.00           1339           5.00         2.00
  155.57        2958.25           1342           4.00         2.00
  155.59        2958.50           1345           7.00         6.10
  155.62        2958.75           1348           4.00         2.00
  155.65        2959.00           1352           5.00         2.00
  155.67        2959.25           1355           5.00         2.00
  155.70        2959.50           1358           2.00         2.00
  155.73        2959.75           1362           0.00         2.00
  155.76        2960.00           1365           5.00         2.00
  155.78        2960.25           1368           5.00         2.00
  155.81        2960.50           1372           4.00         2.00
  155.84        2960.75           1375           7.00         6.10
  155.86        2961.00           1378           8.00        10.46
  155.89        2961.25           1382           1.00         2.00
  155.92        2961.50           1385           7.00         6.10
  155.95        2961.75           1388           3.00         2.00
  155.97        2962.00           1392           7.00         6.10
  156.00        2962.25           1395           4.00         2.00
  156.03        2962.50           1398           4.00         2.00
  156.05        2962.75           1402           8.00        10.46
  156.08        2963.00           1405           6.00         2.00
  156.11        2963.25           1408           6.00         2.00
  156.14        2963.50           1412           3.00         2.00
  156.16        2963.75           1415           7.00         6.10
  156.19        2964.00           1418           4.00         2.00
  156.22        2964.25           1422           5.00         2.00
  156.24        2964.50           1425           8.00        10.46
  156.27        2964.75           1428           7.00         6.10
  156.30        2965.00           1431           2.00         2.00
  156.33        2965.25           1435           5.00         2.00
  156.35        2965.50           1438           8.00        10.46
  156.38        2965.75           1441           2.00         2.00
  156.41        2966.00           1445           7.00         6.10
  156.43        2966.25           1448           8.00        10.46
  156.46        2966.50           1451           5.00         2.00
  156.49        2966.75           1455           4.00         2.00
  156.52        2967.00           1458           7.00         6.10
  156.54        2967.25           1461           5.00         2.00
  156.57        2967.50           1465           2.00         2.00
  156.60        2967.75           1468           4.00         2.00
  156.62        2968.00           1471           0.00         2.00
  156.65        2968.25           1475           6.00         2.00
  156.68        2968.50           1478           2.00         2.00
  156.71        2968.75           1481           6.00         2.00
  156.73        2969.00           1485           3.00         2.00
  156.76        2969.25           1488           5.00         2.00
  156.79        2969.50           1491           6.00         2.00
  156.81        2969.75           1495           7.00         6.10
  156.84        2970.00           1498           6.00         2.00
  156.87        2970.25           1501           5.00         2.00
  156.90        2970.50           1505           6.00         2.00
  156.92        2970.75           1508           8.00        10.46
  156.95        2971.00           1511           6.00         2.00
  156.98        2971.25           1515           2.00         2.00
  157.00        2971.50           1518           3.00         2.00
  157.03        2971.75           1521           1.00         2.00
  157.06        2972.00           1525           4.00         2.00
  157.09        2972.25           1528           6.00         2.00
  157.11        2972.50           1531           5.00         2.00
  157.14        2972.75           1535           3.00         2.00
  157.17        2973.00           1538           6.00         2.00
  157.19        2973.25           1541           2.00         2.00
  157.22        2973.50           1545           6.00         2.00
  157.25        2973.75           1548           6.00         2.00
  157.28        2974.00           1551           4.00         2.00
  157.30        2974.25           1555           6.00         2.00
  157.33        2974.50           1558           9.00        14.82
  157.36        2974.75           1561           7.00         6.10
  157.38        2975.00           1565           4.00         2.00
  157.41        2975.25           1568           8.00        10.46
  157.44        2975.50           1571           5.00         2.00
  157.47        2975.75           1575           8.00        10.46
  157.49        2976.00           1578           7.00         6.10
  157.52        2976.25           1581           8.00        10.46
  157.55        2976.50           1585           7.00         6.10
  157.57        2976.75           1588           2.00         2.00
  157.60        2977.00           1591           3.00         2.00
  157.63        2977.25           1595           3.00         2.00
  157.65        2977.50           1598           4.00         2.00
  157.68        2977.75           1601           8.00        10.46
  157.71        2978.00           1605           3.00         2.00
  157.74        2978.25           1608           5.00         2.00
  157.76        2978.50           1611           7.00         6.10
  157.79        2978.75           1615           3.00         2.00
  157.82        2979.00           1618           1.00         2.00
  157.84        2979.25           1621           4.00         2.00
  157.87        2979.50           1625           1.00         2.00
  157.90        2979.75           1628           8.00        10.46
  157.93        2980.00           1631           4.00         2.00
  157.95        2980.25           1635           3.00         2.00
  157.98        2980.50           1638           6.00         2.00
  158.01        2980.75           1641           4.00         2.00
  158.03        2981.00           1645           3.00         2.00
  158.06        2981.25           1648           6.00         2.00
  158.09        2981.50           1651           5.00         2.00
  158.12        2981.75           1655           5.00         2.00
  158.14        2982.00           1658           6.00         2.00
  158.17        2982.25           1661           5.00         2.00
  158.20        2982.50           1665           8.00        10.46
  158.22        2982.75           1668           3.00         2.00
  158.25        2983.00           1671           5.00         2.00
  158.28        2983.25           1675           3.00         2.00
  158.30        2983.50           1678           3.00         2.00
  158.33        2983.75           1681           5.00         2.00
  158.36        2984.00           1685           7.00         6.10
HS scan finished at 02:38:33
end
