************************************************************
  HS Scan of (1) Internal mercury lamp
************************************************************
Integration time is 0.2294 seconds per sample
dh040617Tamanrasset 22.79-5.529 3.358199pr865
************************************************************
Dead Time -------------------------  2.8E-08 
Number of Cycles Used -------------  4 
Starting Wavelength (Angstroms) ---  2950 
Final Wavelength (Angstoms) -------  2984 
Wavelength Increment (Angstroms) --  .25 
Filter Wheel #1 Position ---------- (1) Ground quartz diffuser (ND=2.32)
Filter Wheel #2 Position ---------- (1) Neutral Density 0.494



************************************************************
HS scan start time = 02:34:28
Dark Count =  5.9 


Time (GMT)  Wavelength (Ang)  Step Number  Raw Counts  Counts/Second

  154.83        2950.00           1233           5.00         2.00
  154.89        2950.25           1236           4.00         2.00
  154.92        2950.50           1239           5.00         2.00
  154.94        2950.75           1242           8.00         9.15
  154.97        2951.00           1246           6.00         2.00
  155.00        2951.25           1249           5.00         2.00
  155.02        2951.50           1252           4.00         2.00
  155.05        2951.75           1256           5.00         2.00
  155.08        2952.00           1259           6.00         2.00
  155.11        2952.25           1262           7.00         4.80
  155.13        2952.50           1266           6.00         2.00
  155.16        2952.75           1269           6.00         2.00
  155.19        2953.00           1272           8.00         9.15
  155.21        2953.25           1276           7.00         4.80
  155.24        2953.50           1279           7.00         4.80
  155.27        2953.75           1282           4.00         2.00
  155.30        2954.00           1286           7.00         4.80
  155.32        2954.25           1289           7.00         4.80
  155.35        2954.50           1292           6.00         2.00
  155.38        2954.75           1295           5.00         2.00
  155.40        2955.00           1299           6.00         2.00
  155.43        2955.25           1302           5.00         2.00
  155.46        2955.50           1305           5.00         2.00
  155.49        2955.75           1309           4.00         2.00
  155.51        2956.00           1312           6.00         2.00
  155.54        2956.25           1315           4.00         2.00
  155.57        2956.50           1319           6.00         2.00
  155.59        2956.75           1322           6.00         2.00
  155.62        2957.00           1325           5.00         2.00
  155.65        2957.25           1329           5.00         2.00
  155.68        2957.50           1332           6.00         2.00
  155.70        2957.75           1335           5.00         2.00
  155.73        2958.00           1339           7.00         4.80
  155.76        2958.25           1342           7.00         4.80
  155.78        2958.50           1345           5.00         2.00
  155.81        2958.75           1348           8.00         9.15
  155.84        2959.00           1352           5.00         2.00
  155.87        2959.25           1355           8.00         9.15
  155.89        2959.50           1358           5.00         2.00
  155.92        2959.75           1362           9.00        13.51
  155.95        2960.00           1365           8.00         9.15
  155.97        2960.25           1368           2.00         2.00
  156.00        2960.50           1372           7.00         4.80
  156.03        2960.75           1375           6.00         2.00
  156.06        2961.00           1378           4.00         2.00
  156.08        2961.25           1382           3.00         2.00
  156.11        2961.50           1385           5.00         2.00
  156.14        2961.75           1388           6.00         2.00
  156.16        2962.00           1392           5.00         2.00
  156.19        2962.25           1395           8.00         9.15
  156.22        2962.50           1398           4.00         2.00
  156.24        2962.75           1402           7.00         4.80
  156.27        2963.00           1405           9.00        13.51
  156.30        2963.25           1408           9.00        13.51
  156.33        2963.50           1412           2.00         2.00
  156.35        2963.75           1415           7.00         4.80
  156.38        2964.00           1418           5.00         2.00
  156.41        2964.25           1422           5.00         2.00
  156.43        2964.50           1425           4.00         2.00
  156.46        2964.75           1428           5.00         2.00
  156.49        2965.00           1431           6.00         2.00
  156.52        2965.25           1435           8.00         9.15
  156.54        2965.50           1438           8.00         9.15
  156.57        2965.75           1441           3.00         2.00
  156.60        2966.00           1445           5.00         2.00
  156.62        2966.25           1448           5.00         2.00
  156.65        2966.50           1451           4.00         2.00
  156.68        2966.75           1455           8.00         9.15
  156.71        2967.00           1458           7.00         4.80
  156.73        2967.25           1461          10.00        17.87
  156.76        2967.50           1465           6.00         2.00
  156.79        2967.75           1468           9.00        13.51
  156.81        2968.00           1471           5.00         2.00
  156.84        2968.25           1475           7.00         4.80
  156.87        2968.50           1478           5.00         2.00
  156.90        2968.75           1481           5.00         2.00
  156.92        2969.00           1485           7.00         4.80
  156.95        2969.25           1488           4.00         2.00
  156.98        2969.50           1491           5.00         2.00
  157.00        2969.75           1495           2.00         2.00
  157.03        2970.00           1498           6.00         2.00
  157.06        2970.25           1501           5.00         2.00
  157.09        2970.50           1505           8.00         9.15
  157.11        2970.75           1508           7.00         4.80
  157.14        2971.00           1511           8.00         9.15
  157.17        2971.25           1515           8.00         9.15
  157.19        2971.50           1518           4.00         2.00
  157.22        2971.75           1521           5.00         2.00
  157.25        2972.00           1525           4.00         2.00
  157.28        2972.25           1528           8.00         9.15
  157.30        2972.50           1531           6.00         2.00
  157.33        2972.75           1535           6.00         2.00
  157.36        2973.00           1538           7.00         4.80
  157.38        2973.25           1541           8.00         9.15
  157.41        2973.50           1545           5.00         2.00
  157.44        2973.75           1548           5.00         2.00
  157.46        2974.00           1551           7.00         4.80
  157.49        2974.25           1555           6.00         2.00
  157.52        2974.50           1558           4.00         2.00
  157.55        2974.75           1561           7.00         4.80
  157.57        2975.00           1565           5.00         2.00
  157.60        2975.25           1568           7.00         4.80
  157.63        2975.50           1571           7.00         4.80
  157.65        2975.75           1575           4.00         2.00
  157.68        2976.00           1578           6.00         2.00
  157.71        2976.25           1581           6.00         2.00
  157.74        2976.50           1585           8.00         9.15
  157.76        2976.75           1588           8.00         9.15
  157.79        2977.00           1591           4.00         2.00
  157.82        2977.25           1595           5.00         2.00
  157.84        2977.50           1598           8.00         9.15
  157.87        2977.75           1601           9.00        13.51
  157.90        2978.00           1605           8.00         9.15
  157.93        2978.25           1608           7.00         4.80
  157.95        2978.50           1611           6.00         2.00
  157.98        2978.75           1615           5.00         2.00
  158.01        2979.00           1618           6.00         2.00
  158.03        2979.25           1621           6.00         2.00
  158.06        2979.50           1625           9.00        13.51
  158.09        2979.75           1628           6.00         2.00
  158.12        2980.00           1631           7.00         4.80
  158.14        2980.25           1635           5.00         2.00
  158.17        2980.50           1638           8.00         9.15
  158.20        2980.75           1641           8.00         9.15
  158.22        2981.00           1645           5.00         2.00
  158.25        2981.25           1648           4.00         2.00
  158.28        2981.50           1651           5.00         2.00
  158.31        2981.75           1655           5.00         2.00
  158.33        2982.00           1658           5.00         2.00
  158.36        2982.25           1661           4.00         2.00
  158.39        2982.50           1665           6.00         2.00
  158.41        2982.75           1668           6.00         2.00
  158.44        2983.00           1671           5.00         2.00
  158.47        2983.25           1675           3.00         2.00
  158.50        2983.50           1678           9.00        13.51
  158.52        2983.75           1681           5.00         2.00
  158.55        2984.00           1685           7.00         4.80
HS scan finished at 02:38:44
end
