************************************************************
  HS Scan of (1) Internal mercury lamp
************************************************************
Integration time is 0.2294 seconds per sample
dh300517Tamanrasset 22.79-5.529 3.159365pr865
************************************************************
Dead Time -------------------------  2.8E-08 
Number of Cycles Used -------------  4 
Starting Wavelength (Angstroms) ---  2950 
Final Wavelength (Angstoms) -------  2984 
Wavelength Increment (Angstroms) --  .25 
Filter Wheel #1 Position ---------- (1) Ground quartz diffuser (ND=2.32)
Filter Wheel #2 Position ---------- (1) Neutral Density 0.494



************************************************************
HS scan start time = 02:35:18
Dark Count =  5.8 


Time (GMT)  Wavelength (Ang)  Step Number  Raw Counts  Counts/Second

  155.65        2950.00           1233           5.00         2.00
  155.72        2950.25           1236           8.00         9.59
  155.75        2950.50           1239           6.00         2.00
  155.77        2950.75           1242           0.00         2.00
  155.80        2951.00           1246           2.00         2.00
  155.83        2951.25           1249           5.00         2.00
  155.85        2951.50           1252           7.00         5.23
  155.88        2951.75           1256           5.00         2.00
  155.91        2952.00           1259           9.00        13.95
  155.94        2952.25           1262           2.00         2.00
  155.96        2952.50           1266           5.00         2.00
  155.99        2952.75           1269           4.00         2.00
  156.02        2953.00           1272           7.00         5.23
  156.04        2953.25           1276           2.00         2.00
  156.07        2953.50           1279           5.00         2.00
  156.10        2953.75           1282           1.00         2.00
  156.12        2954.00           1286           5.00         2.00
  156.15        2954.25           1289           3.00         2.00
  156.18        2954.50           1292           3.00         2.00
  156.21        2954.75           1295           8.00         9.59
  156.23        2955.00           1299           5.00         2.00
  156.26        2955.25           1302           1.00         2.00
  156.29        2955.50           1305           6.00         2.00
  156.31        2955.75           1309           7.00         5.23
  156.34        2956.00           1312           1.00         2.00
  156.37        2956.25           1315           7.00         5.23
  156.40        2956.50           1319           3.00         2.00
  156.42        2956.75           1322           7.00         5.23
  156.45        2957.00           1325           3.00         2.00
  156.48        2957.25           1329           6.00         2.00
  156.50        2957.50           1332           5.00         2.00
  156.53        2957.75           1335           0.00         2.00
  156.56        2958.00           1339           2.00         2.00
  156.59        2958.25           1342           6.00         2.00
  156.61        2958.50           1345           5.00         2.00
  156.64        2958.75           1348           7.00         5.23
  156.67        2959.00           1352           5.00         2.00
  156.69        2959.25           1355           1.00         2.00
  156.72        2959.50           1358           4.00         2.00
  156.75        2959.75           1362           6.00         2.00
  156.78        2960.00           1365           3.00         2.00
  156.80        2960.25           1368           6.00         2.00
  156.83        2960.50           1372           6.00         2.00
  156.86        2960.75           1375           6.00         2.00
  156.88        2961.00           1378           6.00         2.00
  156.91        2961.25           1382           4.00         2.00
  156.94        2961.50           1385           3.00         2.00
  156.97        2961.75           1388           3.00         2.00
  156.99        2962.00           1392           1.00         2.00
  157.02        2962.25           1395           6.00         2.00
  157.05        2962.50           1398           8.00         9.59
  157.07        2962.75           1402           3.00         2.00
  157.10        2963.00           1405           4.00         2.00
  157.13        2963.25           1408           5.00         2.00
  157.16        2963.50           1412           6.00         2.00
  157.18        2963.75           1415           5.00         2.00
  157.21        2964.00           1418           5.00         2.00
  157.24        2964.25           1422           0.00         2.00
  157.26        2964.50           1425           6.00         2.00
  157.29        2964.75           1428           6.00         2.00
  157.32        2965.00           1431           9.00        13.95
  157.35        2965.25           1435           7.00         5.23
  157.37        2965.50           1438           6.00         2.00
  157.40        2965.75           1441           5.00         2.00
  157.43        2966.00           1445           5.00         2.00
  157.45        2966.25           1448           1.00         2.00
  157.48        2966.50           1451           6.00         2.00
  157.51        2966.75           1455           4.00         2.00
  157.53        2967.00           1458           6.00         2.00
  157.56        2967.25           1461           4.00         2.00
  157.59        2967.50           1465           6.00         2.00
  157.62        2967.75           1468           4.00         2.00
  157.64        2968.00           1471           7.00         5.23
  157.67        2968.25           1475           8.00         9.59
  157.70        2968.50           1478           5.00         2.00
  157.72        2968.75           1481           6.00         2.00
  157.75        2969.00           1485           4.00         2.00
  157.78        2969.25           1488           6.00         2.00
  157.81        2969.50           1491           5.00         2.00
  157.83        2969.75           1495           3.00         2.00
  157.86        2970.00           1498           3.00         2.00
  157.89        2970.25           1501           7.00         5.23
  157.91        2970.50           1505           7.00         5.23
  157.94        2970.75           1508           5.00         2.00
  157.97        2971.00           1511           9.00        13.95
  158.00        2971.25           1515           6.00         2.00
  158.02        2971.50           1518           7.00         5.23
  158.05        2971.75           1521           4.00         2.00
  158.08        2972.00           1525           1.00         2.00
  158.10        2972.25           1528           3.00         2.00
  158.13        2972.50           1531           6.00         2.00
  158.16        2972.75           1535           3.00         2.00
  158.19        2973.00           1538           2.00         2.00
  158.21        2973.25           1541           8.00         9.59
  158.24        2973.50           1545           5.00         2.00
  158.27        2973.75           1548           8.00         9.59
  158.29        2974.00           1551           8.00         9.59
  158.32        2974.25           1555           7.00         5.23
  158.35        2974.50           1558           7.00         5.23
  158.38        2974.75           1561           8.00         9.59
  158.40        2975.00           1565           3.00         2.00
  158.43        2975.25           1568           8.00         9.59
  158.46        2975.50           1571           2.00         2.00
  158.48        2975.75           1575           2.00         2.00
  158.51        2976.00           1578           8.00         9.59
  158.54        2976.25           1581           5.00         2.00
  158.57        2976.50           1585           7.00         5.23
  158.59        2976.75           1588           6.00         2.00
  158.62        2977.00           1591           0.00         2.00
  158.65        2977.25           1595           6.00         2.00
  158.67        2977.50           1598           3.00         2.00
  158.70        2977.75           1601           5.00         2.00
  158.73        2978.00           1605           8.00         9.59
  158.76        2978.25           1608           6.00         2.00
  158.78        2978.50           1611           4.00         2.00
  158.81        2978.75           1615           1.00         2.00
  158.84        2979.00           1618           5.00         2.00
  158.86        2979.25           1621           4.00         2.00
  158.89        2979.50           1625           3.00         2.00
  158.92        2979.75           1628           3.00         2.00
  158.94        2980.00           1631           7.00         5.23
  158.97        2980.25           1635           7.00         5.23
  159.00        2980.50           1638           2.00         2.00
  159.03        2980.75           1641           8.00         9.59
  159.05        2981.00           1645           4.00         2.00
  159.08        2981.25           1648           8.00         9.59
  159.11        2981.50           1651           4.00         2.00
  159.13        2981.75           1655           4.00         2.00
  159.16        2982.00           1658           6.00         2.00
  159.19        2982.25           1661           6.00         2.00
  159.22        2982.50           1665           3.00         2.00
  159.24        2982.75           1668           3.00         2.00
  159.27        2983.00           1671           6.00         2.00
  159.30        2983.25           1675           5.00         2.00
  159.32        2983.50           1678           5.00         2.00
  159.35        2983.75           1681           5.00         2.00
  159.38        2984.00           1685           4.00         2.00
HS scan finished at 02:39:34
end
