************************************************************
  HS Scan of (1) Internal mercury lamp
************************************************************
Integration time is 0.2294 seconds per sample
dh310517Tamanrasset 22.79-5.529 3.164463pr865
************************************************************
Dead Time -------------------------  2.8E-08 
Number of Cycles Used -------------  4 
Starting Wavelength (Angstroms) ---  2950 
Final Wavelength (Angstoms) -------  2984 
Wavelength Increment (Angstroms) --  .25 
Filter Wheel #1 Position ---------- (1) Ground quartz diffuser (ND=2.32)
Filter Wheel #2 Position ---------- (1) Neutral Density 0.494



************************************************************
HS scan start time = 02:35:18
Dark Count =  5.7 


Time (GMT)  Wavelength (Ang)  Step Number  Raw Counts  Counts/Second

  155.66        2950.00           1233           3.00         2.00
  155.72        2950.25           1236           8.00        10.03
  155.75        2950.50           1239           5.00         2.00
  155.78        2950.75           1242           8.00        10.03
  155.80        2951.00           1246           5.00         2.00
  155.83        2951.25           1249           4.00         2.00
  155.86        2951.50           1252           5.00         2.00
  155.88        2951.75           1256           3.00         2.00
  155.91        2952.00           1259           6.00         2.00
  155.94        2952.25           1262           5.00         2.00
  155.97        2952.50           1266           5.00         2.00
  155.99        2952.75           1269           3.00         2.00
  156.02        2953.00           1272           3.00         2.00
  156.05        2953.25           1276           8.00        10.03
  156.07        2953.50           1279           6.00         2.00
  156.10        2953.75           1282           4.00         2.00
  156.13        2954.00           1286           5.00         2.00
  156.16        2954.25           1289           5.00         2.00
  156.18        2954.50           1292           2.00         2.00
  156.21        2954.75           1295           6.00         2.00
  156.24        2955.00           1299           4.00         2.00
  156.26        2955.25           1302           6.00         2.00
  156.29        2955.50           1305           2.00         2.00
  156.32        2955.75           1309           4.00         2.00
  156.35        2956.00           1312           7.00         5.67
  156.37        2956.25           1315           6.00         2.00
  156.40        2956.50           1319           3.00         2.00
  156.43        2956.75           1322           7.00         5.67
  156.45        2957.00           1325           3.00         2.00
  156.48        2957.25           1329           5.00         2.00
  156.51        2957.50           1332           5.00         2.00
  156.53        2957.75           1335           7.00         5.67
  156.56        2958.00           1339           6.00         2.00
  156.59        2958.25           1342           2.00         2.00
  156.62        2958.50           1345           5.00         2.00
  156.64        2958.75           1348           5.00         2.00
  156.67        2959.00           1352           5.00         2.00
  156.70        2959.25           1355           6.00         2.00
  156.72        2959.50           1358           4.00         2.00
  156.75        2959.75           1362           8.00        10.03
  156.78        2960.00           1365           3.00         2.00
  156.81        2960.25           1368           5.00         2.00
  156.83        2960.50           1372           3.00         2.00
  156.86        2960.75           1375           7.00         5.67
  156.89        2961.00           1378           4.00         2.00
  156.91        2961.25           1382           7.00         5.67
  156.94        2961.50           1385           7.00         5.67
  156.97        2961.75           1388           5.00         2.00
  157.00        2962.00           1392           3.00         2.00
  157.02        2962.25           1395           6.00         2.00
  157.05        2962.50           1398           4.00         2.00
  157.08        2962.75           1402           8.00        10.03
  157.10        2963.00           1405           5.00         2.00
  157.13        2963.25           1408           2.00         2.00
  157.16        2963.50           1412           3.00         2.00
  157.19        2963.75           1415           6.00         2.00
  157.21        2964.00           1418           4.00         2.00
  157.24        2964.25           1422           5.00         2.00
  157.27        2964.50           1425           3.00         2.00
  157.29        2964.75           1428           7.00         5.67
  157.32        2965.00           1431           5.00         2.00
  157.35        2965.25           1435           3.00         2.00
  157.38        2965.50           1438           4.00         2.00
  157.40        2965.75           1441           6.00         2.00
  157.43        2966.00           1445           3.00         2.00
  157.46        2966.25           1448           9.00        14.39
  157.48        2966.50           1451           4.00         2.00
  157.51        2966.75           1455           5.00         2.00
  157.54        2967.00           1458           8.00        10.03
  157.56        2967.25           1461           3.00         2.00
  157.59        2967.50           1465           7.00         5.67
  157.62        2967.75           1468           2.00         2.00
  157.65        2968.00           1471           3.00         2.00
  157.67        2968.25           1475           4.00         2.00
  157.70        2968.50           1478           5.00         2.00
  157.73        2968.75           1481           5.00         2.00
  157.75        2969.00           1485           4.00         2.00
  157.78        2969.25           1488           0.00         2.00
  157.81        2969.50           1491           3.00         2.00
  157.84        2969.75           1495           5.00         2.00
  157.86        2970.00           1498           2.00         2.00
  157.89        2970.25           1501           6.00         2.00
  157.92        2970.50           1505           7.00         5.67
  157.94        2970.75           1508           7.00         5.67
  157.97        2971.00           1511           5.00         2.00
  158.00        2971.25           1515           7.00         5.67
  158.03        2971.50           1518           7.00         5.67
  158.05        2971.75           1521           4.00         2.00
  158.08        2972.00           1525           7.00         5.67
  158.11        2972.25           1528           8.00        10.03
  158.14        2972.50           1531           7.00         5.67
  158.16        2972.75           1535           4.00         2.00
  158.19        2973.00           1538           6.00         2.00
  158.22        2973.25           1541           7.00         5.67
  158.24        2973.50           1545           3.00         2.00
  158.27        2973.75           1548           2.00         2.00
  158.30        2974.00           1551           7.00         5.67
  158.32        2974.25           1555           1.00         2.00
  158.35        2974.50           1558           4.00         2.00
  158.38        2974.75           1561           4.00         2.00
  158.41        2975.00           1565           3.00         2.00
  158.43        2975.25           1568           1.00         2.00
  158.46        2975.50           1571           0.00         2.00
  158.49        2975.75           1575           8.00        10.03
  158.51        2976.00           1578           6.00         2.00
  158.54        2976.25           1581           4.00         2.00
  158.57        2976.50           1585           2.00         2.00
  158.60        2976.75           1588           7.00         5.67
  158.62        2977.00           1591           6.00         2.00
  158.65        2977.25           1595           5.00         2.00
  158.68        2977.50           1598           7.00         5.67
  158.70        2977.75           1601           8.00        10.03
  158.73        2978.00           1605           3.00         2.00
  158.76        2978.25           1608           5.00         2.00
  158.78        2978.50           1611           8.00        10.03
  158.81        2978.75           1615           6.00         2.00
  158.84        2979.00           1618           5.00         2.00
  158.87        2979.25           1621           6.00         2.00
  158.89        2979.50           1625           4.00         2.00
  158.92        2979.75           1628           8.00        10.03
  158.95        2980.00           1631           5.00         2.00
  158.97        2980.25           1635           8.00        10.03
  159.00        2980.50           1638           8.00        10.03
  159.03        2980.75           1641           7.00         5.67
  159.06        2981.00           1645           6.00         2.00
  159.08        2981.25           1648           6.00         2.00
  159.11        2981.50           1651           4.00         2.00
  159.14        2981.75           1655           7.00         5.67
  159.16        2982.00           1658           6.00         2.00
  159.19        2982.25           1661           4.00         2.00
  159.22        2982.50           1665           5.00         2.00
  159.25        2982.75           1668           3.00         2.00
  159.27        2983.00           1671           5.00         2.00
  159.30        2983.25           1675           5.00         2.00
  159.33        2983.50           1678           8.00        10.03
  159.35        2983.75           1681           7.00         5.67
  159.38        2984.00           1685           5.00         2.00
HS scan finished at 02:39:34
end
