************************************************************
  HS Scan of (1) Internal mercury lamp
************************************************************
Integration time is 0.2294 seconds per sample
dh030617Tamanrasset 22.79-5.529 3.256233pr865
************************************************************
Dead Time -------------------------  2.8E-08 
Number of Cycles Used -------------  4 
Starting Wavelength (Angstroms) ---  2950 
Final Wavelength (Angstoms) -------  2984 
Wavelength Increment (Angstroms) --  .25 
Filter Wheel #1 Position ---------- (1) Ground quartz diffuser (ND=2.32)
Filter Wheel #2 Position ---------- (1) Neutral Density 0.494



************************************************************
HS scan start time = 02:34:20
Dark Count =  5.6 


Time (GMT)  Wavelength (Ang)  Step Number  Raw Counts  Counts/Second

  154.69        2950.00           1233           1.00         2.00
  154.76        2950.25           1236           6.00         2.00
  154.78        2950.50           1239           6.00         2.00
  154.81        2950.75           1242           5.00         2.00
  154.84        2951.00           1246           5.00         2.00
  154.87        2951.25           1249           6.00         2.00
  154.89        2951.50           1252           7.00         6.10
  154.92        2951.75           1256           3.00         2.00
  154.95        2952.00           1259           6.00         2.00
  154.97        2952.25           1262           7.00         6.10
  155.00        2952.50           1266           6.00         2.00
  155.03        2952.75           1269           7.00         6.10
  155.06        2953.00           1272           7.00         6.10
  155.08        2953.25           1276           3.00         2.00
  155.11        2953.50           1279           2.00         2.00
  155.14        2953.75           1282           5.00         2.00
  155.16        2954.00           1286           5.00         2.00
  155.19        2954.25           1289           7.00         6.10
  155.22        2954.50           1292           3.00         2.00
  155.24        2954.75           1295           1.00         2.00
  155.27        2955.00           1299           3.00         2.00
  155.30        2955.25           1302           5.00         2.00
  155.33        2955.50           1305           6.00         2.00
  155.35        2955.75           1309           6.00         2.00
  155.38        2956.00           1312           3.00         2.00
  155.41        2956.25           1315           8.00        10.46
  155.43        2956.50           1319           3.00         2.00
  155.46        2956.75           1322           5.00         2.00
  155.49        2957.00           1325           8.00        10.46
  155.52        2957.25           1329           6.00         2.00
  155.54        2957.50           1332           4.00         2.00
  155.57        2957.75           1335           6.00         2.00
  155.60        2958.00           1339           9.00        14.82
  155.63        2958.25           1342           7.00         6.10
  155.65        2958.50           1345           7.00         6.10
  155.68        2958.75           1348           6.00         2.00
  155.71        2959.00           1352           7.00         6.10
  155.73        2959.25           1355           6.00         2.00
  155.76        2959.50           1358           6.00         2.00
  155.79        2959.75           1362           7.00         6.10
  155.81        2960.00           1365           8.00        10.46
  155.84        2960.25           1368           8.00        10.46
  155.87        2960.50           1372           5.00         2.00
  155.90        2960.75           1375           6.00         2.00
  155.92        2961.00           1378           7.00         6.10
  155.95        2961.25           1382           7.00         6.10
  155.98        2961.50           1385           7.00         6.10
  156.00        2961.75           1388           6.00         2.00
  156.03        2962.00           1392           5.00         2.00
  156.06        2962.25           1395           5.00         2.00
  156.09        2962.50           1398           3.00         2.00
  156.11        2962.75           1402           8.00        10.46
  156.14        2963.00           1405           7.00         6.10
  156.17        2963.25           1408           5.00         2.00
  156.20        2963.50           1412           5.00         2.00
  156.22        2963.75           1415           5.00         2.00
  156.25        2964.00           1418           7.00         6.10
  156.28        2964.25           1422           4.00         2.00
  156.30        2964.50           1425           7.00         6.10
  156.33        2964.75           1428           5.00         2.00
  156.36        2965.00           1431           3.00         2.00
  156.39        2965.25           1435           6.00         2.00
  156.41        2965.50           1438           6.00         2.00
  156.44        2965.75           1441           8.00        10.46
  156.47        2966.00           1445           7.00         6.10
  156.49        2966.25           1448           9.00        14.82
  156.52        2966.50           1451           6.00         2.00
  156.55        2966.75           1455           4.00         2.00
  156.58        2967.00           1458           4.00         2.00
  156.60        2967.25           1461           5.00         2.00
  156.63        2967.50           1465           8.00        10.46
  156.66        2967.75           1468           6.00         2.00
  156.68        2968.00           1471           3.00         2.00
  156.71        2968.25           1475           6.00         2.00
  156.74        2968.50           1478           4.00         2.00
  156.77        2968.75           1481           0.00         2.00
  156.79        2969.00           1485           9.00        14.82
  156.82        2969.25           1488           4.00         2.00
  156.85        2969.50           1491           5.00         2.00
  156.87        2969.75           1495           5.00         2.00
  156.90        2970.00           1498           5.00         2.00
  156.93        2970.25           1501           5.00         2.00
  156.96        2970.50           1505           3.00         2.00
  156.98        2970.75           1508           5.00         2.00
  157.01        2971.00           1511           6.00         2.00
  157.04        2971.25           1515           5.00         2.00
  157.06        2971.50           1518           5.00         2.00
  157.09        2971.75           1521           1.00         2.00
  157.12        2972.00           1525           7.00         6.10
  157.15        2972.25           1528           5.00         2.00
  157.17        2972.50           1531           6.00         2.00
  157.20        2972.75           1535           6.00         2.00
  157.23        2973.00           1538           8.00        10.46
  157.25        2973.25           1541           2.00         2.00
  157.28        2973.50           1545           6.00         2.00
  157.31        2973.75           1548           6.00         2.00
  157.34        2974.00           1551           5.00         2.00
  157.36        2974.25           1555           6.00         2.00
  157.39        2974.50           1558           6.00         2.00
  157.42        2974.75           1561           3.00         2.00
  157.44        2975.00           1565           3.00         2.00
  157.47        2975.25           1568           3.00         2.00
  157.50        2975.50           1571           6.00         2.00
  157.53        2975.75           1575           6.00         2.00
  157.55        2976.00           1578           4.00         2.00
  157.58        2976.25           1581           7.00         6.10
  157.61        2976.50           1585           4.00         2.00
  157.63        2976.75           1588           4.00         2.00
  157.66        2977.00           1591           4.00         2.00
  157.69        2977.25           1595           6.00         2.00
  157.72        2977.50           1598           5.00         2.00
  157.74        2977.75           1601           8.00        10.46
  157.77        2978.00           1605           7.00         6.10
  157.80        2978.25           1608           5.00         2.00
  157.82        2978.50           1611           5.00         2.00
  157.85        2978.75           1615           1.00         2.00
  157.88        2979.00           1618           8.00        10.46
  157.91        2979.25           1621           7.00         6.10
  157.93        2979.50           1625           6.00         2.00
  157.96        2979.75           1628           2.00         2.00
  157.99        2980.00           1631           3.00         2.00
  158.01        2980.25           1635           5.00         2.00
  158.04        2980.50           1638           7.00         6.10
  158.07        2980.75           1641           2.00         2.00
  158.10        2981.00           1645           5.00         2.00
  158.12        2981.25           1648           7.00         6.10
  158.15        2981.50           1651           7.00         6.10
  158.18        2981.75           1655           8.00        10.46
  158.20        2982.00           1658           5.00         2.00
  158.23        2982.25           1661           5.00         2.00
  158.26        2982.50           1665           6.00         2.00
  158.29        2982.75           1668           7.00         6.10
  158.31        2983.00           1671           1.00         2.00
  158.34        2983.25           1675           2.00         2.00
  158.37        2983.50           1678           8.00        10.46
  158.39        2983.75           1681           6.00         2.00
  158.42        2984.00           1685           5.00         2.00
HS scan finished at 02:38:37
end
