************************************************************
  HS Scan of (1) Internal mercury lamp
************************************************************
Integration time is 0.2294 seconds per sample
dh010617Tamanrasset 22.79-5.529 3.271528pr865
************************************************************
Dead Time -------------------------  2.8E-08 
Number of Cycles Used -------------  4 
Starting Wavelength (Angstroms) ---  2950 
Final Wavelength (Angstoms) -------  2984 
Wavelength Increment (Angstroms) --  .25 
Filter Wheel #1 Position ---------- (1) Ground quartz diffuser (ND=2.32)
Filter Wheel #2 Position ---------- (1) Neutral Density 0.494



************************************************************
HS scan start time = 02:34:44
Dark Count =  4.9 


Time (GMT)  Wavelength (Ang)  Step Number  Raw Counts  Counts/Second

  155.10        2950.00           1233           6.00         4.80
  155.16        2950.25           1236           7.00         9.15
  155.19        2950.50           1239           5.00         2.00
  155.21        2950.75           1242           3.00         2.00
  155.24        2951.00           1246           3.00         2.00
  155.27        2951.25           1249           6.00         4.80
  155.30        2951.50           1252           8.00        13.51
  155.32        2951.75           1256           3.00         2.00
  155.35        2952.00           1259           7.00         9.15
  155.38        2952.25           1262           4.00         2.00
  155.40        2952.50           1266           5.00         2.00
  155.43        2952.75           1269           5.00         2.00
  155.46        2953.00           1272           6.00         4.80
  155.49        2953.25           1276           3.00         2.00
  155.51        2953.50           1279           5.00         2.00
  155.54        2953.75           1282           8.00        13.51
  155.57        2954.00           1286           5.00         2.00
  155.59        2954.25           1289           5.00         2.00
  155.62        2954.50           1292           4.00         2.00
  155.65        2954.75           1295           0.00         2.00
  155.68        2955.00           1299           6.00         4.80
  155.70        2955.25           1302           8.00        13.51
  155.73        2955.50           1305           5.00         2.00
  155.76        2955.75           1309           2.00         2.00
  155.78        2956.00           1312           6.00         4.80
  155.81        2956.25           1315           5.00         2.00
  155.84        2956.50           1319           7.00         9.15
  155.87        2956.75           1322           5.00         2.00
  155.89        2957.00           1325           8.00        13.51
  155.92        2957.25           1329           3.00         2.00
  155.95        2957.50           1332           6.00         4.80
  155.97        2957.75           1335           6.00         4.80
  156.00        2958.00           1339           3.00         2.00
  156.03        2958.25           1342           3.00         2.00
  156.05        2958.50           1345           5.00         2.00
  156.08        2958.75           1348           3.00         2.00
  156.11        2959.00           1352           4.00         2.00
  156.14        2959.25           1355           4.00         2.00
  156.16        2959.50           1358           5.00         2.00
  156.19        2959.75           1362           6.00         4.80
  156.22        2960.00           1365           2.00         2.00
  156.24        2960.25           1368           7.00         9.15
  156.27        2960.50           1372           6.00         4.80
  156.30        2960.75           1375           6.00         4.80
  156.33        2961.00           1378           4.00         2.00
  156.35        2961.25           1382           6.00         4.80
  156.38        2961.50           1385           6.00         4.80
  156.41        2961.75           1388           4.00         2.00
  156.43        2962.00           1392           8.00        13.51
  156.46        2962.25           1395           4.00         2.00
  156.49        2962.50           1398           6.00         4.80
  156.52        2962.75           1402           4.00         2.00
  156.54        2963.00           1405           2.00         2.00
  156.57        2963.25           1408           6.00         4.80
  156.60        2963.50           1412           4.00         2.00
  156.62        2963.75           1415           7.00         9.15
  156.65        2964.00           1418           4.00         2.00
  156.68        2964.25           1422           4.00         2.00
  156.71        2964.50           1425           6.00         4.80
  156.73        2964.75           1428           7.00         9.15
  156.76        2965.00           1431           4.00         2.00
  156.79        2965.25           1435           4.00         2.00
  156.81        2965.50           1438           6.00         4.80
  156.84        2965.75           1441           4.00         2.00
  156.87        2966.00           1445           2.00         2.00
  156.90        2966.25           1448           7.00         9.15
  156.92        2966.50           1451           7.00         9.15
  156.95        2966.75           1455           5.00         2.00
  156.98        2967.00           1458           8.00        13.51
  157.00        2967.25           1461           4.00         2.00
  157.03        2967.50           1465           5.00         2.00
  157.06        2967.75           1468           3.00         2.00
  157.09        2968.00           1471           2.00         2.00
  157.11        2968.25           1475           8.00        13.51
  157.14        2968.50           1478           7.00         9.15
  157.17        2968.75           1481           7.00         9.15
  157.19        2969.00           1485           4.00         2.00
  157.22        2969.25           1488           6.00         4.80
  157.25        2969.50           1491           8.00        13.51
  157.28        2969.75           1495           4.00         2.00
  157.30        2970.00           1498           5.00         2.00
  157.33        2970.25           1501           4.00         2.00
  157.36        2970.50           1505           4.00         2.00
  157.38        2970.75           1508           8.00        13.51
  157.41        2971.00           1511           6.00         4.80
  157.44        2971.25           1515           5.00         2.00
  157.46        2971.50           1518           6.00         4.80
  157.49        2971.75           1521           4.00         2.00
  157.52        2972.00           1525           9.00        17.87
  157.55        2972.25           1528           7.00         9.15
  157.57        2972.50           1531           5.00         2.00
  157.60        2972.75           1535           3.00         2.00
  157.63        2973.00           1538           0.00         2.00
  157.65        2973.25           1541           3.00         2.00
  157.68        2973.50           1545           5.00         2.00
  157.71        2973.75           1548           6.00         4.80
  157.74        2974.00           1551           8.00        13.51
  157.76        2974.25           1555           5.00         2.00
  157.79        2974.50           1558           6.00         4.80
  157.82        2974.75           1561           7.00         9.15
  157.84        2975.00           1565           5.00         2.00
  157.87        2975.25           1568           5.00         2.00
  157.90        2975.50           1571           6.00         4.80
  157.93        2975.75           1575           6.00         4.80
  157.95        2976.00           1578           6.00         4.80
  157.98        2976.25           1581           4.00         2.00
  158.01        2976.50           1585           4.00         2.00
  158.03        2976.75           1588           5.00         2.00
  158.06        2977.00           1591          11.00        26.59
  158.09        2977.25           1595           5.00         2.00
  158.12        2977.50           1598           6.00         4.80
  158.14        2977.75           1601           6.00         4.80
  158.17        2978.00           1605           9.00        17.87
  158.20        2978.25           1608           9.00        17.87
  158.22        2978.50           1611           6.00         4.80
  158.25        2978.75           1615           4.00         2.00
  158.28        2979.00           1618           4.00         2.00
  158.31        2979.25           1621           2.00         2.00
  158.33        2979.50           1625           5.00         2.00
  158.36        2979.75           1628           6.00         4.80
  158.39        2980.00           1631           6.00         4.80
  158.41        2980.25           1635           6.00         4.80
  158.44        2980.50           1638           1.00         2.00
  158.47        2980.75           1641           6.00         4.80
  158.50        2981.00           1645           3.00         2.00
  158.52        2981.25           1648           2.00         2.00
  158.55        2981.50           1651           7.00         9.15
  158.58        2981.75           1655           6.00         4.80
  158.60        2982.00           1658           7.00         9.15
  158.63        2982.25           1661           7.00         9.15
  158.66        2982.50           1665           6.00         4.80
  158.69        2982.75           1668           6.00         4.80
  158.71        2983.00           1671           4.00         2.00
  158.74        2983.25           1675           7.00         9.15
  158.77        2983.50           1678           6.00         4.80
  158.79        2983.75           1681           6.00         4.80
  158.82        2984.00           1685           8.00        13.51
HS scan finished at 02:39:01
end
