************************************************************
  HS Scan of (1) Internal mercury lamp
************************************************************
Integration time is 0.2294 seconds per sample
dh150617Tamanrasset 22.79-5.529 3.08289pr865
************************************************************
Dead Time -------------------------  2.8E-08 
Number of Cycles Used -------------  4 
Starting Wavelength (Angstroms) ---  2950 
Final Wavelength (Angstoms) -------  2984 
Wavelength Increment (Angstroms) --  .25 
Filter Wheel #1 Position ---------- (1) Ground quartz diffuser (ND=2.32)
Filter Wheel #2 Position ---------- (1) Neutral Density 0.494



************************************************************
HS scan start time = 02:35:16
Dark Count =  5 


Time (GMT)  Wavelength (Ang)  Step Number  Raw Counts  Counts/Second

  155.62        2950.00           1233           8.00        13.08
  155.68        2950.25           1236           7.00         8.72
  155.71        2950.50           1239           4.00         2.00
  155.74        2950.75           1242           7.00         8.72
  155.76        2951.00           1246           7.00         8.72
  155.79        2951.25           1249           6.00         4.36
  155.82        2951.50           1252           4.00         2.00
  155.84        2951.75           1256           5.00         2.00
  155.87        2952.00           1259           4.00         2.00
  155.90        2952.25           1262           5.00         2.00
  155.93        2952.50           1266           1.00         2.00
  155.95        2952.75           1269           8.00        13.08
  155.98        2953.00           1272           6.00         4.36
  156.01        2953.25           1276           4.00         2.00
  156.03        2953.50           1279           9.00        17.44
  156.06        2953.75           1282           7.00         8.72
  156.09        2954.00           1286           4.00         2.00
  156.12        2954.25           1289           5.00         2.00
  156.14        2954.50           1292           3.00         2.00
  156.17        2954.75           1295           8.00        13.08
  156.20        2955.00           1299           7.00         8.72
  156.22        2955.25           1302           0.00         2.00
  156.25        2955.50           1305           5.00         2.00
  156.28        2955.75           1309           0.00         2.00
  156.31        2956.00           1312           7.00         8.72
  156.33        2956.25           1315           4.00         2.00
  156.36        2956.50           1319           8.00        13.08
  156.39        2956.75           1322           6.00         4.36
  156.41        2957.00           1325           2.00         2.00
  156.44        2957.25           1329           0.00         2.00
  156.47        2957.50           1332           6.00         4.36
  156.50        2957.75           1335           8.00        13.08
  156.52        2958.00           1339           7.00         8.72
  156.55        2958.25           1342           3.00         2.00
  156.58        2958.50           1345           3.00         2.00
  156.60        2958.75           1348           8.00        13.08
  156.63        2959.00           1352           9.00        17.44
  156.66        2959.25           1355           8.00        13.08
  156.68        2959.50           1358           6.00         4.36
  156.71        2959.75           1362           6.00         4.36
  156.74        2960.00           1365           4.00         2.00
  156.77        2960.25           1368           5.00         2.00
  156.79        2960.50           1372           6.00         4.36
  156.82        2960.75           1375           6.00         4.36
  156.85        2961.00           1378           5.00         2.00
  156.87        2961.25           1382           6.00         4.36
  156.90        2961.50           1385           7.00         8.72
  156.93        2961.75           1388           3.00         2.00
  156.96        2962.00           1392           7.00         8.72
  156.98        2962.25           1395           2.00         2.00
  157.01        2962.50           1398           6.00         4.36
  157.04        2962.75           1402           6.00         4.36
  157.06        2963.00           1405           0.00         2.00
  157.09        2963.25           1408           5.00         2.00
  157.12        2963.50           1412           5.00         2.00
  157.15        2963.75           1415           5.00         2.00
  157.17        2964.00           1418           7.00         8.72
  157.20        2964.25           1422           5.00         2.00
  157.23        2964.50           1425           3.00         2.00
  157.25        2964.75           1428           7.00         8.72
  157.28        2965.00           1431           4.00         2.00
  157.31        2965.25           1435           8.00        13.08
  157.34        2965.50           1438           4.00         2.00
  157.36        2965.75           1441           5.00         2.00
  157.39        2966.00           1445           4.00         2.00
  157.42        2966.25           1448           7.00         8.72
  157.44        2966.50           1451           2.00         2.00
  157.47        2966.75           1455           5.00         2.00
  157.50        2967.00           1458           4.00         2.00
  157.53        2967.25           1461           3.00         2.00
  157.55        2967.50           1465           6.00         4.36
  157.58        2967.75           1468           7.00         8.72
  157.61        2968.00           1471           5.00         2.00
  157.63        2968.25           1475           0.00         2.00
  157.66        2968.50           1478           1.00         2.00
  157.69        2968.75           1481           3.00         2.00
  157.72        2969.00           1485           2.00         2.00
  157.74        2969.25           1488           8.00        13.08
  157.77        2969.50           1491           2.00         2.00
  157.80        2969.75           1495           1.00         2.00
  157.82        2970.00           1498           6.00         4.36
  157.85        2970.25           1501           7.00         8.72
  157.88        2970.50           1505           5.00         2.00
  157.91        2970.75           1508           4.00         2.00
  157.93        2971.00           1511           4.00         2.00
  157.96        2971.25           1515           5.00         2.00
  157.99        2971.50           1518           8.00        13.08
  158.01        2971.75           1521           8.00        13.08
  158.04        2972.00           1525           5.00         2.00
  158.07        2972.25           1528           9.00        17.44
  158.10        2972.50           1531           6.00         4.36
  158.12        2972.75           1535           5.00         2.00
  158.15        2973.00           1538           7.00         8.72
  158.18        2973.25           1541           7.00         8.72
  158.20        2973.50           1545           8.00        13.08
  158.23        2973.75           1548           8.00        13.08
  158.26        2974.00           1551           6.00         4.36
  158.29        2974.25           1555           5.00         2.00
  158.31        2974.50           1558           4.00         2.00
  158.34        2974.75           1561           7.00         8.72
  158.37        2975.00           1565           3.00         2.00
  158.39        2975.25           1568           3.00         2.00
  158.42        2975.50           1571           1.00         2.00
  158.45        2975.75           1575           2.00         2.00
  158.48        2976.00           1578           3.00         2.00
  158.50        2976.25           1581           7.00         8.72
  158.53        2976.50           1585           5.00         2.00
  158.56        2976.75           1588           6.00         4.36
  158.58        2977.00           1591           6.00         4.36
  158.61        2977.25           1595           4.00         2.00
  158.64        2977.50           1598           4.00         2.00
  158.67        2977.75           1601           2.00         2.00
  158.69        2978.00           1605           5.00         2.00
  158.72        2978.25           1608           8.00        13.08
  158.75        2978.50           1611           3.00         2.00
  158.77        2978.75           1615           6.00         4.36
  158.80        2979.00           1618           5.00         2.00
  158.83        2979.25           1621           5.00         2.00
  158.86        2979.50           1625           6.00         4.36
  158.88        2979.75           1628           6.00         4.36
  158.91        2980.00           1631           4.00         2.00
  158.94        2980.25           1635           3.00         2.00
  158.96        2980.50           1638           4.00         2.00
  158.99        2980.75           1641           5.00         2.00
  159.02        2981.00           1645           6.00         4.36
  159.04        2981.25           1648           3.00         2.00
  159.07        2981.50           1651           4.00         2.00
  159.10        2981.75           1655           8.00        13.08
  159.13        2982.00           1658           2.00         2.00
  159.15        2982.25           1661           3.00         2.00
  159.18        2982.50           1665           8.00        13.08
  159.21        2982.75           1668           2.00         2.00
  159.23        2983.00           1671           6.00         4.36
  159.26        2983.25           1675           3.00         2.00
  159.29        2983.50           1678           2.00         2.00
  159.32        2983.75           1681           8.00        13.08
  159.34        2984.00           1685           4.00         2.00
HS scan finished at 02:39:32
end
