************************************************************
  HS Scan of (1) Internal mercury lamp
************************************************************
Integration time is 0.2294 seconds per sample
dh110617Tamanrasset 22.79-5.529 3.342904pr865
************************************************************
Dead Time -------------------------  2.8E-08 
Number of Cycles Used -------------  4 
Starting Wavelength (Angstroms) ---  2950 
Final Wavelength (Angstoms) -------  2984 
Wavelength Increment (Angstroms) --  .25 
Filter Wheel #1 Position ---------- (1) Ground quartz diffuser (ND=2.32)
Filter Wheel #2 Position ---------- (1) Neutral Density 0.494



************************************************************
HS scan start time = 02:34:25
Dark Count =  5 


Time (GMT)  Wavelength (Ang)  Step Number  Raw Counts  Counts/Second

  154.77        2950.00           1233           4.00         2.00
  154.83        2950.25           1236           4.00         2.00
  154.86        2950.50           1239           6.00         4.36
  154.89        2950.75           1242           6.00         4.36
  154.92        2951.00           1246           4.00         2.00
  154.94        2951.25           1249           7.00         8.72
  154.97        2951.50           1252           6.00         4.36
  155.00        2951.75           1256           7.00         8.72
  155.02        2952.00           1259           6.00         4.36
  155.05        2952.25           1262           7.00         8.72
  155.08        2952.50           1266           6.00         4.36
  155.11        2952.75           1269           6.00         4.36
  155.13        2953.00           1272           3.00         2.00
  155.16        2953.25           1276           7.00         8.72
  155.19        2953.50           1279           4.00         2.00
  155.21        2953.75           1282           7.00         8.72
  155.24        2954.00           1286           8.00        13.08
  155.27        2954.25           1289           4.00         2.00
  155.30        2954.50           1292           2.00         2.00
  155.32        2954.75           1295           8.00        13.08
  155.35        2955.00           1299           6.00         4.36
  155.38        2955.25           1302           7.00         8.72
  155.40        2955.50           1305           4.00         2.00
  155.43        2955.75           1309           4.00         2.00
  155.46        2956.00           1312           8.00        13.08
  155.49        2956.25           1315           7.00         8.72
  155.51        2956.50           1319           2.00         2.00
  155.54        2956.75           1322           7.00         8.72
  155.57        2957.00           1325           5.00         2.00
  155.59        2957.25           1329           5.00         2.00
  155.62        2957.50           1332           4.00         2.00
  155.65        2957.75           1335           6.00         4.36
  155.68        2958.00           1339           7.00         8.72
  155.70        2958.25           1342           0.00         2.00
  155.73        2958.50           1345           4.00         2.00
  155.76        2958.75           1348           7.00         8.72
  155.78        2959.00           1352           7.00         8.72
  155.81        2959.25           1355           3.00         2.00
  155.84        2959.50           1358           3.00         2.00
  155.87        2959.75           1362           6.00         4.36
  155.89        2960.00           1365           8.00        13.08
  155.92        2960.25           1368           5.00         2.00
  155.95        2960.50           1372           7.00         8.72
  155.97        2960.75           1375           4.00         2.00
  156.00        2961.00           1378           8.00        13.08
  156.03        2961.25           1382           5.00         2.00
  156.06        2961.50           1385           4.00         2.00
  156.08        2961.75           1388           6.00         4.36
  156.11        2962.00           1392           8.00        13.08
  156.14        2962.25           1395           4.00         2.00
  156.16        2962.50           1398           3.00         2.00
  156.19        2962.75           1402           7.00         8.72
  156.22        2963.00           1405           7.00         8.72
  156.25        2963.25           1408           6.00         4.36
  156.27        2963.50           1412           7.00         8.72
  156.30        2963.75           1415           8.00        13.08
  156.33        2964.00           1418           4.00         2.00
  156.35        2964.25           1422           8.00        13.08
  156.38        2964.50           1425           4.00         2.00
  156.41        2964.75           1428           6.00         4.36
  156.44        2965.00           1431           6.00         4.36
  156.46        2965.25           1435           5.00         2.00
  156.49        2965.50           1438           9.00        17.44
  156.52        2965.75           1441           3.00         2.00
  156.54        2966.00           1445           7.00         8.72
  156.57        2966.25           1448           7.00         8.72
  156.60        2966.50           1451           4.00         2.00
  156.63        2966.75           1455           5.00         2.00
  156.65        2967.00           1458           4.00         2.00
  156.68        2967.25           1461           5.00         2.00
  156.71        2967.50           1465           7.00         8.72
  156.73        2967.75           1468           8.00        13.08
  156.76        2968.00           1471           6.00         4.36
  156.79        2968.25           1475           6.00         4.36
  156.82        2968.50           1478           6.00         4.36
  156.84        2968.75           1481           6.00         4.36
  156.87        2969.00           1485           5.00         2.00
  156.90        2969.25           1488           8.00        13.08
  156.92        2969.50           1491           6.00         4.36
  156.95        2969.75           1495           9.00        17.44
  156.98        2970.00           1498           5.00         2.00
  157.01        2970.25           1501           6.00         4.36
  157.03        2970.50           1505           5.00         2.00
  157.06        2970.75           1508           8.00        13.08
  157.09        2971.00           1511           5.00         2.00
  157.11        2971.25           1515           8.00        13.08
  157.14        2971.50           1518           7.00         8.72
  157.17        2971.75           1521           6.00         4.36
  157.20        2972.00           1525           5.00         2.00
  157.22        2972.25           1528           7.00         8.72
  157.25        2972.50           1531           5.00         2.00
  157.28        2972.75           1535           5.00         2.00
  157.30        2973.00           1538           7.00         8.72
  157.33        2973.25           1541           6.00         4.36
  157.36        2973.50           1545           7.00         8.72
  157.39        2973.75           1548           5.00         2.00
  157.41        2974.00           1551           4.00         2.00
  157.44        2974.25           1555           5.00         2.00
  157.47        2974.50           1558           6.00         4.36
  157.49        2974.75           1561           8.00        13.08
  157.52        2975.00           1565           8.00        13.08
  157.55        2975.25           1568           4.00         2.00
  157.58        2975.50           1571           6.00         4.36
  157.60        2975.75           1575           7.00         8.72
  157.63        2976.00           1578           7.00         8.72
  157.66        2976.25           1581           6.00         4.36
  157.68        2976.50           1585           6.00         4.36
  157.71        2976.75           1588           3.00         2.00
  157.74        2977.00           1591           5.00         2.00
  157.77        2977.25           1595           4.00         2.00
  157.79        2977.50           1598           7.00         8.72
  157.82        2977.75           1601           8.00        13.08
  157.85        2978.00           1605           4.00         2.00
  157.87        2978.25           1608           7.00         8.72
  157.90        2978.50           1611           6.00         4.36
  157.93        2978.75           1615           5.00         2.00
  157.96        2979.00           1618           7.00         8.72
  157.98        2979.25           1621           7.00         8.72
  158.01        2979.50           1625           3.00         2.00
  158.04        2979.75           1628           5.00         2.00
  158.07        2980.00           1631           8.00        13.08
  158.09        2980.25           1635           8.00        13.08
  158.12        2980.50           1638           4.00         2.00
  158.15        2980.75           1641           7.00         8.72
  158.17        2981.00           1645           6.00         4.36
  158.20        2981.25           1648           7.00         8.72
  158.23        2981.50           1651           7.00         8.72
  158.25        2981.75           1655           7.00         8.72
  158.28        2982.00           1658           9.00        17.44
  158.31        2982.25           1661           7.00         8.72
  158.34        2982.50           1665           7.00         8.72
  158.36        2982.75           1668           7.00         8.72
  158.39        2983.00           1671           5.00         2.00
  158.42        2983.25           1675           6.00         4.36
  158.44        2983.50           1678           2.00         2.00
  158.47        2983.75           1681           2.00         2.00
  158.50        2984.00           1685           5.00         2.00
HS scan finished at 02:38:41
end
