************************************************************
  HS Scan of (1) Internal mercury lamp
************************************************************
Integration time is 0.2294 seconds per sample
dh180617Tamanrasset 22.79-5.529 3.281725pr865
************************************************************
Dead Time -------------------------  2.8E-08 
Number of Cycles Used -------------  4 
Starting Wavelength (Angstroms) ---  2950 
Final Wavelength (Angstoms) -------  2984 
Wavelength Increment (Angstroms) --  .25 
Filter Wheel #1 Position ---------- (1) Ground quartz diffuser (ND=2.32)
Filter Wheel #2 Position ---------- (1) Neutral Density 0.494



************************************************************
HS scan start time = 02:35:13
Dark Count =  6.3 


Time (GMT)  Wavelength (Ang)  Step Number  Raw Counts  Counts/Second

  155.57        2950.00           1233           7.00         3.05
  155.63        2950.25           1236           7.00         3.05
  155.66        2950.50           1239           7.00         3.05
  155.69        2950.75           1242           4.00         2.00
  155.71        2951.00           1246           6.00         2.00
  155.74        2951.25           1249           5.00         2.00
  155.77        2951.50           1252           7.00         3.05
  155.79        2951.75           1256           5.00         2.00
  155.82        2952.00           1259           3.00         2.00
  155.85        2952.25           1262           7.00         3.05
  155.88        2952.50           1266           5.00         2.00
  155.90        2952.75           1269           5.00         2.00
  155.93        2953.00           1272           4.00         2.00
  155.96        2953.25           1276           2.00         2.00
  155.98        2953.50           1279           4.00         2.00
  156.01        2953.75           1282           6.00         2.00
  156.04        2954.00           1286           4.00         2.00
  156.07        2954.25           1289           6.00         2.00
  156.09        2954.50           1292           4.00         2.00
  156.12        2954.75           1295           8.00         7.41
  156.15        2955.00           1299           7.00         3.05
  156.17        2955.25           1302           8.00         7.41
  156.20        2955.50           1305           1.00         2.00
  156.23        2955.75           1309           4.00         2.00
  156.26        2956.00           1312           6.00         2.00
  156.28        2956.25           1315           7.00         3.05
  156.31        2956.50           1319           3.00         2.00
  156.34        2956.75           1322           6.00         2.00
  156.36        2957.00           1325           6.00         2.00
  156.39        2957.25           1329           9.00        11.77
  156.42        2957.50           1332           4.00         2.00
  156.45        2957.75           1335           5.00         2.00
  156.47        2958.00           1339           6.00         2.00
  156.50        2958.25           1342           5.00         2.00
  156.53        2958.50           1345           4.00         2.00
  156.55        2958.75           1348           2.00         2.00
  156.58        2959.00           1352           3.00         2.00
  156.61        2959.25           1355           5.00         2.00
  156.64        2959.50           1358           7.00         3.05
  156.66        2959.75           1362           4.00         2.00
  156.69        2960.00           1365           9.00        11.77
  156.72        2960.25           1368           4.00         2.00
  156.74        2960.50           1372           2.00         2.00
  156.77        2960.75           1375           5.00         2.00
  156.80        2961.00           1378           9.00        11.77
  156.83        2961.25           1382           0.00         2.00
  156.85        2961.50           1385           4.00         2.00
  156.88        2961.75           1388           5.00         2.00
  156.91        2962.00           1392           5.00         2.00
  156.93        2962.25           1395           6.00         2.00
  156.96        2962.50           1398           7.00         3.05
  156.99        2962.75           1402           6.00         2.00
  157.02        2963.00           1405           4.00         2.00
  157.04        2963.25           1408           6.00         2.00
  157.07        2963.50           1412           8.00         7.41
  157.10        2963.75           1415           3.00         2.00
  157.12        2964.00           1418           5.00         2.00
  157.15        2964.25           1422           5.00         2.00
  157.18        2964.50           1425           4.00         2.00
  157.20        2964.75           1428           8.00         7.41
  157.23        2965.00           1431           6.00         2.00
  157.26        2965.25           1435           2.00         2.00
  157.29        2965.50           1438           5.00         2.00
  157.31        2965.75           1441           4.00         2.00
  157.34        2966.00           1445           6.00         2.00
  157.37        2966.25           1448           7.00         3.05
  157.39        2966.50           1451           3.00         2.00
  157.42        2966.75           1455           7.00         3.05
  157.45        2967.00           1458           6.00         2.00
  157.48        2967.25           1461           6.00         2.00
  157.50        2967.50           1465           6.00         2.00
  157.53        2967.75           1468           6.00         2.00
  157.56        2968.00           1471           5.00         2.00
  157.58        2968.25           1475           6.00         2.00
  157.61        2968.50           1478           6.00         2.00
  157.64        2968.75           1481           4.00         2.00
  157.67        2969.00           1485           5.00         2.00
  157.69        2969.25           1488           5.00         2.00
  157.72        2969.50           1491           4.00         2.00
  157.75        2969.75           1495           6.00         2.00
  157.77        2970.00           1498          10.00        16.13
  157.80        2970.25           1501           7.00         3.05
  157.83        2970.50           1505           9.00        11.77
  157.86        2970.75           1508           7.00         3.05
  157.88        2971.00           1511           3.00         2.00
  157.91        2971.25           1515           6.00         2.00
  157.94        2971.50           1518           7.00         3.05
  157.97        2971.75           1521           7.00         3.05
  157.99        2972.00           1525           2.00         2.00
  158.02        2972.25           1528           9.00        11.77
  158.05        2972.50           1531           5.00         2.00
  158.07        2972.75           1535           4.00         2.00
  158.10        2973.00           1538           4.00         2.00
  158.13        2973.25           1541           8.00         7.41
  158.16        2973.50           1545           2.00         2.00
  158.18        2973.75           1548           8.00         7.41
  158.21        2974.00           1551           6.00         2.00
  158.24        2974.25           1555           3.00         2.00
  158.27        2974.50           1558           9.00        11.77
  158.29        2974.75           1561           6.00         2.00
  158.32        2975.00           1565           6.00         2.00
  158.35        2975.25           1568           4.00         2.00
  158.37        2975.50           1571           3.00         2.00
  158.40        2975.75           1575           6.00         2.00
  158.43        2976.00           1578           5.00         2.00
  158.45        2976.25           1581           6.00         2.00
  158.48        2976.50           1585           3.00         2.00
  158.51        2976.75           1588           6.00         2.00
  158.54        2977.00           1591           4.00         2.00
  158.56        2977.25           1595           4.00         2.00
  158.59        2977.50           1598           6.00         2.00
  158.62        2977.75           1601           7.00         3.05
  158.64        2978.00           1605           6.00         2.00
  158.67        2978.25           1608           7.00         3.05
  158.70        2978.50           1611           5.00         2.00
  158.73        2978.75           1615           8.00         7.41
  158.75        2979.00           1618           7.00         3.05
  158.78        2979.25           1621           7.00         3.05
  158.81        2979.50           1625           3.00         2.00
  158.83        2979.75           1628           7.00         3.05
  158.86        2980.00           1631           5.00         2.00
  158.89        2980.25           1635           9.00        11.77
  158.92        2980.50           1638           5.00         2.00
  158.94        2980.75           1641           5.00         2.00
  158.97        2981.00           1645           4.00         2.00
  159.00        2981.25           1648           5.00         2.00
  159.02        2981.50           1651           6.00         2.00
  159.05        2981.75           1655           7.00         3.05
  159.08        2982.00           1658           9.00        11.77
  159.10        2982.25           1661           6.00         2.00
  159.13        2982.50           1665           4.00         2.00
  159.16        2982.75           1668           5.00         2.00
  159.19        2983.00           1671           7.00         3.05
  159.21        2983.25           1675           8.00         7.41
  159.24        2983.50           1678           7.00         3.05
  159.27        2983.75           1681           8.00         7.41
  159.29        2984.00           1685           5.00         2.00
HS scan finished at 02:39:29
end
