************************************************************
  HS Scan of (1) Internal mercury lamp
************************************************************
Integration time is 0.2294 seconds per sample
dh130617Tamanrasset 22.79-5.529 3.016612pr865
************************************************************
Dead Time -------------------------  2.8E-08 
Number of Cycles Used -------------  4 
Starting Wavelength (Angstroms) ---  2950 
Final Wavelength (Angstoms) -------  2984 
Wavelength Increment (Angstroms) --  .25 
Filter Wheel #1 Position ---------- (1) Ground quartz diffuser (ND=2.32)
Filter Wheel #2 Position ---------- (1) Neutral Density 0.494



************************************************************
HS scan start time = 02:34:20
Dark Count =  5.8 


Time (GMT)  Wavelength (Ang)  Step Number  Raw Counts  Counts/Second

  154.69        2950.00           1233           3.00         2.00
  154.75        2950.25           1236           7.00         5.23
  154.78        2950.50           1239           3.00         2.00
  154.81        2950.75           1242           5.00         2.00
  154.83        2951.00           1246           5.00         2.00
  154.86        2951.25           1249           3.00         2.00
  154.89        2951.50           1252           8.00         9.59
  154.92        2951.75           1256           3.00         2.00
  154.94        2952.00           1259           8.00         9.59
  154.97        2952.25           1262           8.00         9.59
  155.00        2952.50           1266           2.00         2.00
  155.02        2952.75           1269           8.00         9.59
  155.05        2953.00           1272           8.00         9.59
  155.08        2953.25           1276           4.00         2.00
  155.11        2953.50           1279           6.00         2.00
  155.13        2953.75           1282           8.00         9.59
  155.16        2954.00           1286           6.00         2.00
  155.19        2954.25           1289           7.00         5.23
  155.21        2954.50           1292           5.00         2.00
  155.24        2954.75           1295           3.00         2.00
  155.27        2955.00           1299           6.00         2.00
  155.29        2955.25           1302           4.00         2.00
  155.32        2955.50           1305           3.00         2.00
  155.35        2955.75           1309           4.00         2.00
  155.38        2956.00           1312           7.00         5.23
  155.40        2956.25           1315           6.00         2.00
  155.43        2956.50           1319           1.00         2.00
  155.46        2956.75           1322           7.00         5.23
  155.48        2957.00           1325           5.00         2.00
  155.51        2957.25           1329           6.00         2.00
  155.54        2957.50           1332           0.00         2.00
  155.57        2957.75           1335           7.00         5.23
  155.59        2958.00           1339           5.00         2.00
  155.62        2958.25           1342           8.00         9.59
  155.65        2958.50           1345           4.00         2.00
  155.67        2958.75           1348           6.00         2.00
  155.70        2959.00           1352           5.00         2.00
  155.73        2959.25           1355           6.00         2.00
  155.76        2959.50           1358           7.00         5.23
  155.78        2959.75           1362           3.00         2.00
  155.81        2960.00           1365           3.00         2.00
  155.84        2960.25           1368           1.00         2.00
  155.86        2960.50           1372           5.00         2.00
  155.89        2960.75           1375           6.00         2.00
  155.92        2961.00           1378           5.00         2.00
  155.95        2961.25           1382           2.00         2.00
  155.97        2961.50           1385           2.00         2.00
  156.00        2961.75           1388           2.00         2.00
  156.03        2962.00           1392           3.00         2.00
  156.05        2962.25           1395           4.00         2.00
  156.08        2962.50           1398           5.00         2.00
  156.11        2962.75           1402           2.00         2.00
  156.14        2963.00           1405           7.00         5.23
  156.16        2963.25           1408           3.00         2.00
  156.19        2963.50           1412           3.00         2.00
  156.22        2963.75           1415           5.00         2.00
  156.24        2964.00           1418           4.00         2.00
  156.27        2964.25           1422           4.00         2.00
  156.30        2964.50           1425           6.00         2.00
  156.33        2964.75           1428           2.00         2.00
  156.35        2965.00           1431           2.00         2.00
  156.38        2965.25           1435           7.00         5.23
  156.41        2965.50           1438           0.00         2.00
  156.43        2965.75           1441           5.00         2.00
  156.46        2966.00           1445           5.00         2.00
  156.49        2966.25           1448           5.00         2.00
  156.52        2966.50           1451           3.00         2.00
  156.54        2966.75           1455           5.00         2.00
  156.57        2967.00           1458           3.00         2.00
  156.60        2967.25           1461           8.00         9.59
  156.62        2967.50           1465           8.00         9.59
  156.65        2967.75           1468           7.00         5.23
  156.68        2968.00           1471           5.00         2.00
  156.71        2968.25           1475           6.00         2.00
  156.73        2968.50           1478           3.00         2.00
  156.76        2968.75           1481           4.00         2.00
  156.79        2969.00           1485           6.00         2.00
  156.81        2969.25           1488           3.00         2.00
  156.84        2969.50           1491           2.00         2.00
  156.87        2969.75           1495           6.00         2.00
  156.90        2970.00           1498           6.00         2.00
  156.92        2970.25           1501           8.00         9.59
  156.95        2970.50           1505           7.00         5.23
  156.98        2970.75           1508           8.00         9.59
  157.00        2971.00           1511           7.00         5.23
  157.03        2971.25           1515           2.00         2.00
  157.06        2971.50           1518           3.00         2.00
  157.09        2971.75           1521           2.00         2.00
  157.11        2972.00           1525           4.00         2.00
  157.14        2972.25           1528           5.00         2.00
  157.17        2972.50           1531           3.00         2.00
  157.19        2972.75           1535           4.00         2.00
  157.22        2973.00           1538           7.00         5.23
  157.25        2973.25           1541           8.00         9.59
  157.27        2973.50           1545           3.00         2.00
  157.30        2973.75           1548           6.00         2.00
  157.33        2974.00           1551           7.00         5.23
  157.36        2974.25           1555           1.00         2.00
  157.38        2974.50           1558           6.00         2.00
  157.41        2974.75           1561           7.00         5.23
  157.44        2975.00           1565           2.00         2.00
  157.46        2975.25           1568           8.00         9.59
  157.49        2975.50           1571           4.00         2.00
  157.52        2975.75           1575           6.00         2.00
  157.55        2976.00           1578           5.00         2.00
  157.57        2976.25           1581           7.00         5.23
  157.60        2976.50           1585           5.00         2.00
  157.63        2976.75           1588           7.00         5.23
  157.65        2977.00           1591           0.00         2.00
  157.68        2977.25           1595           1.00         2.00
  157.71        2977.50           1598           7.00         5.23
  157.74        2977.75           1601           3.00         2.00
  157.76        2978.00           1605           2.00         2.00
  157.79        2978.25           1608           3.00         2.00
  157.82        2978.50           1611           5.00         2.00
  157.84        2978.75           1615           7.00         5.23
  157.87        2979.00           1618           8.00         9.59
  157.90        2979.25           1621           1.00         2.00
  157.93        2979.50           1625           6.00         2.00
  157.95        2979.75           1628           6.00         2.00
  157.98        2980.00           1631           7.00         5.23
  158.01        2980.25           1635           0.00         2.00
  158.03        2980.50           1638           7.00         5.23
  158.06        2980.75           1641           4.00         2.00
  158.09        2981.00           1645           6.00         2.00
  158.12        2981.25           1648           2.00         2.00
  158.14        2981.50           1651           8.00         9.59
  158.17        2981.75           1655           5.00         2.00
  158.20        2982.00           1658           2.00         2.00
  158.22        2982.25           1661           6.00         2.00
  158.25        2982.50           1665           5.00         2.00
  158.28        2982.75           1668           8.00         9.59
  158.31        2983.00           1671           5.00         2.00
  158.33        2983.25           1675           8.00         9.59
  158.36        2983.50           1678           3.00         2.00
  158.39        2983.75           1681           5.00         2.00
  158.41        2984.00           1685           7.00         5.23
HS scan finished at 02:38:36
end
