************************************************************
  HS Scan of (1) Internal mercury lamp
************************************************************
Integration time is 0.2294 seconds per sample
dh160617Tamanrasset 22.79-5.529 3.118579pr865
************************************************************
Dead Time -------------------------  2.8E-08 
Number of Cycles Used -------------  4 
Starting Wavelength (Angstroms) ---  2950 
Final Wavelength (Angstoms) -------  2984 
Wavelength Increment (Angstroms) --  .25 
Filter Wheel #1 Position ---------- (1) Ground quartz diffuser (ND=2.32)
Filter Wheel #2 Position ---------- (1) Neutral Density 0.494



************************************************************
HS scan start time = 02:35:17
Dark Count =  5.7 


Time (GMT)  Wavelength (Ang)  Step Number  Raw Counts  Counts/Second

  155.64        2950.00           1233           4.00         2.00
  155.70        2950.25           1236           4.00         2.00
  155.73        2950.50           1239           5.00         2.00
  155.75        2950.75           1242           6.00         2.00
  155.78        2951.00           1246           6.00         2.00
  155.81        2951.25           1249           4.00         2.00
  155.84        2951.50           1252           6.00         2.00
  155.86        2951.75           1256           5.00         2.00
  155.89        2952.00           1259           5.00         2.00
  155.92        2952.25           1262           3.00         2.00
  155.94        2952.50           1266           8.00        10.03
  155.97        2952.75           1269           3.00         2.00
  156.00        2953.00           1272           5.00         2.00
  156.03        2953.25           1276           6.00         2.00
  156.05        2953.50           1279           5.00         2.00
  156.08        2953.75           1282           5.00         2.00
  156.11        2954.00           1286           6.00         2.00
  156.13        2954.25           1289           3.00         2.00
  156.16        2954.50           1292           8.00        10.03
  156.19        2954.75           1295           4.00         2.00
  156.22        2955.00           1299           3.00         2.00
  156.24        2955.25           1302           7.00         5.67
  156.27        2955.50           1305           4.00         2.00
  156.30        2955.75           1309           7.00         5.67
  156.32        2956.00           1312           1.00         2.00
  156.35        2956.25           1315           3.00         2.00
  156.38        2956.50           1319           4.00         2.00
  156.41        2956.75           1322           3.00         2.00
  156.43        2957.00           1325           8.00        10.03
  156.46        2957.25           1329           4.00         2.00
  156.49        2957.50           1332           8.00        10.03
  156.51        2957.75           1335           7.00         5.67
  156.54        2958.00           1339           5.00         2.00
  156.57        2958.25           1342           3.00         2.00
  156.59        2958.50           1345           0.00         2.00
  156.62        2958.75           1348           5.00         2.00
  156.65        2959.00           1352           2.00         2.00
  156.68        2959.25           1355           8.00        10.03
  156.70        2959.50           1358           6.00         2.00
  156.73        2959.75           1362           2.00         2.00
  156.76        2960.00           1365           8.00        10.03
  156.78        2960.25           1368           6.00         2.00
  156.81        2960.50           1372           3.00         2.00
  156.84        2960.75           1375           5.00         2.00
  156.87        2961.00           1378           7.00         5.67
  156.89        2961.25           1382           6.00         2.00
  156.92        2961.50           1385           7.00         5.67
  156.95        2961.75           1388           5.00         2.00
  156.97        2962.00           1392           2.00         2.00
  157.00        2962.25           1395           6.00         2.00
  157.03        2962.50           1398           0.00         2.00
  157.06        2962.75           1402           4.00         2.00
  157.08        2963.00           1405           6.00         2.00
  157.11        2963.25           1408           7.00         5.67
  157.14        2963.50           1412           3.00         2.00
  157.16        2963.75           1415           5.00         2.00
  157.19        2964.00           1418           8.00        10.03
  157.22        2964.25           1422           6.00         2.00
  157.25        2964.50           1425           4.00         2.00
  157.27        2964.75           1428           6.00         2.00
  157.30        2965.00           1431           5.00         2.00
  157.33        2965.25           1435           5.00         2.00
  157.35        2965.50           1438           2.00         2.00
  157.38        2965.75           1441           6.00         2.00
  157.41        2966.00           1445           8.00        10.03
  157.43        2966.25           1448           7.00         5.67
  157.46        2966.50           1451           6.00         2.00
  157.49        2966.75           1455           9.00        14.39
  157.52        2967.00           1458           8.00        10.03
  157.54        2967.25           1461           8.00        10.03
  157.57        2967.50           1465           5.00         2.00
  157.60        2967.75           1468           6.00         2.00
  157.62        2968.00           1471           2.00         2.00
  157.65        2968.25           1475           3.00         2.00
  157.68        2968.50           1478           5.00         2.00
  157.71        2968.75           1481           5.00         2.00
  157.73        2969.00           1485           3.00         2.00
  157.76        2969.25           1488           8.00        10.03
  157.79        2969.50           1491           5.00         2.00
  157.81        2969.75           1495           7.00         5.67
  157.84        2970.00           1498           8.00        10.03
  157.87        2970.25           1501           6.00         2.00
  157.90        2970.50           1505           2.00         2.00
  157.92        2970.75           1508           2.00         2.00
  157.95        2971.00           1511           5.00         2.00
  157.98        2971.25           1515           5.00         2.00
  158.00        2971.50           1518           3.00         2.00
  158.03        2971.75           1521           9.00        14.39
  158.06        2972.00           1525           4.00         2.00
  158.08        2972.25           1528           3.00         2.00
  158.11        2972.50           1531           8.00        10.03
  158.14        2972.75           1535           8.00        10.03
  158.17        2973.00           1538           4.00         2.00
  158.19        2973.25           1541           6.00         2.00
  158.22        2973.50           1545           5.00         2.00
  158.25        2973.75           1548           4.00         2.00
  158.27        2974.00           1551           7.00         5.67
  158.30        2974.25           1555           0.00         2.00
  158.33        2974.50           1558           6.00         2.00
  158.36        2974.75           1561           6.00         2.00
  158.38        2975.00           1565           3.00         2.00
  158.41        2975.25           1568           5.00         2.00
  158.44        2975.50           1571           8.00        10.03
  158.46        2975.75           1575           7.00         5.67
  158.49        2976.00           1578           4.00         2.00
  158.52        2976.25           1581           8.00        10.03
  158.55        2976.50           1585           3.00         2.00
  158.57        2976.75           1588           8.00        10.03
  158.60        2977.00           1591           4.00         2.00
  158.63        2977.25           1595           6.00         2.00
  158.65        2977.50           1598           4.00         2.00
  158.68        2977.75           1601           2.00         2.00
  158.71        2978.00           1605           3.00         2.00
  158.74        2978.25           1608           4.00         2.00
  158.76        2978.50           1611           7.00         5.67
  158.79        2978.75           1615           3.00         2.00
  158.82        2979.00           1618           1.00         2.00
  158.84        2979.25           1621           6.00         2.00
  158.87        2979.50           1625           7.00         5.67
  158.90        2979.75           1628           7.00         5.67
  158.93        2980.00           1631           3.00         2.00
  158.95        2980.25           1635           6.00         2.00
  158.98        2980.50           1638           5.00         2.00
  159.01        2980.75           1641           8.00        10.03
  159.03        2981.00           1645           3.00         2.00
  159.06        2981.25           1648           5.00         2.00
  159.09        2981.50           1651           5.00         2.00
  159.12        2981.75           1655           5.00         2.00
  159.14        2982.00           1658           3.00         2.00
  159.17        2982.25           1661           7.00         5.67
  159.20        2982.50           1665           2.00         2.00
  159.22        2982.75           1668           6.00         2.00
  159.25        2983.00           1671           7.00         5.67
  159.28        2983.25           1675           8.00        10.03
  159.30        2983.50           1678           4.00         2.00
  159.33        2983.75           1681           4.00         2.00
  159.36        2984.00           1685           7.00         5.67
HS scan finished at 02:39:33
end
