************************************************************
  HS Scan of (1) Internal mercury lamp
************************************************************
Integration time is 0.2294 seconds per sample
dh140617Tamanrasset 22.79-5.529 3.108382pr865
************************************************************
Dead Time -------------------------  2.8E-08 
Number of Cycles Used -------------  4 
Starting Wavelength (Angstroms) ---  2950 
Final Wavelength (Angstoms) -------  2984 
Wavelength Increment (Angstroms) --  .25 
Filter Wheel #1 Position ---------- (1) Ground quartz diffuser (ND=2.32)
Filter Wheel #2 Position ---------- (1) Neutral Density 0.494



************************************************************
HS scan start time = 02:34:18
Dark Count =  5.4 


Time (GMT)  Wavelength (Ang)  Step Number  Raw Counts  Counts/Second

  154.66        2950.00           1233           5.00         2.00
  154.72        2950.25           1236           5.00         2.00
  154.75        2950.50           1239           5.00         2.00
  154.78        2950.75           1242           2.00         2.00
  154.80        2951.00           1246           4.00         2.00
  154.83        2951.25           1249           6.00         2.62
  154.86        2951.50           1252           0.00         2.00
  154.88        2951.75           1256           4.00         2.00
  154.91        2952.00           1259           3.00         2.00
  154.94        2952.25           1262           6.00         2.62
  154.97        2952.50           1266           7.00         6.97
  154.99        2952.75           1269           6.00         2.62
  155.02        2953.00           1272           3.00         2.00
  155.05        2953.25           1276           3.00         2.00
  155.07        2953.50           1279           5.00         2.00
  155.10        2953.75           1282           6.00         2.62
  155.13        2954.00           1286           4.00         2.00
  155.16        2954.25           1289           4.00         2.00
  155.18        2954.50           1292           5.00         2.00
  155.21        2954.75           1295           7.00         6.97
  155.24        2955.00           1299           3.00         2.00
  155.26        2955.25           1302           1.00         2.00
  155.29        2955.50           1305           6.00         2.62
  155.32        2955.75           1309           7.00         6.97
  155.35        2956.00           1312           8.00        11.33
  155.37        2956.25           1315           3.00         2.00
  155.40        2956.50           1319           0.00         2.00
  155.43        2956.75           1322           5.00         2.00
  155.46        2957.00           1325           6.00         2.62
  155.48        2957.25           1329           6.00         2.62
  155.51        2957.50           1332           6.00         2.62
  155.54        2957.75           1335           3.00         2.00
  155.56        2958.00           1339           8.00        11.33
  155.59        2958.25           1342           4.00         2.00
  155.62        2958.50           1345           8.00        11.33
  155.65        2958.75           1348           4.00         2.00
  155.67        2959.00           1352           8.00        11.33
  155.70        2959.25           1355           3.00         2.00
  155.73        2959.50           1358           6.00         2.62
  155.75        2959.75           1362           5.00         2.00
  155.78        2960.00           1365           7.00         6.97
  155.81        2960.25           1368           1.00         2.00
  155.84        2960.50           1372           8.00        11.33
  155.86        2960.75           1375           3.00         2.00
  155.89        2961.00           1378           5.00         2.00
  155.92        2961.25           1382           6.00         2.62
  155.94        2961.50           1385           8.00        11.33
  155.97        2961.75           1388           6.00         2.62
  156.00        2962.00           1392           8.00        11.33
  156.02        2962.25           1395           4.00         2.00
  156.05        2962.50           1398           2.00         2.00
  156.08        2962.75           1402           5.00         2.00
  156.11        2963.00           1405           6.00         2.62
  156.13        2963.25           1408           5.00         2.00
  156.16        2963.50           1412           4.00         2.00
  156.19        2963.75           1415           2.00         2.00
  156.21        2964.00           1418           4.00         2.00
  156.24        2964.25           1422           5.00         2.00
  156.27        2964.50           1425           6.00         2.62
  156.30        2964.75           1428           4.00         2.00
  156.32        2965.00           1431           0.00         2.00
  156.35        2965.25           1435           8.00        11.33
  156.38        2965.50           1438           2.00         2.00
  156.40        2965.75           1441           3.00         2.00
  156.43        2966.00           1445           0.00         2.00
  156.46        2966.25           1448           0.00         2.00
  156.48        2966.50           1451           4.00         2.00
  156.51        2966.75           1455           3.00         2.00
  156.54        2967.00           1458           6.00         2.62
  156.57        2967.25           1461           4.00         2.00
  156.59        2967.50           1465           5.00         2.00
  156.62        2967.75           1468           2.00         2.00
  156.65        2968.00           1471           6.00         2.62
  156.67        2968.25           1475           8.00        11.33
  156.70        2968.50           1478           7.00         6.97
  156.73        2968.75           1481           7.00         6.97
  156.76        2969.00           1485           8.00        11.33
  156.78        2969.25           1488           0.00         2.00
  156.81        2969.50           1491           8.00        11.33
  156.84        2969.75           1495           3.00         2.00
  156.86        2970.00           1498           5.00         2.00
  156.89        2970.25           1501           8.00        11.33
  156.92        2970.50           1505           6.00         2.62
  156.95        2970.75           1508           6.00         2.62
  156.97        2971.00           1511           6.00         2.62
  157.00        2971.25           1515           4.00         2.00
  157.03        2971.50           1518           3.00         2.00
  157.05        2971.75           1521           4.00         2.00
  157.08        2972.00           1525           7.00         6.97
  157.11        2972.25           1528           6.00         2.62
  157.14        2972.50           1531           6.00         2.62
  157.16        2972.75           1535           6.00         2.62
  157.19        2973.00           1538           8.00        11.33
  157.22        2973.25           1541           3.00         2.00
  157.24        2973.50           1545           7.00         6.97
  157.27        2973.75           1548           0.00         2.00
  157.30        2974.00           1551           4.00         2.00
  157.32        2974.25           1555           3.00         2.00
  157.35        2974.50           1558           0.00         2.00
  157.38        2974.75           1561           8.00        11.33
  157.41        2975.00           1565           3.00         2.00
  157.43        2975.25           1568           6.00         2.62
  157.46        2975.50           1571           7.00         6.97
  157.49        2975.75           1575           4.00         2.00
  157.51        2976.00           1578           6.00         2.62
  157.54        2976.25           1581           4.00         2.00
  157.57        2976.50           1585           7.00         6.97
  157.60        2976.75           1588           6.00         2.62
  157.62        2977.00           1591           8.00        11.33
  157.65        2977.25           1595           1.00         2.00
  157.68        2977.50           1598           2.00         2.00
  157.70        2977.75           1601           3.00         2.00
  157.73        2978.00           1605           3.00         2.00
  157.76        2978.25           1608           2.00         2.00
  157.79        2978.50           1611           5.00         2.00
  157.81        2978.75           1615           6.00         2.62
  157.84        2979.00           1618           3.00         2.00
  157.87        2979.25           1621           6.00         2.62
  157.89        2979.50           1625           6.00         2.62
  157.92        2979.75           1628           2.00         2.00
  157.95        2980.00           1631           6.00         2.62
  157.97        2980.25           1635           7.00         6.97
  158.00        2980.50           1638           4.00         2.00
  158.03        2980.75           1641           2.00         2.00
  158.06        2981.00           1645           0.00         2.00
  158.08        2981.25           1648           6.00         2.62
  158.11        2981.50           1651           0.00         2.00
  158.14        2981.75           1655           6.00         2.62
  158.16        2982.00           1658           8.00        11.33
  158.19        2982.25           1661           8.00        11.33
  158.22        2982.50           1665           2.00         2.00
  158.25        2982.75           1668           2.00         2.00
  158.27        2983.00           1671           6.00         2.62
  158.30        2983.25           1675           6.00         2.62
  158.33        2983.50           1678           6.00         2.62
  158.35        2983.75           1681           8.00        11.33
  158.38        2984.00           1685           6.00         2.62
HS scan finished at 02:38:34
end
