************************************************************
  HS Scan of (1) Internal mercury lamp
************************************************************
Integration time is 0.2294 seconds per sample
dh100617Tamanrasset 22.79-5.529 3.26643pr865
************************************************************
Dead Time -------------------------  2.8E-08 
Number of Cycles Used -------------  4 
Starting Wavelength (Angstroms) ---  2950 
Final Wavelength (Angstoms) -------  2984 
Wavelength Increment (Angstroms) --  .25 
Filter Wheel #1 Position ---------- (1) Ground quartz diffuser (ND=2.32)
Filter Wheel #2 Position ---------- (1) Neutral Density 0.494



************************************************************
HS scan start time = 02:34:18
Dark Count =  6.2 


Time (GMT)  Wavelength (Ang)  Step Number  Raw Counts  Counts/Second

  154.65        2950.00           1233           9.00        12.21
  154.71        2950.25           1236           7.00         3.49
  154.74        2950.50           1239           4.00         2.00
  154.77        2950.75           1242           4.00         2.00
  154.79        2951.00           1246           6.00         2.00
  154.82        2951.25           1249           6.00         2.00
  154.85        2951.50           1252           5.00         2.00
  154.87        2951.75           1256           8.00         7.85
  154.90        2952.00           1259           8.00         7.85
  154.93        2952.25           1262           5.00         2.00
  154.96        2952.50           1266           7.00         3.49
  154.98        2952.75           1269           6.00         2.00
  155.01        2953.00           1272           4.00         2.00
  155.04        2953.25           1276           5.00         2.00
  155.06        2953.50           1279           2.00         2.00
  155.09        2953.75           1282           5.00         2.00
  155.12        2954.00           1286           5.00         2.00
  155.15        2954.25           1289           6.00         2.00
  155.17        2954.50           1292           4.00         2.00
  155.20        2954.75           1295           6.00         2.00
  155.23        2955.00           1299           5.00         2.00
  155.25        2955.25           1302           6.00         2.00
  155.28        2955.50           1305           4.00         2.00
  155.31        2955.75           1309           4.00         2.00
  155.34        2956.00           1312           4.00         2.00
  155.36        2956.25           1315           6.00         2.00
  155.39        2956.50           1319           6.00         2.00
  155.42        2956.75           1322           3.00         2.00
  155.44        2957.00           1325           8.00         7.85
  155.47        2957.25           1329           4.00         2.00
  155.50        2957.50           1332           7.00         3.49
  155.53        2957.75           1335           5.00         2.00
  155.55        2958.00           1339           6.00         2.00
  155.58        2958.25           1342           6.00         2.00
  155.61        2958.50           1345           9.00        12.21
  155.63        2958.75           1348           7.00         3.49
  155.66        2959.00           1352           1.00         2.00
  155.69        2959.25           1355           8.00         7.85
  155.72        2959.50           1358           7.00         3.49
  155.74        2959.75           1362           8.00         7.85
  155.77        2960.00           1365           4.00         2.00
  155.80        2960.25           1368           6.00         2.00
  155.82        2960.50           1372           6.00         2.00
  155.85        2960.75           1375           5.00         2.00
  155.88        2961.00           1378           6.00         2.00
  155.90        2961.25           1382           7.00         3.49
  155.93        2961.50           1385           5.00         2.00
  155.96        2961.75           1388           3.00         2.00
  155.99        2962.00           1392           7.00         3.49
  156.01        2962.25           1395           6.00         2.00
  156.04        2962.50           1398           5.00         2.00
  156.07        2962.75           1402           6.00         2.00
  156.09        2963.00           1405           6.00         2.00
  156.12        2963.25           1408           2.00         2.00
  156.15        2963.50           1412           7.00         3.49
  156.18        2963.75           1415           4.00         2.00
  156.20        2964.00           1418           7.00         3.49
  156.23        2964.25           1422           9.00        12.21
  156.26        2964.50           1425           4.00         2.00
  156.28        2964.75           1428           3.00         2.00
  156.31        2965.00           1431           7.00         3.49
  156.34        2965.25           1435           7.00         3.49
  156.37        2965.50           1438           6.00         2.00
  156.39        2965.75           1441           2.00         2.00
  156.42        2966.00           1445           7.00         3.49
  156.45        2966.25           1448           6.00         2.00
  156.47        2966.50           1451           4.00         2.00
  156.50        2966.75           1455           4.00         2.00
  156.53        2967.00           1458           8.00         7.85
  156.56        2967.25           1461           7.00         3.49
  156.58        2967.50           1465           7.00         3.49
  156.61        2967.75           1468           8.00         7.85
  156.64        2968.00           1471           2.00         2.00
  156.66        2968.25           1475           6.00         2.00
  156.69        2968.50           1478           7.00         3.49
  156.72        2968.75           1481           5.00         2.00
  156.75        2969.00           1485           7.00         3.49
  156.77        2969.25           1488           6.00         2.00
  156.80        2969.50           1491           4.00         2.00
  156.83        2969.75           1495           7.00         3.49
  156.85        2970.00           1498           5.00         2.00
  156.88        2970.25           1501           8.00         7.85
  156.91        2970.50           1505           4.00         2.00
  156.94        2970.75           1508           6.00         2.00
  156.96        2971.00           1511           3.00         2.00
  156.99        2971.25           1515           6.00         2.00
  157.02        2971.50           1518           8.00         7.85
  157.04        2971.75           1521           7.00         3.49
  157.07        2972.00           1525           4.00         2.00
  157.10        2972.25           1528           3.00         2.00
  157.13        2972.50           1531           6.00         2.00
  157.15        2972.75           1535           2.00         2.00
  157.18        2973.00           1538           4.00         2.00
  157.21        2973.25           1541           7.00         3.49
  157.23        2973.50           1545           5.00         2.00
  157.26        2973.75           1548           5.00         2.00
  157.29        2974.00           1551           7.00         3.49
  157.32        2974.25           1555           2.00         2.00
  157.34        2974.50           1558           5.00         2.00
  157.37        2974.75           1561           8.00         7.85
  157.40        2975.00           1565           5.00         2.00
  157.42        2975.25           1568           4.00         2.00
  157.45        2975.50           1571           6.00         2.00
  157.48        2975.75           1575           6.00         2.00
  157.51        2976.00           1578           8.00         7.85
  157.53        2976.25           1581           7.00         3.49
  157.56        2976.50           1585           4.00         2.00
  157.59        2976.75           1588           6.00         2.00
  157.61        2977.00           1591           7.00         3.49
  157.64        2977.25           1595           5.00         2.00
  157.67        2977.50           1598           9.00        12.21
  157.70        2977.75           1601           8.00         7.85
  157.72        2978.00           1605           8.00         7.85
  157.75        2978.25           1608           5.00         2.00
  157.78        2978.50           1611           3.00         2.00
  157.80        2978.75           1615           5.00         2.00
  157.83        2979.00           1618           7.00         3.49
  157.86        2979.25           1621           4.00         2.00
  157.89        2979.50           1625           4.00         2.00
  157.91        2979.75           1628           7.00         3.49
  157.94        2980.00           1631           7.00         3.49
  157.97        2980.25           1635           4.00         2.00
  157.99        2980.50           1638           4.00         2.00
  158.02        2980.75           1641           6.00         2.00
  158.05        2981.00           1645           5.00         2.00
  158.08        2981.25           1648           8.00         7.85
  158.10        2981.50           1651           8.00         7.85
  158.13        2981.75           1655           2.00         2.00
  158.16        2982.00           1658           5.00         2.00
  158.18        2982.25           1661           3.00         2.00
  158.21        2982.50           1665           7.00         3.49
  158.24        2982.75           1668           9.00        12.21
  158.27        2983.00           1671           7.00         3.49
  158.29        2983.25           1675           6.00         2.00
  158.32        2983.50           1678           7.00         3.49
  158.35        2983.75           1681           3.00         2.00
  158.37        2984.00           1685           5.00         2.00
HS scan finished at 02:38:34
end
