************************************************************
  HS Scan of (1) Internal mercury lamp
************************************************************
Integration time is 0.2294 seconds per sample
dh120617Tamanrasset 22.79-5.529 3.210348pr865
************************************************************
Dead Time -------------------------  2.8E-08 
Number of Cycles Used -------------  4 
Starting Wavelength (Angstroms) ---  2950 
Final Wavelength (Angstoms) -------  2984 
Wavelength Increment (Angstroms) --  .25 
Filter Wheel #1 Position ---------- (1) Ground quartz diffuser (ND=2.32)
Filter Wheel #2 Position ---------- (1) Neutral Density 0.494



************************************************************
HS scan start time = 02:34:19
Dark Count =  6.5 


Time (GMT)  Wavelength (Ang)  Step Number  Raw Counts  Counts/Second

  154.68        2950.00           1233           5.00         2.00
  154.74        2950.25           1236           3.00         2.00
  154.77        2950.50           1239           3.00         2.00
  154.79        2950.75           1242           8.00         6.54
  154.82        2951.00           1246           4.00         2.00
  154.85        2951.25           1249           4.00         2.00
  154.88        2951.50           1252           3.00         2.00
  154.90        2951.75           1256           7.00         2.18
  154.93        2952.00           1259           5.00         2.00
  154.96        2952.25           1262           1.00         2.00
  154.98        2952.50           1266           4.00         2.00
  155.01        2952.75           1269           3.00         2.00
  155.04        2953.00           1272           2.00         2.00
  155.07        2953.25           1276           3.00         2.00
  155.09        2953.50           1279           2.00         2.00
  155.12        2953.75           1282           1.00         2.00
  155.15        2954.00           1286           4.00         2.00
  155.17        2954.25           1289           6.00         2.00
  155.20        2954.50           1292           8.00         6.54
  155.23        2954.75           1295           8.00         6.54
  155.26        2955.00           1299           4.00         2.00
  155.28        2955.25           1302           3.00         2.00
  155.31        2955.50           1305           7.00         2.18
  155.34        2955.75           1309           5.00         2.00
  155.36        2956.00           1312           2.00         2.00
  155.39        2956.25           1315           3.00         2.00
  155.42        2956.50           1319           7.00         2.18
  155.45        2956.75           1322           5.00         2.00
  155.47        2957.00           1325           6.00         2.00
  155.50        2957.25           1329           5.00         2.00
  155.53        2957.50           1332           4.00         2.00
  155.55        2957.75           1335           6.00         2.00
  155.58        2958.00           1339           6.00         2.00
  155.61        2958.25           1342           7.00         2.18
  155.64        2958.50           1345           6.00         2.00
  155.66        2958.75           1348           7.00         2.18
  155.69        2959.00           1352           3.00         2.00
  155.72        2959.25           1355           9.00        10.90
  155.74        2959.50           1358           5.00         2.00
  155.77        2959.75           1362           3.00         2.00
  155.80        2960.00           1365           8.00         6.54
  155.83        2960.25           1368           7.00         2.18
  155.85        2960.50           1372           6.00         2.00
  155.88        2960.75           1375           5.00         2.00
  155.91        2961.00           1378           6.00         2.00
  155.93        2961.25           1382           4.00         2.00
  155.96        2961.50           1385           4.00         2.00
  155.99        2961.75           1388           2.00         2.00
  156.02        2962.00           1392           5.00         2.00
  156.04        2962.25           1395           5.00         2.00
  156.07        2962.50           1398           5.00         2.00
  156.10        2962.75           1402           5.00         2.00
  156.12        2963.00           1405           5.00         2.00
  156.15        2963.25           1408           8.00         6.54
  156.18        2963.50           1412           4.00         2.00
  156.21        2963.75           1415           6.00         2.00
  156.23        2964.00           1418           5.00         2.00
  156.26        2964.25           1422           5.00         2.00
  156.29        2964.50           1425           5.00         2.00
  156.31        2964.75           1428           4.00         2.00
  156.34        2965.00           1431           4.00         2.00
  156.37        2965.25           1435           2.00         2.00
  156.40        2965.50           1438           4.00         2.00
  156.42        2965.75           1441           8.00         6.54
  156.45        2966.00           1445           9.00        10.90
  156.48        2966.25           1448           5.00         2.00
  156.50        2966.50           1451           7.00         2.18
  156.53        2966.75           1455           8.00         6.54
  156.56        2967.00           1458           5.00         2.00
  156.58        2967.25           1461           7.00         2.18
  156.61        2967.50           1465           3.00         2.00
  156.64        2967.75           1468           5.00         2.00
  156.67        2968.00           1471           6.00         2.00
  156.69        2968.25           1475           4.00         2.00
  156.72        2968.50           1478           4.00         2.00
  156.75        2968.75           1481           4.00         2.00
  156.77        2969.00           1485           6.00         2.00
  156.80        2969.25           1488           5.00         2.00
  156.83        2969.50           1491           6.00         2.00
  156.86        2969.75           1495           1.00         2.00
  156.88        2970.00           1498           4.00         2.00
  156.91        2970.25           1501           4.00         2.00
  156.94        2970.50           1505           5.00         2.00
  156.97        2970.75           1508           5.00         2.00
  156.99        2971.00           1511           7.00         2.18
  157.02        2971.25           1515           5.00         2.00
  157.05        2971.50           1518           9.00        10.90
  157.07        2971.75           1521           4.00         2.00
  157.10        2972.00           1525           4.00         2.00
  157.13        2972.25           1528           4.00         2.00
  157.16        2972.50           1531           4.00         2.00
  157.18        2972.75           1535           6.00         2.00
  157.21        2973.00           1538           6.00         2.00
  157.24        2973.25           1541           6.00         2.00
  157.26        2973.50           1545           9.00        10.90
  157.29        2973.75           1548           4.00         2.00
  157.32        2974.00           1551           5.00         2.00
  157.34        2974.25           1555           7.00         2.18
  157.37        2974.50           1558           5.00         2.00
  157.40        2974.75           1561           4.00         2.00
  157.43        2975.00           1565           5.00         2.00
  157.45        2975.25           1568           6.00         2.00
  157.48        2975.50           1571           9.00        10.90
  157.51        2975.75           1575           6.00         2.00
  157.53        2976.00           1578           6.00         2.00
  157.56        2976.25           1581           6.00         2.00
  157.59        2976.50           1585           6.00         2.00
  157.62        2976.75           1588           7.00         2.18
  157.64        2977.00           1591           6.00         2.00
  157.67        2977.25           1595           6.00         2.00
  157.70        2977.50           1598           6.00         2.00
  157.72        2977.75           1601           5.00         2.00
  157.75        2978.00           1605           3.00         2.00
  157.78        2978.25           1608           4.00         2.00
  157.81        2978.50           1611           5.00         2.00
  157.83        2978.75           1615           7.00         2.18
  157.86        2979.00           1618           7.00         2.18
  157.89        2979.25           1621           5.00         2.00
  157.91        2979.50           1625           7.00         2.18
  157.94        2979.75           1628           5.00         2.00
  157.97        2980.00           1631           2.00         2.00
  157.99        2980.25           1635           5.00         2.00
  158.02        2980.50           1638           2.00         2.00
  158.05        2980.75           1641           4.00         2.00
  158.08        2981.00           1645           8.00         6.54
  158.10        2981.25           1648           5.00         2.00
  158.13        2981.50           1651           5.00         2.00
  158.16        2981.75           1655           4.00         2.00
  158.19        2982.00           1658           5.00         2.00
  158.21        2982.25           1661           9.00        10.90
  158.24        2982.50           1665           4.00         2.00
  158.27        2982.75           1668           2.00         2.00
  158.29        2983.00           1671           5.00         2.00
  158.32        2983.25           1675           8.00         6.54
  158.35        2983.50           1678           3.00         2.00
  158.38        2983.75           1681           7.00         2.18
  158.40        2984.00           1685           6.00         2.00
HS scan finished at 02:38:35
end
