************************************************************
  HS Scan of (1) Internal mercury lamp
************************************************************
Integration time is 0.2294 seconds per sample
dh170617Tamanrasset 22.79-5.529 3.011514pr865
************************************************************
Dead Time -------------------------  2.8E-08 
Number of Cycles Used -------------  4 
Starting Wavelength (Angstroms) ---  2950 
Final Wavelength (Angstoms) -------  2984 
Wavelength Increment (Angstroms) --  .25 
Filter Wheel #1 Position ---------- (1) Ground quartz diffuser (ND=2.32)
Filter Wheel #2 Position ---------- (1) Neutral Density 0.494



************************************************************
HS scan start time = 02:35:17
Dark Count =  4.5 


Time (GMT)  Wavelength (Ang)  Step Number  Raw Counts  Counts/Second

  155.63        2950.00           1233           3.00         2.00
  155.70        2950.25           1236           0.00         2.00
  155.72        2950.50           1239           5.00         2.18
  155.75        2950.75           1242           2.00         2.00
  155.78        2951.00           1246           1.00         2.00
  155.81        2951.25           1249           8.00        15.26
  155.83        2951.50           1252           5.00         2.18
  155.86        2951.75           1256           5.00         2.18
  155.89        2952.00           1259           4.00         2.00
  155.91        2952.25           1262           3.00         2.00
  155.94        2952.50           1266           5.00         2.18
  155.97        2952.75           1269           8.00        15.26
  156.00        2953.00           1272           5.00         2.18
  156.02        2953.25           1276           2.00         2.00
  156.05        2953.50           1279           7.00        10.90
  156.08        2953.75           1282           0.00         2.00
  156.10        2954.00           1286           8.00        15.26
  156.13        2954.25           1289           2.00         2.00
  156.16        2954.50           1292           7.00        10.90
  156.18        2954.75           1295           7.00        10.90
  156.21        2955.00           1299           8.00        15.26
  156.24        2955.25           1302           7.00        10.90
  156.27        2955.50           1305           5.00         2.18
  156.29        2955.75           1309           6.00         6.54
  156.32        2956.00           1312           7.00        10.90
  156.35        2956.25           1315           0.00         2.00
  156.38        2956.50           1319           0.00         2.00
  156.40        2956.75           1322           8.00        15.26
  156.43        2957.00           1325           8.00        15.26
  156.46        2957.25           1329           5.00         2.18
  156.48        2957.50           1332           8.00        15.26
  156.51        2957.75           1335           3.00         2.00
  156.54        2958.00           1339           5.00         2.18
  156.56        2958.25           1342           5.00         2.18
  156.59        2958.50           1345           5.00         2.18
  156.62        2958.75           1348           3.00         2.00
  156.65        2959.00           1352           0.00         2.00
  156.67        2959.25           1355           7.00        10.90
  156.70        2959.50           1358           3.00         2.00
  156.73        2959.75           1362           3.00         2.00
  156.75        2960.00           1365           7.00        10.90
  156.78        2960.25           1368           1.00         2.00
  156.81        2960.50           1372           8.00        15.26
  156.84        2960.75           1375           2.00         2.00
  156.86        2961.00           1378           8.00        15.26
  156.89        2961.25           1382           2.00         2.00
  156.92        2961.50           1385           6.00         6.54
  156.94        2961.75           1388           0.00         2.00
  156.97        2962.00           1392           8.00        15.26
  157.00        2962.25           1395           6.00         6.54
  157.03        2962.50           1398           5.00         2.18
  157.05        2962.75           1402           6.00         6.54
  157.08        2963.00           1405           1.00         2.00
  157.11        2963.25           1408           5.00         2.18
  157.13        2963.50           1412           1.00         2.00
  157.16        2963.75           1415           8.00        15.26
  157.19        2964.00           1418           7.00        10.90
  157.22        2964.25           1422           2.00         2.00
  157.24        2964.50           1425           3.00         2.00
  157.27        2964.75           1428           8.00        15.26
  157.30        2965.00           1431           7.00        10.90
  157.32        2965.25           1435           2.00         2.00
  157.35        2965.50           1438           5.00         2.18
  157.38        2965.75           1441           8.00        15.26
  157.41        2966.00           1445           7.00        10.90
  157.43        2966.25           1448           3.00         2.00
  157.46        2966.50           1451           8.00        15.26
  157.49        2966.75           1455           3.00         2.00
  157.51        2967.00           1458           1.00         2.00
  157.54        2967.25           1461           6.00         6.54
  157.57        2967.50           1465           5.00         2.18
  157.60        2967.75           1468           5.00         2.18
  157.62        2968.00           1471           4.00         2.00
  157.65        2968.25           1475           6.00         6.54
  157.68        2968.50           1478           0.00         2.00
  157.70        2968.75           1481           4.00         2.00
  157.73        2969.00           1485           7.00        10.90
  157.76        2969.25           1488           6.00         6.54
  157.79        2969.50           1491           4.00         2.00
  157.81        2969.75           1495           8.00        15.26
  157.84        2970.00           1498           2.00         2.00
  157.87        2970.25           1501           8.00        15.26
  157.89        2970.50           1505           8.00        15.26
  157.92        2970.75           1508           5.00         2.18
  157.95        2971.00           1511           0.00         2.00
  157.98        2971.25           1515           2.00         2.00
  158.00        2971.50           1518           7.00        10.90
  158.03        2971.75           1521           4.00         2.00
  158.06        2972.00           1525           6.00         6.54
  158.08        2972.25           1528           3.00         2.00
  158.11        2972.50           1531           8.00        15.26
  158.14        2972.75           1535           6.00         6.54
  158.17        2973.00           1538           6.00         6.54
  158.19        2973.25           1541           4.00         2.00
  158.22        2973.50           1545           5.00         2.18
  158.25        2973.75           1548           4.00         2.00
  158.27        2974.00           1551           8.00        15.26
  158.30        2974.25           1555           5.00         2.18
  158.33        2974.50           1558           5.00         2.18
  158.35        2974.75           1561           2.00         2.00
  158.38        2975.00           1565           6.00         6.54
  158.41        2975.25           1568           8.00        15.26
  158.44        2975.50           1571           7.00        10.90
  158.46        2975.75           1575           1.00         2.00
  158.49        2976.00           1578           6.00         6.54
  158.52        2976.25           1581           3.00         2.00
  158.54        2976.50           1585           7.00        10.90
  158.57        2976.75           1588           6.00         6.54
  158.60        2977.00           1591           2.00         2.00
  158.63        2977.25           1595           0.00         2.00
  158.65        2977.50           1598           3.00         2.00
  158.68        2977.75           1601           6.00         6.54
  158.71        2978.00           1605           8.00        15.26
  158.73        2978.25           1608           0.00         2.00
  158.76        2978.50           1611           3.00         2.00
  158.79        2978.75           1615           0.00         2.00
  158.82        2979.00           1618           6.00         6.54
  158.84        2979.25           1621           7.00        10.90
  158.87        2979.50           1625           4.00         2.00
  158.90        2979.75           1628           4.00         2.00
  158.92        2980.00           1631           4.00         2.00
  158.95        2980.25           1635           8.00        15.26
  158.98        2980.50           1638           8.00        15.26
  159.01        2980.75           1641           8.00        15.26
  159.03        2981.00           1645           1.00         2.00
  159.06        2981.25           1648           8.00        15.26
  159.09        2981.50           1651           3.00         2.00
  159.11        2981.75           1655           8.00        15.26
  159.14        2982.00           1658           6.00         6.54
  159.17        2982.25           1661           7.00        10.90
  159.20        2982.50           1665           5.00         2.18
  159.22        2982.75           1668           6.00         6.54
  159.25        2983.00           1671           8.00        15.26
  159.28        2983.25           1675           5.00         2.18
  159.30        2983.50           1678           0.00         2.00
  159.33        2983.75           1681           0.00         2.00
  159.36        2984.00           1685           3.00         2.00
HS scan finished at 02:39:33
end
