************************************************************
  HS Scan of (1) Internal mercury lamp
************************************************************
Integration time is 0.2294 seconds per sample
dh090617Tamanrasset 22.79-5.529 3.271528pr865
************************************************************
Dead Time -------------------------  2.8E-08 
Number of Cycles Used -------------  4 
Starting Wavelength (Angstroms) ---  2950 
Final Wavelength (Angstoms) -------  2984 
Wavelength Increment (Angstroms) --  .25 
Filter Wheel #1 Position ---------- (1) Ground quartz diffuser (ND=2.32)
Filter Wheel #2 Position ---------- (1) Neutral Density 0.494



************************************************************
HS scan start time = 02:34:30
Dark Count =  5.3 


Time (GMT)  Wavelength (Ang)  Step Number  Raw Counts  Counts/Second

  154.86        2950.00           1233           5.00         2.00
  154.92        2950.25           1236           4.00         2.00
  154.95        2950.50           1239           7.00         7.41
  154.98        2950.75           1242           4.00         2.00
  155.00        2951.00           1246           5.00         2.00
  155.03        2951.25           1249           6.00         3.05
  155.06        2951.50           1252           6.00         3.05
  155.08        2951.75           1256           6.00         3.05
  155.11        2952.00           1259           6.00         3.05
  155.14        2952.25           1262           5.00         2.00
  155.16        2952.50           1266           7.00         7.41
  155.19        2952.75           1269           3.00         2.00
  155.22        2953.00           1272           4.00         2.00
  155.25        2953.25           1276           5.00         2.00
  155.27        2953.50           1279           4.00         2.00
  155.30        2953.75           1282           4.00         2.00
  155.33        2954.00           1286           8.00        11.77
  155.35        2954.25           1289           7.00         7.41
  155.38        2954.50           1292           7.00         7.41
  155.41        2954.75           1295           6.00         3.05
  155.44        2955.00           1299           5.00         2.00
  155.46        2955.25           1302           3.00         2.00
  155.49        2955.50           1305           6.00         3.05
  155.52        2955.75           1309           4.00         2.00
  155.54        2956.00           1312           7.00         7.41
  155.57        2956.25           1315           8.00        11.77
  155.60        2956.50           1319           6.00         3.05
  155.63        2956.75           1322           7.00         7.41
  155.65        2957.00           1325           5.00         2.00
  155.68        2957.25           1329           5.00         2.00
  155.71        2957.50           1332           8.00        11.77
  155.73        2957.75           1335           8.00        11.77
  155.76        2958.00           1339           7.00         7.41
  155.79        2958.25           1342           4.00         2.00
  155.82        2958.50           1345           7.00         7.41
  155.84        2958.75           1348           7.00         7.41
  155.87        2959.00           1352           1.00         2.00
  155.90        2959.25           1355           3.00         2.00
  155.92        2959.50           1358           5.00         2.00
  155.95        2959.75           1362           5.00         2.00
  155.98        2960.00           1365           5.00         2.00
  156.01        2960.25           1368           6.00         3.05
  156.03        2960.50           1372           3.00         2.00
  156.06        2960.75           1375           8.00        11.77
  156.09        2961.00           1378           7.00         7.41
  156.11        2961.25           1382           2.00         2.00
  156.14        2961.50           1385           4.00         2.00
  156.17        2961.75           1388           5.00         2.00
  156.20        2962.00           1392           6.00         3.05
  156.22        2962.25           1395           3.00         2.00
  156.25        2962.50           1398           5.00         2.00
  156.28        2962.75           1402           6.00         3.05
  156.30        2963.00           1405           6.00         3.05
  156.33        2963.25           1408           3.00         2.00
  156.36        2963.50           1412           5.00         2.00
  156.39        2963.75           1415           6.00         3.05
  156.41        2964.00           1418           7.00         7.41
  156.44        2964.25           1422           5.00         2.00
  156.47        2964.50           1425           3.00         2.00
  156.49        2964.75           1428           7.00         7.41
  156.52        2965.00           1431           7.00         7.41
  156.55        2965.25           1435           4.00         2.00
  156.58        2965.50           1438           5.00         2.00
  156.60        2965.75           1441           7.00         7.41
  156.63        2966.00           1445           9.00        16.13
  156.66        2966.25           1448           2.00         2.00
  156.68        2966.50           1451           1.00         2.00
  156.71        2966.75           1455           5.00         2.00
  156.74        2967.00           1458           7.00         7.41
  156.77        2967.25           1461           5.00         2.00
  156.79        2967.50           1465           5.00         2.00
  156.82        2967.75           1468           6.00         3.05
  156.85        2968.00           1471           8.00        11.77
  156.87        2968.25           1475           7.00         7.41
  156.90        2968.50           1478           7.00         7.41
  156.93        2968.75           1481           3.00         2.00
  156.96        2969.00           1485           7.00         7.41
  156.98        2969.25           1488           8.00        11.77
  157.01        2969.50           1491           9.00        16.13
  157.04        2969.75           1495           2.00         2.00
  157.06        2970.00           1498           5.00         2.00
  157.09        2970.25           1501           5.00         2.00
  157.12        2970.50           1505           3.00         2.00
  157.15        2970.75           1508           5.00         2.00
  157.17        2971.00           1511           5.00         2.00
  157.20        2971.25           1515           7.00         7.41
  157.23        2971.50           1518           6.00         3.05
  157.25        2971.75           1521           5.00         2.00
  157.28        2972.00           1525           7.00         7.41
  157.31        2972.25           1528           5.00         2.00
  157.34        2972.50           1531           6.00         3.05
  157.36        2972.75           1535           4.00         2.00
  157.39        2973.00           1538           5.00         2.00
  157.42        2973.25           1541           4.00         2.00
  157.44        2973.50           1545           8.00        11.77
  157.47        2973.75           1548           7.00         7.41
  157.50        2974.00           1551           5.00         2.00
  157.53        2974.25           1555           5.00         2.00
  157.55        2974.50           1558           4.00         2.00
  157.58        2974.75           1561           5.00         2.00
  157.61        2975.00           1565           2.00         2.00
  157.63        2975.25           1568           4.00         2.00
  157.66        2975.50           1571           8.00        11.77
  157.69        2975.75           1575           0.00         2.00
  157.72        2976.00           1578           6.00         3.05
  157.74        2976.25           1581           8.00        11.77
  157.77        2976.50           1585           5.00         2.00
  157.80        2976.75           1588           6.00         3.05
  157.83        2977.00           1591           6.00         3.05
  157.85        2977.25           1595           7.00         7.41
  157.88        2977.50           1598           6.00         3.05
  157.91        2977.75           1601           5.00         2.00
  157.93        2978.00           1605           3.00         2.00
  157.96        2978.25           1608           5.00         2.00
  157.99        2978.50           1611           6.00         3.05
  158.02        2978.75           1615           6.00         3.05
  158.04        2979.00           1618           6.00         3.05
  158.07        2979.25           1621           6.00         3.05
  158.10        2979.50           1625           7.00         7.41
  158.12        2979.75           1628           7.00         7.41
  158.15        2980.00           1631           4.00         2.00
  158.18        2980.25           1635           7.00         7.41
  158.21        2980.50           1638           6.00         3.05
  158.23        2980.75           1641           6.00         3.05
  158.26        2981.00           1645           6.00         3.05
  158.29        2981.25           1648           2.00         2.00
  158.31        2981.50           1651           3.00         2.00
  158.34        2981.75           1655           3.00         2.00
  158.37        2982.00           1658           6.00         3.05
  158.40        2982.25           1661           7.00         7.41
  158.42        2982.50           1665           3.00         2.00
  158.45        2982.75           1668           5.00         2.00
  158.48        2983.00           1671           5.00         2.00
  158.50        2983.25           1675           3.00         2.00
  158.53        2983.50           1678           7.00         7.41
  158.56        2983.75           1681           3.00         2.00
  158.58        2984.00           1685           7.00         7.41
HS scan finished at 02:38:46
end
