************************************************************
  HS Scan of (1) Internal mercury lamp
************************************************************
Integration time is 0.2294 seconds per sample
dh270617Tamanrasset 22.79-5.529 3.337806pr865
************************************************************
Dead Time -------------------------  2.8E-08 
Number of Cycles Used -------------  4 
Starting Wavelength (Angstroms) ---  2950 
Final Wavelength (Angstoms) -------  2984 
Wavelength Increment (Angstroms) --  .25 
Filter Wheel #1 Position ---------- (1) Ground quartz diffuser (ND=2.32)
Filter Wheel #2 Position ---------- (1) Neutral Density 0.494



************************************************************
HS scan start time = 02:37:18
Dark Count =  5.4 


Time (GMT)  Wavelength (Ang)  Step Number  Raw Counts  Counts/Second

  157.66        2950.00           1233           7.00         6.97
  157.73        2950.25           1236           4.00         2.00
  157.75        2950.50           1239           6.00         2.62
  157.78        2950.75           1242           4.00         2.00
  157.81        2951.00           1246           7.00         6.97
  157.83        2951.25           1249           6.00         2.62
  157.86        2951.50           1252           6.00         2.62
  157.89        2951.75           1256           4.00         2.00
  157.92        2952.00           1259           4.00         2.00
  157.94        2952.25           1262           4.00         2.00
  157.97        2952.50           1266           5.00         2.00
  158.00        2952.75           1269           7.00         6.97
  158.02        2953.00           1272           8.00        11.33
  158.05        2953.25           1276           8.00        11.33
  158.08        2953.50           1279           5.00         2.00
  158.10        2953.75           1282           8.00        11.33
  158.13        2954.00           1286           6.00         2.62
  158.16        2954.25           1289           8.00        11.33
  158.19        2954.50           1292           7.00         6.97
  158.21        2954.75           1295           6.00         2.62
  158.24        2955.00           1299           8.00        11.33
  158.27        2955.25           1302           5.00         2.00
  158.29        2955.50           1305           6.00         2.62
  158.32        2955.75           1309           8.00        11.33
  158.35        2956.00           1312           5.00         2.00
  158.38        2956.25           1315           7.00         6.97
  158.40        2956.50           1319           6.00         2.62
  158.43        2956.75           1322           5.00         2.00
  158.46        2957.00           1325           6.00         2.62
  158.48        2957.25           1329           5.00         2.00
  158.51        2957.50           1332           6.00         2.62
  158.54        2957.75           1335           7.00         6.97
  158.57        2958.00           1339           7.00         6.97
  158.59        2958.25           1342           5.00         2.00
  158.62        2958.50           1345           5.00         2.00
  158.65        2958.75           1348           7.00         6.97
  158.67        2959.00           1352           9.00        15.69
  158.70        2959.25           1355           5.00         2.00
  158.73        2959.50           1358           4.00         2.00
  158.76        2959.75           1362           4.00         2.00
  158.78        2960.00           1365           3.00         2.00
  158.81        2960.25           1368           3.00         2.00
  158.84        2960.50           1372           5.00         2.00
  158.86        2960.75           1375           9.00        15.69
  158.89        2961.00           1378           8.00        11.33
  158.92        2961.25           1382           5.00         2.00
  158.95        2961.50           1385           7.00         6.97
  158.97        2961.75           1388           6.00         2.62
  159.00        2962.00           1392           5.00         2.00
  159.03        2962.25           1395           8.00        11.33
  159.05        2962.50           1398           3.00         2.00
  159.08        2962.75           1402           5.00         2.00
  159.11        2963.00           1405           9.00        15.69
  159.14        2963.25           1408           6.00         2.62
  159.16        2963.50           1412           4.00         2.00
  159.19        2963.75           1415           4.00         2.00
  159.22        2964.00           1418           8.00        11.33
  159.24        2964.25           1422           6.00         2.62
  159.27        2964.50           1425           7.00         6.97
  159.30        2964.75           1428           9.00        15.69
  159.32        2965.00           1431           4.00         2.00
  159.35        2965.25           1435           4.00         2.00
  159.38        2965.50           1438           5.00         2.00
  159.41        2965.75           1441           7.00         6.97
  159.43        2966.00           1445           6.00         2.62
  159.46        2966.25           1448           4.00         2.00
  159.49        2966.50           1451           3.00         2.00
  159.52        2966.75           1455           3.00         2.00
  159.54        2967.00           1458           4.00         2.00
  159.57        2967.25           1461           6.00         2.62
  159.60        2967.50           1465           8.00        11.33
  159.62        2967.75           1468           1.00         2.00
  159.65        2968.00           1471           5.00         2.00
  159.68        2968.25           1475           8.00        11.33
  159.70        2968.50           1478           8.00        11.33
  159.73        2968.75           1481           7.00         6.97
  159.76        2969.00           1485           9.00        15.69
  159.79        2969.25           1488           4.00         2.00
  159.81        2969.50           1491           8.00        11.33
  159.84        2969.75           1495           8.00        11.33
  159.87        2970.00           1498           3.00         2.00
  159.89        2970.25           1501           5.00         2.00
  159.92        2970.50           1505          10.00        20.05
  159.95        2970.75           1508           6.00         2.62
  159.98        2971.00           1511           5.00         2.00
  160.00        2971.25           1515           6.00         2.62
  160.03        2971.50           1518           5.00         2.00
  160.06        2971.75           1521           7.00         6.97
  160.08        2972.00           1525           2.00         2.00
  160.11        2972.25           1528           6.00         2.62
  160.14        2972.50           1531           8.00        11.33
  160.17        2972.75           1535           7.00         6.97
  160.19        2973.00           1538           8.00        11.33
  160.22        2973.25           1541           4.00         2.00
  160.25        2973.50           1545           8.00        11.33
  160.27        2973.75           1548           8.00        11.33
  160.30        2974.00           1551           6.00         2.62
  160.33        2974.25           1555           7.00         6.97
  160.36        2974.50           1558           7.00         6.97
  160.38        2974.75           1561           4.00         2.00
  160.41        2975.00           1565           4.00         2.00
  160.44        2975.25           1568           5.00         2.00
  160.46        2975.50           1571           6.00         2.62
  160.49        2975.75           1575           5.00         2.00
  160.52        2976.00           1578           6.00         2.62
  160.54        2976.25           1581           9.00        15.69
  160.57        2976.50           1585           7.00         6.97
  160.60        2976.75           1588           6.00         2.62
  160.63        2977.00           1591           9.00        15.69
  160.65        2977.25           1595           6.00         2.62
  160.68        2977.50           1598           3.00         2.00
  160.71        2977.75           1601           8.00        11.33
  160.73        2978.00           1605           5.00         2.00
  160.76        2978.25           1608           5.00         2.00
  160.79        2978.50           1611           9.00        15.69
  160.82        2978.75           1615           5.00         2.00
  160.84        2979.00           1618           9.00        15.69
  160.87        2979.25           1621           7.00         6.97
  160.90        2979.50           1625           4.00         2.00
  160.92        2979.75           1628           4.00         2.00
  160.95        2980.00           1631           5.00         2.00
  160.98        2980.25           1635           7.00         6.97
  161.01        2980.50           1638           7.00         6.97
  161.03        2980.75           1641           8.00        11.33
  161.06        2981.00           1645           7.00         6.97
  161.09        2981.25           1648           7.00         6.97
  161.11        2981.50           1651           5.00         2.00
  161.14        2981.75           1655           5.00         2.00
  161.17        2982.00           1658           6.00         2.62
  161.20        2982.25           1661           4.00         2.00
  161.22        2982.50           1665           6.00         2.62
  161.25        2982.75           1668           7.00         6.97
  161.28        2983.00           1671           4.00         2.00
  161.30        2983.25           1675           6.00         2.62
  161.33        2983.50           1678           8.00        11.33
  161.36        2983.75           1681           8.00        11.33
  161.39        2984.00           1685           8.00        11.33
HS scan finished at 02:41:34
end
