************************************************************
  HS Scan of (1) Internal mercury lamp
************************************************************
Integration time is 0.2294 seconds per sample
dh210617Tamanrasset 22.79-5.529 3.271528pr865
************************************************************
Dead Time -------------------------  2.8E-08 
Number of Cycles Used -------------  4 
Starting Wavelength (Angstroms) ---  2950 
Final Wavelength (Angstoms) -------  2984 
Wavelength Increment (Angstroms) --  .25 
Filter Wheel #1 Position ---------- (1) Ground quartz diffuser (ND=2.32)
Filter Wheel #2 Position ---------- (1) Neutral Density 0.494



************************************************************
HS scan start time = 02:35:19
Dark Count =  5.2 


Time (GMT)  Wavelength (Ang)  Step Number  Raw Counts  Counts/Second

  155.68        2950.00           1233           4.00         2.00
  155.74        2950.25           1236           7.00         7.85
  155.77        2950.50           1239           2.00         2.00
  155.80        2950.75           1242           7.00         7.85
  155.83        2951.00           1246           7.00         7.85
  155.85        2951.25           1249           4.00         2.00
  155.88        2951.50           1252           4.00         2.00
  155.91        2951.75           1256           5.00         2.00
  155.93        2952.00           1259           4.00         2.00
  155.96        2952.25           1262           5.00         2.00
  155.99        2952.50           1266           2.00         2.00
  156.02        2952.75           1269           6.00         3.49
  156.04        2953.00           1272           2.00         2.00
  156.07        2953.25           1276           8.00        12.21
  156.10        2953.50           1279           5.00         2.00
  156.12        2953.75           1282           7.00         7.85
  156.15        2954.00           1286           5.00         2.00
  156.18        2954.25           1289           4.00         2.00
  156.20        2954.50           1292           5.00         2.00
  156.23        2954.75           1295           8.00        12.21
  156.26        2955.00           1299           6.00         3.49
  156.29        2955.25           1302           5.00         2.00
  156.31        2955.50           1305           8.00        12.21
  156.34        2955.75           1309           9.00        16.56
  156.37        2956.00           1312           6.00         3.49
  156.39        2956.25           1315           4.00         2.00
  156.42        2956.50           1319           6.00         3.49
  156.45        2956.75           1322           8.00        12.21
  156.48        2957.00           1325           3.00         2.00
  156.50        2957.25           1329           6.00         3.49
  156.53        2957.50           1332           5.00         2.00
  156.56        2957.75           1335           8.00        12.21
  156.58        2958.00           1339           7.00         7.85
  156.61        2958.25           1342           3.00         2.00
  156.64        2958.50           1345           4.00         2.00
  156.67        2958.75           1348           3.00         2.00
  156.69        2959.00           1352           6.00         3.49
  156.72        2959.25           1355           6.00         3.49
  156.75        2959.50           1358           1.00         2.00
  156.77        2959.75           1362           3.00         2.00
  156.80        2960.00           1365           5.00         2.00
  156.83        2960.25           1368           4.00         2.00
  156.86        2960.50           1372           5.00         2.00
  156.88        2960.75           1375           3.00         2.00
  156.91        2961.00           1378           3.00         2.00
  156.94        2961.25           1382           7.00         7.85
  156.96        2961.50           1385           7.00         7.85
  156.99        2961.75           1388           3.00         2.00
  157.02        2962.00           1392           6.00         3.49
  157.05        2962.25           1395           3.00         2.00
  157.07        2962.50           1398           7.00         7.85
  157.10        2962.75           1402           6.00         3.49
  157.13        2963.00           1405           6.00         3.49
  157.15        2963.25           1408           2.00         2.00
  157.18        2963.50           1412           5.00         2.00
  157.21        2963.75           1415           8.00        12.21
  157.24        2964.00           1418           5.00         2.00
  157.26        2964.25           1422           3.00         2.00
  157.29        2964.50           1425           2.00         2.00
  157.32        2964.75           1428           5.00         2.00
  157.34        2965.00           1431           5.00         2.00
  157.37        2965.25           1435           7.00         7.85
  157.40        2965.50           1438           6.00         3.49
  157.43        2965.75           1441           7.00         7.85
  157.45        2966.00           1445           8.00        12.21
  157.48        2966.25           1448           5.00         2.00
  157.51        2966.50           1451           6.00         3.49
  157.53        2966.75           1455           5.00         2.00
  157.56        2967.00           1458           5.00         2.00
  157.59        2967.25           1461           7.00         7.85
  157.62        2967.50           1465           8.00        12.21
  157.64        2967.75           1468           7.00         7.85
  157.67        2968.00           1471           4.00         2.00
  157.70        2968.25           1475           8.00        12.21
  157.72        2968.50           1478           5.00         2.00
  157.75        2968.75           1481           6.00         3.49
  157.78        2969.00           1485           7.00         7.85
  157.80        2969.25           1488           1.00         2.00
  157.83        2969.50           1491           8.00        12.21
  157.86        2969.75           1495           3.00         2.00
  157.89        2970.00           1498           3.00         2.00
  157.91        2970.25           1501           7.00         7.85
  157.94        2970.50           1505           7.00         7.85
  157.97        2970.75           1508           6.00         3.49
  157.99        2971.00           1511           4.00         2.00
  158.02        2971.25           1515           5.00         2.00
  158.05        2971.50           1518           6.00         3.49
  158.08        2971.75           1521           8.00        12.21
  158.10        2972.00           1525           5.00         2.00
  158.13        2972.25           1528           6.00         3.49
  158.16        2972.50           1531           7.00         7.85
  158.18        2972.75           1535           2.00         2.00
  158.21        2973.00           1538           7.00         7.85
  158.24        2973.25           1541           6.00         3.49
  158.27        2973.50           1545          10.00        20.92
  158.29        2973.75           1548           4.00         2.00
  158.32        2974.00           1551           3.00         2.00
  158.35        2974.25           1555           6.00         3.49
  158.37        2974.50           1558           3.00         2.00
  158.40        2974.75           1561           5.00         2.00
  158.43        2975.00           1565           7.00         7.85
  158.46        2975.25           1568           4.00         2.00
  158.48        2975.50           1571           8.00        12.21
  158.51        2975.75           1575           6.00         3.49
  158.54        2976.00           1578           7.00         7.85
  158.56        2976.25           1581           7.00         7.85
  158.59        2976.50           1585           3.00         2.00
  158.62        2976.75           1588           8.00        12.21
  158.65        2977.00           1591           5.00         2.00
  158.67        2977.25           1595           8.00        12.21
  158.70        2977.50           1598           2.00         2.00
  158.73        2977.75           1601           1.00         2.00
  158.75        2978.00           1605           2.00         2.00
  158.78        2978.25           1608           3.00         2.00
  158.81        2978.50           1611           4.00         2.00
  158.84        2978.75           1615           5.00         2.00
  158.86        2979.00           1618           3.00         2.00
  158.89        2979.25           1621           6.00         3.49
  158.92        2979.50           1625           5.00         2.00
  158.94        2979.75           1628           5.00         2.00
  158.97        2980.00           1631           8.00        12.21
  159.00        2980.25           1635           4.00         2.00
  159.03        2980.50           1638           7.00         7.85
  159.05        2980.75           1641           8.00        12.21
  159.08        2981.00           1645           2.00         2.00
  159.11        2981.25           1648           6.00         3.49
  159.13        2981.50           1651           6.00         3.49
  159.16        2981.75           1655           4.00         2.00
  159.19        2982.00           1658           4.00         2.00
  159.22        2982.25           1661           6.00         3.49
  159.24        2982.50           1665           6.00         3.49
  159.27        2982.75           1668           6.00         3.49
  159.30        2983.00           1671           5.00         2.00
  159.32        2983.25           1675           6.00         3.49
  159.35        2983.50           1678           6.00         3.49
  159.38        2983.75           1681           2.00         2.00
  159.41        2984.00           1685           6.00         3.49
HS scan finished at 02:39:36
end
