************************************************************
  HS Scan of (1) Internal mercury lamp
************************************************************
Integration time is 0.2294 seconds per sample
dh230617Tamanrasset 22.79-5.529 3.016612pr865
************************************************************
Dead Time -------------------------  2.8E-08 
Number of Cycles Used -------------  4 
Starting Wavelength (Angstroms) ---  2950 
Final Wavelength (Angstoms) -------  2984 
Wavelength Increment (Angstroms) --  .25 
Filter Wheel #1 Position ---------- (1) Ground quartz diffuser (ND=2.32)
Filter Wheel #2 Position ---------- (1) Neutral Density 0.494



************************************************************
HS scan start time = 02:36:19
Dark Count =  4.7 


Time (GMT)  Wavelength (Ang)  Step Number  Raw Counts  Counts/Second

  156.68        2950.00           1233           5.00         2.00
  156.74        2950.25           1236           8.00        14.39
  156.77        2950.50           1239           8.00        14.39
  156.80        2950.75           1242           5.00         2.00
  156.82        2951.00           1246           7.00        10.03
  156.85        2951.25           1249           0.00         2.00
  156.88        2951.50           1252           8.00        14.39
  156.90        2951.75           1256           0.00         2.00
  156.93        2952.00           1259           6.00         5.67
  156.96        2952.25           1262           7.00        10.03
  156.98        2952.50           1266           1.00         2.00
  157.01        2952.75           1269           9.00        18.74
  157.04        2953.00           1272           6.00         5.67
  157.07        2953.25           1276           5.00         2.00
  157.09        2953.50           1279           8.00        14.39
  157.12        2953.75           1282           2.00         2.00
  157.15        2954.00           1286           0.00         2.00
  157.17        2954.25           1289           6.00         5.67
  157.20        2954.50           1292           8.00        14.39
  157.23        2954.75           1295           7.00        10.03
  157.26        2955.00           1299           4.00         2.00
  157.28        2955.25           1302           9.00        18.74
  157.31        2955.50           1305           8.00        14.39
  157.34        2955.75           1309           1.00         2.00
  157.36        2956.00           1312           8.00        14.39
  157.39        2956.25           1315           7.00        10.03
  157.42        2956.50           1319           8.00        14.39
  157.45        2956.75           1322           5.00         2.00
  157.47        2957.00           1325           8.00        14.39
  157.50        2957.25           1329           4.00         2.00
  157.53        2957.50           1332           3.00         2.00
  157.55        2957.75           1335           6.00         5.67
  157.58        2958.00           1339           3.00         2.00
  157.61        2958.25           1342           3.00         2.00
  157.63        2958.50           1345           7.00        10.03
  157.66        2958.75           1348           6.00         5.67
  157.69        2959.00           1352           4.00         2.00
  157.72        2959.25           1355           2.00         2.00
  157.74        2959.50           1358           2.00         2.00
  157.77        2959.75           1362           6.00         5.67
  157.80        2960.00           1365           8.00        14.39
  157.83        2960.25           1368           8.00        14.39
  157.85        2960.50           1372           7.00        10.03
  157.88        2960.75           1375           4.00         2.00
  157.91        2961.00           1378           4.00         2.00
  157.93        2961.25           1382           6.00         5.67
  157.96        2961.50           1385           6.00         5.67
  157.99        2961.75           1388           0.00         2.00
  158.02        2962.00           1392           3.00         2.00
  158.04        2962.25           1395           0.00         2.00
  158.07        2962.50           1398           8.00        14.39
  158.10        2962.75           1402           4.00         2.00
  158.12        2963.00           1405           0.00         2.00
  158.15        2963.25           1408           2.00         2.00
  158.18        2963.50           1412           8.00        14.39
  158.21        2963.75           1415           0.00         2.00
  158.23        2964.00           1418           7.00        10.03
  158.26        2964.25           1422           1.00         2.00
  158.29        2964.50           1425           5.00         2.00
  158.31        2964.75           1428           8.00        14.39
  158.34        2965.00           1431           2.00         2.00
  158.37        2965.25           1435           8.00        14.39
  158.39        2965.50           1438           4.00         2.00
  158.42        2965.75           1441           5.00         2.00
  158.45        2966.00           1445           4.00         2.00
  158.48        2966.25           1448           6.00         5.67
  158.50        2966.50           1451           0.00         2.00
  158.53        2966.75           1455           3.00         2.00
  158.56        2967.00           1458           4.00         2.00
  158.58        2967.25           1461           4.00         2.00
  158.61        2967.50           1465           3.00         2.00
  158.64        2967.75           1468           8.00        14.39
  158.67        2968.00           1471           4.00         2.00
  158.69        2968.25           1475           4.00         2.00
  158.72        2968.50           1478           6.00         5.67
  158.75        2968.75           1481           6.00         5.67
  158.77        2969.00           1485           5.00         2.00
  158.80        2969.25           1488           8.00        14.39
  158.83        2969.50           1491           6.00         5.67
  158.86        2969.75           1495           6.00         5.67
  158.88        2970.00           1498           6.00         5.67
  158.91        2970.25           1501           8.00        14.39
  158.94        2970.50           1505           5.00         2.00
  158.96        2970.75           1508           7.00        10.03
  158.99        2971.00           1511           8.00        14.39
  159.02        2971.25           1515           6.00         5.67
  159.04        2971.50           1518           8.00        14.39
  159.07        2971.75           1521           7.00        10.03
  159.10        2972.00           1525           8.00        14.39
  159.13        2972.25           1528           8.00        14.39
  159.15        2972.50           1531           8.00        14.39
  159.18        2972.75           1535           3.00         2.00
  159.21        2973.00           1538           0.00         2.00
  159.23        2973.25           1541           5.00         2.00
  159.26        2973.50           1545           8.00        14.39
  159.29        2973.75           1548           5.00         2.00
  159.32        2974.00           1551           0.00         2.00
  159.34        2974.25           1555           7.00        10.03
  159.37        2974.50           1558           1.00         2.00
  159.40        2974.75           1561           8.00        14.39
  159.42        2975.00           1565           2.00         2.00
  159.45        2975.25           1568           1.00         2.00
  159.48        2975.50           1571           7.00        10.03
  159.51        2975.75           1575           6.00         5.67
  159.53        2976.00           1578           4.00         2.00
  159.56        2976.25           1581           4.00         2.00
  159.59        2976.50           1585           2.00         2.00
  159.61        2976.75           1588           8.00        14.39
  159.64        2977.00           1591           2.00         2.00
  159.67        2977.25           1595           7.00        10.03
  159.70        2977.50           1598           4.00         2.00
  159.72        2977.75           1601           8.00        14.39
  159.75        2978.00           1605           3.00         2.00
  159.78        2978.25           1608           2.00         2.00
  159.80        2978.50           1611           6.00         5.67
  159.83        2978.75           1615           0.00         2.00
  159.86        2979.00           1618           8.00        14.39
  159.89        2979.25           1621           8.00        14.39
  159.91        2979.50           1625           8.00        14.39
  159.94        2979.75           1628           8.00        14.39
  159.97        2980.00           1631           8.00        14.39
  159.99        2980.25           1635           6.00         5.67
  160.02        2980.50           1638           4.00         2.00
  160.05        2980.75           1641           0.00         2.00
  160.08        2981.00           1645           0.00         2.00
  160.10        2981.25           1648           6.00         5.67
  160.13        2981.50           1651           8.00        14.39
  160.16        2981.75           1655           3.00         2.00
  160.18        2982.00           1658           6.00         5.67
  160.21        2982.25           1661           0.00         2.00
  160.24        2982.50           1665           4.00         2.00
  160.26        2982.75           1668           6.00         5.67
  160.29        2983.00           1671           5.00         2.00
  160.32        2983.25           1675           4.00         2.00
  160.35        2983.50           1678           6.00         5.67
  160.37        2983.75           1681           3.00         2.00
  160.40        2984.00           1685           5.00         2.00
HS scan finished at 02:40:35
end
