************************************************************
  HS Scan of (1) Internal mercury lamp
************************************************************
Integration time is 0.2294 seconds per sample
dh220617Tamanrasset 22.79-5.529 3.11348pr865
************************************************************
Dead Time -------------------------  2.8E-08 
Number of Cycles Used -------------  4 
Starting Wavelength (Angstroms) ---  2950 
Final Wavelength (Angstoms) -------  2984 
Wavelength Increment (Angstroms) --  .25 
Filter Wheel #1 Position ---------- (1) Ground quartz diffuser (ND=2.32)
Filter Wheel #2 Position ---------- (1) Neutral Density 0.494



************************************************************
HS scan start time = 02:36:19
Dark Count =  5.1 


Time (GMT)  Wavelength (Ang)  Step Number  Raw Counts  Counts/Second

  156.67        2950.00           1233           2.00         2.00
  156.74        2950.25           1236           4.00         2.00
  156.76        2950.50           1239           7.00         8.28
  156.79        2950.75           1242           3.00         2.00
  156.82        2951.00           1246           4.00         2.00
  156.84        2951.25           1249           5.00         2.00
  156.87        2951.50           1252           6.00         3.92
  156.90        2951.75           1256           4.00         2.00
  156.92        2952.00           1259           5.00         2.00
  156.95        2952.25           1262           3.00         2.00
  156.98        2952.50           1266           7.00         8.28
  157.01        2952.75           1269           5.00         2.00
  157.03        2953.00           1272           7.00         8.28
  157.06        2953.25           1276           4.00         2.00
  157.09        2953.50           1279           8.00        12.64
  157.11        2953.75           1282           7.00         8.28
  157.14        2954.00           1286           7.00         8.28
  157.17        2954.25           1289           5.00         2.00
  157.20        2954.50           1292           6.00         3.92
  157.22        2954.75           1295           5.00         2.00
  157.25        2955.00           1299           6.00         3.92
  157.28        2955.25           1302           5.00         2.00
  157.30        2955.50           1305           8.00        12.64
  157.33        2955.75           1309           5.00         2.00
  157.36        2956.00           1312           7.00         8.28
  157.39        2956.25           1315           4.00         2.00
  157.41        2956.50           1319           4.00         2.00
  157.44        2956.75           1322           8.00        12.64
  157.47        2957.00           1325           3.00         2.00
  157.49        2957.25           1329           6.00         3.92
  157.52        2957.50           1332           6.00         3.92
  157.55        2957.75           1335           5.00         2.00
  157.58        2958.00           1339           6.00         3.92
  157.60        2958.25           1342           4.00         2.00
  157.63        2958.50           1345           7.00         8.28
  157.66        2958.75           1348           3.00         2.00
  157.68        2959.00           1352           2.00         2.00
  157.71        2959.25           1355           5.00         2.00
  157.74        2959.50           1358           7.00         8.28
  157.77        2959.75           1362           6.00         3.92
  157.79        2960.00           1365           5.00         2.00
  157.82        2960.25           1368           3.00         2.00
  157.85        2960.50           1372           4.00         2.00
  157.87        2960.75           1375           8.00        12.64
  157.90        2961.00           1378           7.00         8.28
  157.93        2961.25           1382           4.00         2.00
  157.96        2961.50           1385           4.00         2.00
  157.98        2961.75           1388           3.00         2.00
  158.01        2962.00           1392           7.00         8.28
  158.04        2962.25           1395           5.00         2.00
  158.06        2962.50           1398           6.00         3.92
  158.09        2962.75           1402           2.00         2.00
  158.12        2963.00           1405           4.00         2.00
  158.14        2963.25           1408           6.00         3.92
  158.17        2963.50           1412           3.00         2.00
  158.20        2963.75           1415           8.00        12.64
  158.23        2964.00           1418           6.00         3.92
  158.25        2964.25           1422           8.00        12.64
  158.28        2964.50           1425           5.00         2.00
  158.31        2964.75           1428           6.00         3.92
  158.34        2965.00           1431           5.00         2.00
  158.36        2965.25           1435           8.00        12.64
  158.39        2965.50           1438           6.00         3.92
  158.42        2965.75           1441           6.00         3.92
  158.44        2966.00           1445           2.00         2.00
  158.47        2966.25           1448           4.00         2.00
  158.50        2966.50           1451           6.00         3.92
  158.53        2966.75           1455           6.00         3.92
  158.55        2967.00           1458           5.00         2.00
  158.58        2967.25           1461           5.00         2.00
  158.61        2967.50           1465           5.00         2.00
  158.63        2967.75           1468           5.00         2.00
  158.66        2968.00           1471           6.00         3.92
  158.69        2968.25           1475           9.00        17.00
  158.71        2968.50           1478           6.00         3.92
  158.74        2968.75           1481           4.00         2.00
  158.77        2969.00           1485           7.00         8.28
  158.80        2969.25           1488           4.00         2.00
  158.82        2969.50           1491           0.00         2.00
  158.85        2969.75           1495           8.00        12.64
  158.88        2970.00           1498           6.00         3.92
  158.90        2970.25           1501           3.00         2.00
  158.93        2970.50           1505           6.00         3.92
  158.96        2970.75           1508           5.00         2.00
  158.99        2971.00           1511           7.00         8.28
  159.01        2971.25           1515           3.00         2.00
  159.04        2971.50           1518           7.00         8.28
  159.07        2971.75           1521           5.00         2.00
  159.09        2972.00           1525           4.00         2.00
  159.12        2972.25           1528           4.00         2.00
  159.15        2972.50           1531           5.00         2.00
  159.18        2972.75           1535           4.00         2.00
  159.20        2973.00           1538           7.00         8.28
  159.23        2973.25           1541           2.00         2.00
  159.26        2973.50           1545           3.00         2.00
  159.28        2973.75           1548           6.00         3.92
  159.31        2974.00           1551           5.00         2.00
  159.34        2974.25           1555           5.00         2.00
  159.37        2974.50           1558           5.00         2.00
  159.39        2974.75           1561           6.00         3.92
  159.42        2975.00           1565           0.00         2.00
  159.45        2975.25           1568           2.00         2.00
  159.47        2975.50           1571           3.00         2.00
  159.50        2975.75           1575           5.00         2.00
  159.53        2976.00           1578           6.00         3.92
  159.56        2976.25           1581           2.00         2.00
  159.58        2976.50           1585           6.00         3.92
  159.61        2976.75           1588           5.00         2.00
  159.64        2977.00           1591           5.00         2.00
  159.66        2977.25           1595           8.00        12.64
  159.69        2977.50           1598           4.00         2.00
  159.72        2977.75           1601           5.00         2.00
  159.75        2978.00           1605           4.00         2.00
  159.77        2978.25           1608           4.00         2.00
  159.80        2978.50           1611           5.00         2.00
  159.83        2978.75           1615           7.00         8.28
  159.85        2979.00           1618           6.00         3.92
  159.88        2979.25           1621           3.00         2.00
  159.91        2979.50           1625           6.00         3.92
  159.94        2979.75           1628           4.00         2.00
  159.96        2980.00           1631           9.00        17.00
  159.99        2980.25           1635           8.00        12.64
  160.02        2980.50           1638           8.00        12.64
  160.04        2980.75           1641           7.00         8.28
  160.07        2981.00           1645           4.00         2.00
  160.10        2981.25           1648           3.00         2.00
  160.13        2981.50           1651           4.00         2.00
  160.15        2981.75           1655           8.00        12.64
  160.18        2982.00           1658           7.00         8.28
  160.21        2982.25           1661           1.00         2.00
  160.23        2982.50           1665           8.00        12.64
  160.26        2982.75           1668           6.00         3.92
  160.29        2983.00           1671           7.00         8.28
  160.32        2983.25           1675           3.00         2.00
  160.34        2983.50           1678           7.00         8.28
  160.37        2983.75           1681           4.00         2.00
  160.40        2984.00           1685           3.00         2.00
HS scan finished at 02:40:35
end
