************************************************************
  HS Scan of (1) Internal mercury lamp
************************************************************
Integration time is 0.2294 seconds per sample
dh190617Tamanrasset 22.79-5.529 3.317413pr865
************************************************************
Dead Time -------------------------  2.8E-08 
Number of Cycles Used -------------  4 
Starting Wavelength (Angstroms) ---  2950 
Final Wavelength (Angstoms) -------  2984 
Wavelength Increment (Angstroms) --  .25 
Filter Wheel #1 Position ---------- (1) Ground quartz diffuser (ND=2.32)
Filter Wheel #2 Position ---------- (1) Neutral Density 0.494



************************************************************
HS scan start time = 02:35:21
Dark Count =  6.6 


Time (GMT)  Wavelength (Ang)  Step Number  Raw Counts  Counts/Second

  155.70        2950.00           1233           9.00        10.46
  155.76        2950.25           1236           3.00         2.00
  155.79        2950.50           1239           1.00         2.00
  155.82        2950.75           1242           6.00         2.00
  155.85        2951.00           1246           5.00         2.00
  155.87        2951.25           1249           5.00         2.00
  155.90        2951.50           1252           7.00         2.00
  155.93        2951.75           1256           7.00         2.00
  155.95        2952.00           1259           7.00         2.00
  155.98        2952.25           1262           5.00         2.00
  156.01        2952.50           1266           6.00         2.00
  156.03        2952.75           1269           5.00         2.00
  156.06        2953.00           1272           6.00         2.00
  156.09        2953.25           1276           4.00         2.00
  156.12        2953.50           1279           6.00         2.00
  156.14        2953.75           1282           5.00         2.00
  156.17        2954.00           1286           6.00         2.00
  156.20        2954.25           1289           6.00         2.00
  156.22        2954.50           1292           5.00         2.00
  156.25        2954.75           1295           6.00         2.00
  156.28        2955.00           1299           8.00         6.10
  156.31        2955.25           1302           4.00         2.00
  156.33        2955.50           1305           6.00         2.00
  156.36        2955.75           1309           9.00        10.46
  156.39        2956.00           1312           7.00         2.00
  156.41        2956.25           1315           7.00         2.00
  156.44        2956.50           1319           8.00         6.10
  156.47        2956.75           1322           3.00         2.00
  156.50        2957.00           1325           5.00         2.00
  156.52        2957.25           1329           7.00         2.00
  156.55        2957.50           1332           7.00         2.00
  156.58        2957.75           1335           4.00         2.00
  156.60        2958.00           1339           5.00         2.00
  156.63        2958.25           1342           0.00         2.00
  156.66        2958.50           1345           7.00         2.00
  156.69        2958.75           1348           8.00         6.10
  156.71        2959.00           1352           7.00         2.00
  156.74        2959.25           1355           5.00         2.00
  156.77        2959.50           1358           7.00         2.00
  156.79        2959.75           1362           5.00         2.00
  156.82        2960.00           1365           7.00         2.00
  156.85        2960.25           1368           9.00        10.46
  156.88        2960.50           1372           6.00         2.00
  156.90        2960.75           1375           5.00         2.00
  156.93        2961.00           1378           8.00         6.10
  156.96        2961.25           1382           6.00         2.00
  156.99        2961.50           1385           2.00         2.00
  157.01        2961.75           1388           5.00         2.00
  157.04        2962.00           1392           6.00         2.00
  157.07        2962.25           1395           7.00         2.00
  157.09        2962.50           1398           4.00         2.00
  157.12        2962.75           1402           6.00         2.00
  157.15        2963.00           1405           5.00         2.00
  157.18        2963.25           1408           7.00         2.00
  157.20        2963.50           1412           9.00        10.46
  157.23        2963.75           1415           4.00         2.00
  157.26        2964.00           1418           8.00         6.10
  157.28        2964.25           1422           7.00         2.00
  157.31        2964.50           1425           7.00         2.00
  157.34        2964.75           1428           7.00         2.00
  157.37        2965.00           1431           3.00         2.00
  157.39        2965.25           1435           6.00         2.00
  157.42        2965.50           1438           6.00         2.00
  157.45        2965.75           1441           7.00         2.00
  157.47        2966.00           1445           2.00         2.00
  157.50        2966.25           1448           6.00         2.00
  157.53        2966.50           1451           5.00         2.00
  157.56        2966.75           1455           4.00         2.00
  157.58        2967.00           1458           9.00        10.46
  157.61        2967.25           1461           4.00         2.00
  157.64        2967.50           1465           6.00         2.00
  157.66        2967.75           1468           5.00         2.00
  157.69        2968.00           1471           6.00         2.00
  157.72        2968.25           1475           5.00         2.00
  157.75        2968.50           1478           4.00         2.00
  157.77        2968.75           1481           4.00         2.00
  157.80        2969.00           1485           7.00         2.00
  157.83        2969.25           1488           4.00         2.00
  157.85        2969.50           1491           4.00         2.00
  157.88        2969.75           1495           7.00         2.00
  157.91        2970.00           1498           9.00        10.46
  157.93        2970.25           1501           6.00         2.00
  157.96        2970.50           1505           6.00         2.00
  157.99        2970.75           1508           4.00         2.00
  158.02        2971.00           1511           5.00         2.00
  158.04        2971.25           1515           7.00         2.00
  158.07        2971.50           1518           9.00        10.46
  158.10        2971.75           1521           8.00         6.10
  158.12        2972.00           1525           7.00         2.00
  158.15        2972.25           1528           5.00         2.00
  158.18        2972.50           1531           6.00         2.00
  158.21        2972.75           1535           5.00         2.00
  158.23        2973.00           1538           6.00         2.00
  158.26        2973.25           1541           7.00         2.00
  158.29        2973.50           1545           4.00         2.00
  158.31        2973.75           1548           8.00         6.10
  158.34        2974.00           1551           6.00         2.00
  158.37        2974.25           1555           2.00         2.00
  158.40        2974.50           1558           8.00         6.10
  158.42        2974.75           1561           5.00         2.00
  158.45        2975.00           1565           4.00         2.00
  158.48        2975.25           1568           6.00         2.00
  158.50        2975.50           1571           4.00         2.00
  158.53        2975.75           1575           3.00         2.00
  158.56        2976.00           1578           5.00         2.00
  158.59        2976.25           1581           4.00         2.00
  158.61        2976.50           1585           3.00         2.00
  158.64        2976.75           1588           3.00         2.00
  158.67        2977.00           1591           4.00         2.00
  158.69        2977.25           1595           7.00         2.00
  158.72        2977.50           1598           4.00         2.00
  158.75        2977.75           1601           7.00         2.00
  158.78        2978.00           1605           3.00         2.00
  158.80        2978.25           1608           5.00         2.00
  158.83        2978.50           1611           9.00        10.46
  158.86        2978.75           1615           3.00         2.00
  158.88        2979.00           1618           7.00         2.00
  158.91        2979.25           1621           4.00         2.00
  158.94        2979.50           1625           4.00         2.00
  158.97        2979.75           1628           3.00         2.00
  158.99        2980.00           1631           8.00         6.10
  159.02        2980.25           1635           5.00         2.00
  159.05        2980.50           1638           8.00         6.10
  159.07        2980.75           1641           5.00         2.00
  159.10        2981.00           1645           8.00         6.10
  159.13        2981.25           1648           9.00        10.46
  159.16        2981.50           1651           7.00         2.00
  159.18        2981.75           1655           4.00         2.00
  159.21        2982.00           1658           8.00         6.10
  159.24        2982.25           1661           7.00         2.00
  159.26        2982.50           1665           5.00         2.00
  159.29        2982.75           1668           5.00         2.00
  159.32        2983.00           1671           7.00         2.00
  159.34        2983.25           1675           6.00         2.00
  159.37        2983.50           1678           4.00         2.00
  159.40        2983.75           1681           2.00         2.00
  159.43        2984.00           1685           7.00         2.00
HS scan finished at 02:39:37
end
