************************************************************
  HS Scan of (1) Internal mercury lamp
************************************************************
Integration time is 0.2294 seconds per sample
dh260617Tamanrasset 22.79-5.529 3.103284pr865
************************************************************
Dead Time -------------------------  2.8E-08 
Number of Cycles Used -------------  4 
Starting Wavelength (Angstroms) ---  2950 
Final Wavelength (Angstoms) -------  2984 
Wavelength Increment (Angstroms) --  .25 
Filter Wheel #1 Position ---------- (1) Ground quartz diffuser (ND=2.32)
Filter Wheel #2 Position ---------- (1) Neutral Density 0.494



************************************************************
HS scan start time = 02:37:18
Dark Count =  3.3 


Time (GMT)  Wavelength (Ang)  Step Number  Raw Counts  Counts/Second

  157.65        2950.00           1233           9.00        24.85
  157.71        2950.25           1236           6.00        11.77
  157.74        2950.50           1239           4.00         3.05
  157.77        2950.75           1242           4.00         3.05
  157.79        2951.00           1246           4.00         3.05
  157.82        2951.25           1249           5.00         7.41
  157.85        2951.50           1252           7.00        16.13
  157.88        2951.75           1256           4.00         3.05
  157.90        2952.00           1259           3.00         2.00
  157.93        2952.25           1262           2.00         2.00
  157.96        2952.50           1266           6.00        11.77
  157.98        2952.75           1269           2.00         2.00
  158.01        2953.00           1272           8.00        20.49
  158.04        2953.25           1276           7.00        16.13
  158.06        2953.50           1279           3.00         2.00
  158.09        2953.75           1282           6.00        11.77
  158.12        2954.00           1286           1.00         2.00
  158.15        2954.25           1289           2.00         2.00
  158.17        2954.50           1292           3.00         2.00
  158.20        2954.75           1295           6.00        11.77
  158.23        2955.00           1299           2.00         2.00
  158.25        2955.25           1302           6.00        11.77
  158.28        2955.50           1305           4.00         3.05
  158.31        2955.75           1309           4.00         3.05
  158.34        2956.00           1312           6.00        11.77
  158.36        2956.25           1315           1.00         2.00
  158.39        2956.50           1319           7.00        16.13
  158.42        2956.75           1322           6.00        11.77
  158.44        2957.00           1325           0.00         2.00
  158.47        2957.25           1329           3.00         2.00
  158.50        2957.50           1332           8.00        20.49
  158.53        2957.75           1335           4.00         3.05
  158.55        2958.00           1339           2.00         2.00
  158.58        2958.25           1342           5.00         7.41
  158.61        2958.50           1345           6.00        11.77
  158.63        2958.75           1348           7.00        16.13
  158.66        2959.00           1352           0.00         2.00
  158.69        2959.25           1355           4.00         3.05
  158.72        2959.50           1358           7.00        16.13
  158.74        2959.75           1362           6.00        11.77
  158.77        2960.00           1365           7.00        16.13
  158.80        2960.25           1368           7.00        16.13
  158.82        2960.50           1372           4.00         3.05
  158.85        2960.75           1375           3.00         2.00
  158.88        2961.00           1378           8.00        20.49
  158.91        2961.25           1382           7.00        16.13
  158.93        2961.50           1385           1.00         2.00
  158.96        2961.75           1388           4.00         3.05
  158.99        2962.00           1392           3.00         2.00
  159.01        2962.25           1395           6.00        11.77
  159.04        2962.50           1398           8.00        20.49
  159.07        2962.75           1402           3.00         2.00
  159.10        2963.00           1405           5.00         7.41
  159.12        2963.25           1408           8.00        20.49
  159.15        2963.50           1412           7.00        16.13
  159.18        2963.75           1415           3.00         2.00
  159.20        2964.00           1418           7.00        16.13
  159.23        2964.25           1422           3.00         2.00
  159.26        2964.50           1425           2.00         2.00
  159.28        2964.75           1428           2.00         2.00
  159.31        2965.00           1431           4.00         3.05
  159.34        2965.25           1435           4.00         3.05
  159.37        2965.50           1438           5.00         7.41
  159.39        2965.75           1441           7.00        16.13
  159.42        2966.00           1445           6.00        11.77
  159.45        2966.25           1448           6.00        11.77
  159.47        2966.50           1451           4.00         3.05
  159.50        2966.75           1455           5.00         7.41
  159.53        2967.00           1458           4.00         3.05
  159.56        2967.25           1461           7.00        16.13
  159.58        2967.50           1465           7.00        16.13
  159.61        2967.75           1468           7.00        16.13
  159.64        2968.00           1471           6.00        11.77
  159.66        2968.25           1475           6.00        11.77
  159.69        2968.50           1478           8.00        20.49
  159.72        2968.75           1481           8.00        20.49
  159.75        2969.00           1485           4.00         3.05
  159.77        2969.25           1488           3.00         2.00
  159.80        2969.50           1491           2.00         2.00
  159.83        2969.75           1495           1.00         2.00
  159.85        2970.00           1498           0.00         2.00
  159.88        2970.25           1501           1.00         2.00
  159.91        2970.50           1505           0.00         2.00
  159.94        2970.75           1508           5.00         7.41
  159.96        2971.00           1511           8.00        20.49
  159.99        2971.25           1515           3.00         2.00
  160.02        2971.50           1518           3.00         2.00
  160.04        2971.75           1521           8.00        20.49
  160.07        2972.00           1525           5.00         7.41
  160.10        2972.25           1528           5.00         7.41
  160.13        2972.50           1531           7.00        16.13
  160.15        2972.75           1535           3.00         2.00
  160.18        2973.00           1538           7.00        16.13
  160.21        2973.25           1541           5.00         7.41
  160.23        2973.50           1545           5.00         7.41
  160.26        2973.75           1548           8.00        20.49
  160.29        2974.00           1551           5.00         7.41
  160.32        2974.25           1555           7.00        16.13
  160.34        2974.50           1558           1.00         2.00
  160.37        2974.75           1561           6.00        11.77
  160.40        2975.00           1565           6.00        11.77
  160.42        2975.25           1568           8.00        20.49
  160.45        2975.50           1571           5.00         7.41
  160.48        2975.75           1575           5.00         7.41
  160.50        2976.00           1578           3.00         2.00
  160.53        2976.25           1581           6.00        11.77
  160.56        2976.50           1585           7.00        16.13
  160.59        2976.75           1588           7.00        16.13
  160.61        2977.00           1591           4.00         3.05
  160.64        2977.25           1595           8.00        20.49
  160.67        2977.50           1598           5.00         7.41
  160.69        2977.75           1601           0.00         2.00
  160.72        2978.00           1605           8.00        20.49
  160.75        2978.25           1608           5.00         7.41
  160.78        2978.50           1611           6.00        11.77
  160.80        2978.75           1615           8.00        20.49
  160.83        2979.00           1618           4.00         3.05
  160.86        2979.25           1621           4.00         3.05
  160.88        2979.50           1625           7.00        16.13
  160.91        2979.75           1628           8.00        20.49
  160.94        2980.00           1631           7.00        16.13
  160.96        2980.25           1635           4.00         3.05
  160.99        2980.50           1638           4.00         3.05
  161.02        2980.75           1641           4.00         3.05
  161.05        2981.00           1645           4.00         3.05
  161.07        2981.25           1648           5.00         7.41
  161.10        2981.50           1651           6.00        11.77
  161.13        2981.75           1655           5.00         7.41
  161.15        2982.00           1658           4.00         3.05
  161.18        2982.25           1661           4.00         3.05
  161.21        2982.50           1665           7.00        16.13
  161.24        2982.75           1668           5.00         7.41
  161.26        2983.00           1671           7.00        16.13
  161.29        2983.25           1675           8.00        20.49
  161.32        2983.50           1678           6.00        11.77
  161.34        2983.75           1681           6.00        11.77
  161.37        2984.00           1685           2.00         2.00
HS scan finished at 02:41:33
end
