************************************************************
  HS Scan of (1) Internal mercury lamp
************************************************************
Integration time is 0.2294 seconds per sample
dh250617Tamanrasset 22.79-5.529 3.133873pr865
************************************************************
Dead Time -------------------------  2.8E-08 
Number of Cycles Used -------------  4 
Starting Wavelength (Angstroms) ---  2950 
Final Wavelength (Angstoms) -------  2984 
Wavelength Increment (Angstroms) --  .25 
Filter Wheel #1 Position ---------- (1) Ground quartz diffuser (ND=2.32)
Filter Wheel #2 Position ---------- (1) Neutral Density 0.494



************************************************************
HS scan start time = 02:36:19
Dark Count =  5.4 


Time (GMT)  Wavelength (Ang)  Step Number  Raw Counts  Counts/Second

  156.67        2950.00           1233           8.00        11.33
  156.73        2950.25           1236           8.00        11.33
  156.76        2950.50           1239           6.00         2.62
  156.78        2950.75           1242           8.00        11.33
  156.81        2951.00           1246           1.00         2.00
  156.84        2951.25           1249           8.00        11.33
  156.87        2951.50           1252           7.00         6.97
  156.89        2951.75           1256           4.00         2.00
  156.92        2952.00           1259           3.00         2.00
  156.95        2952.25           1262           8.00        11.33
  156.97        2952.50           1266           2.00         2.00
  157.00        2952.75           1269           5.00         2.00
  157.03        2953.00           1272           8.00        11.33
  157.06        2953.25           1276           4.00         2.00
  157.08        2953.50           1279           2.00         2.00
  157.11        2953.75           1282           6.00         2.62
  157.14        2954.00           1286           7.00         6.97
  157.16        2954.25           1289           5.00         2.00
  157.19        2954.50           1292           5.00         2.00
  157.22        2954.75           1295           5.00         2.00
  157.25        2955.00           1299           5.00         2.00
  157.27        2955.25           1302           7.00         6.97
  157.30        2955.50           1305           4.00         2.00
  157.33        2955.75           1309           3.00         2.00
  157.35        2956.00           1312           6.00         2.62
  157.38        2956.25           1315           6.00         2.62
  157.41        2956.50           1319           2.00         2.00
  157.44        2956.75           1322           6.00         2.62
  157.46        2957.00           1325           8.00        11.33
  157.49        2957.25           1329           7.00         6.97
  157.52        2957.50           1332           5.00         2.00
  157.54        2957.75           1335           1.00         2.00
  157.57        2958.00           1339           5.00         2.00
  157.60        2958.25           1342           8.00        11.33
  157.62        2958.50           1345           2.00         2.00
  157.65        2958.75           1348           6.00         2.62
  157.68        2959.00           1352           6.00         2.62
  157.71        2959.25           1355           6.00         2.62
  157.73        2959.50           1358           4.00         2.00
  157.76        2959.75           1362           6.00         2.62
  157.79        2960.00           1365           8.00        11.33
  157.82        2960.25           1368           2.00         2.00
  157.84        2960.50           1372           4.00         2.00
  157.87        2960.75           1375           4.00         2.00
  157.90        2961.00           1378           1.00         2.00
  157.92        2961.25           1382           5.00         2.00
  157.95        2961.50           1385           7.00         6.97
  157.98        2961.75           1388           3.00         2.00
  158.01        2962.00           1392           5.00         2.00
  158.03        2962.25           1395           6.00         2.62
  158.06        2962.50           1398           6.00         2.62
  158.09        2962.75           1402           8.00        11.33
  158.11        2963.00           1405           8.00        11.33
  158.14        2963.25           1408           8.00        11.33
  158.17        2963.50           1412           0.00         2.00
  158.19        2963.75           1415           6.00         2.62
  158.22        2964.00           1418           3.00         2.00
  158.25        2964.25           1422           5.00         2.00
  158.28        2964.50           1425           6.00         2.62
  158.30        2964.75           1428           9.00        15.69
  158.33        2965.00           1431           4.00         2.00
  158.36        2965.25           1435           4.00         2.00
  158.38        2965.50           1438           4.00         2.00
  158.41        2965.75           1441           1.00         2.00
  158.44        2966.00           1445           7.00         6.97
  158.47        2966.25           1448           3.00         2.00
  158.49        2966.50           1451           6.00         2.62
  158.52        2966.75           1455           4.00         2.00
  158.55        2967.00           1458           4.00         2.00
  158.57        2967.25           1461           5.00         2.00
  158.60        2967.50           1465           5.00         2.00
  158.63        2967.75           1468           5.00         2.00
  158.66        2968.00           1471           6.00         2.62
  158.68        2968.25           1475           4.00         2.00
  158.71        2968.50           1478           8.00        11.33
  158.74        2968.75           1481           8.00        11.33
  158.76        2969.00           1485           5.00         2.00
  158.79        2969.25           1488           4.00         2.00
  158.82        2969.50           1491           6.00         2.62
  158.85        2969.75           1495           4.00         2.00
  158.87        2970.00           1498           7.00         6.97
  158.90        2970.25           1501           5.00         2.00
  158.93        2970.50           1505           2.00         2.00
  158.95        2970.75           1508           2.00         2.00
  158.98        2971.00           1511           3.00         2.00
  159.01        2971.25           1515           7.00         6.97
  159.04        2971.50           1518           5.00         2.00
  159.06        2971.75           1521           5.00         2.00
  159.09        2972.00           1525           7.00         6.97
  159.12        2972.25           1528           1.00         2.00
  159.14        2972.50           1531           5.00         2.00
  159.17        2972.75           1535           0.00         2.00
  159.20        2973.00           1538           5.00         2.00
  159.23        2973.25           1541           5.00         2.00
  159.25        2973.50           1545           8.00        11.33
  159.28        2973.75           1548           7.00         6.97
  159.31        2974.00           1551           6.00         2.62
  159.33        2974.25           1555           6.00         2.62
  159.36        2974.50           1558           0.00         2.00
  159.39        2974.75           1561           6.00         2.62
  159.41        2975.00           1565           8.00        11.33
  159.44        2975.25           1568           9.00        15.69
  159.47        2975.50           1571           5.00         2.00
  159.50        2975.75           1575           6.00         2.62
  159.52        2976.00           1578           5.00         2.00
  159.55        2976.25           1581           3.00         2.00
  159.58        2976.50           1585           4.00         2.00
  159.61        2976.75           1588           7.00         6.97
  159.63        2977.00           1591           1.00         2.00
  159.66        2977.25           1595           5.00         2.00
  159.69        2977.50           1598           6.00         2.62
  159.71        2977.75           1601           5.00         2.00
  159.74        2978.00           1605           7.00         6.97
  159.77        2978.25           1608           4.00         2.00
  159.79        2978.50           1611           0.00         2.00
  159.82        2978.75           1615           7.00         6.97
  159.85        2979.00           1618           3.00         2.00
  159.88        2979.25           1621           4.00         2.00
  159.90        2979.50           1625           3.00         2.00
  159.93        2979.75           1628           2.00         2.00
  159.96        2980.00           1631           8.00        11.33
  159.98        2980.25           1635           1.00         2.00
  160.01        2980.50           1638           2.00         2.00
  160.04        2980.75           1641           0.00         2.00
  160.07        2981.00           1645           7.00         6.97
  160.09        2981.25           1648           4.00         2.00
  160.12        2981.50           1651           8.00        11.33
  160.15        2981.75           1655           3.00         2.00
  160.17        2982.00           1658           3.00         2.00
  160.20        2982.25           1661           8.00        11.33
  160.23        2982.50           1665           8.00        11.33
  160.26        2982.75           1668           6.00         2.62
  160.28        2983.00           1671           2.00         2.00
  160.31        2983.25           1675           5.00         2.00
  160.34        2983.50           1678           2.00         2.00
  160.36        2983.75           1681           3.00         2.00
  160.39        2984.00           1685           6.00         2.62
HS scan finished at 02:40:35
end
