************************************************************
  HS Scan of (1) Internal mercury lamp
************************************************************
Integration time is 0.2294 seconds per sample
dh080717Tamanrasset 22.79-5.529 3.577427pr865
************************************************************
Dead Time -------------------------  2.8E-08 
Number of Cycles Used -------------  4 
Starting Wavelength (Angstroms) ---  2950 
Final Wavelength (Angstoms) -------  2984 
Wavelength Increment (Angstroms) --  .25 
Filter Wheel #1 Position ---------- (1) Ground quartz diffuser (ND=2.32)
Filter Wheel #2 Position ---------- (1) Neutral Density 0.494



************************************************************
HS scan start time = 03:09:19
Dark Count =  7.4 


Time (GMT)  Wavelength (Ang)  Step Number  Raw Counts  Counts/Second

  189.67        2950.00           1233          22.00        63.64
  189.74        2950.25           1236          24.00        72.36
  189.77        2950.50           1239          21.00        59.29
  189.79        2950.75           1242          21.00        59.29
  189.82        2951.00           1246          19.00        50.57
  189.85        2951.25           1249          15.00        33.13
  189.87        2951.50           1252          22.00        63.64
  189.90        2951.75           1256          18.00        46.21
  189.93        2952.00           1259          19.00        50.57
  189.96        2952.25           1262          21.00        59.29
  189.98        2952.50           1266          20.00        54.93
  190.01        2952.75           1269          21.00        59.29
  190.04        2953.00           1272          24.00        72.36
  190.07        2953.25           1276          20.00        54.93
  190.09        2953.50           1279          18.00        46.21
  190.12        2953.75           1282          21.00        59.29
  190.15        2954.00           1286          21.00        59.29
  190.17        2954.25           1289          23.00        68.00
  190.20        2954.50           1292          26.00        81.08
  190.23        2954.75           1295          20.00        54.93
  190.26        2955.00           1299          25.00        76.72
  190.28        2955.25           1302          20.00        54.93
  190.31        2955.50           1305          18.00        46.21
  190.34        2955.75           1309          23.00        68.00
  190.37        2956.00           1312          24.00        72.36
  190.39        2956.25           1315          20.00        54.93
  190.42        2956.50           1319          23.00        68.00
  190.45        2956.75           1322          20.00        54.93
  190.47        2957.00           1325          22.00        63.64
  190.50        2957.25           1329          20.00        54.93
  190.53        2957.50           1332          19.00        50.57
  190.56        2957.75           1335          20.00        54.93
  190.58        2958.00           1339          23.00        68.00
  190.61        2958.25           1342          21.00        59.29
  190.64        2958.50           1345          16.00        37.49
  190.67        2958.75           1348          24.00        72.36
  190.69        2959.00           1352          24.00        72.36
  190.72        2959.25           1355          23.00        68.00
  190.75        2959.50           1358          26.00        81.08
  190.78        2959.75           1362          23.00        68.00
  190.80        2960.00           1365          20.00        54.93
  190.83        2960.25           1368          30.00        98.52
  190.86        2960.50           1372          39.00       137.75
  190.88        2960.75           1375          48.00       176.98
  190.91        2961.00           1378         154.00       639.07
  190.94        2961.25           1382         691.00      2980.20
  190.97        2961.50           1385        1683.00      7305.77
  190.99        2961.75           1388        3463.00     15070.00
  191.02        2962.00           1392        6862.00     29905.59
  191.05        2962.25           1395        9842.00     42922.53
  191.08        2962.50           1398       12977.00     56626.77
  191.10        2962.75           1402       17360.00     75804.15
  191.13        2963.00           1405       20568.00     89853.50
  191.16        2963.25           1408       24060.00    105159.20
  191.19        2963.50           1412       28222.00    123418.80
  191.21        2963.75           1415       31359.00    137193.80
  191.24        2964.00           1418       34693.00    151845.60
  191.27        2964.25           1422       39073.00    171112.60
  191.30        2964.50           1425       41888.00    183506.30
  191.32        2964.75           1428       45269.00    198403.40
  191.35        2965.00           1431       48705.00    213555.60
  191.38        2965.25           1435       53008.00    232549.50
  191.41        2965.50           1438       56418.00    247615.80
  191.43        2965.75           1441       59885.00    262947.20
  191.46        2966.00           1445       63969.00    281023.90
  191.49        2966.25           1448       66607.00    292710.10
  191.52        2966.50           1451       68765.00    302275.60
  191.54        2966.75           1455       70702.00    310865.90
  191.57        2967.00           1458       71332.00    313660.70
  191.60        2967.25           1461       71423.00    314064.50
  191.63        2967.50           1465       71275.00    313407.80
  191.65        2967.75           1468       70892.00    311708.70
  191.68        2968.00           1471       69526.00    305650.00
  191.71        2968.25           1475       66297.00    291336.40
  191.74        2968.50           1478       63503.00    278960.40
  191.76        2968.75           1481       60160.00    264163.80
  191.79        2969.00           1485       56009.00    245808.10
  191.82        2969.25           1488       52065.00    228385.20
  191.85        2969.50           1491       48783.00    213899.80
  191.87        2969.75           1495       44269.00    193996.00
  191.90        2970.00           1498       40771.00    178587.40
  191.93        2970.25           1501       37453.00    163984.00
  191.95        2970.50           1505       32928.00    144087.60
  191.98        2970.75           1508       29515.00    129095.30
  192.01        2971.00           1511       26324.00    115089.60
  192.04        2971.25           1515       21840.00     95427.27
  192.06        2971.50           1518       18787.00     82052.29
  192.09        2971.75           1521       15589.00     68052.84
  192.12        2972.00           1525       11142.00     48604.03
  192.15        2972.25           1528        7956.00     34683.19
  192.17        2972.50           1531        5226.00     22763.42
  192.20        2972.75           1535        2255.00      9800.42
  192.23        2973.00           1538         823.00      3555.72
  192.26        2973.25           1541         233.00       983.46
  192.28        2973.50           1545          57.00       216.22
  192.31        2973.75           1548          46.00       168.27
  192.34        2974.00           1551          38.00       133.39
  192.37        2974.25           1555          34.00       115.96
  192.39        2974.50           1558          25.00        76.72
  192.42        2974.75           1561          24.00        72.36
  192.45        2975.00           1565          30.00        98.52
  192.47        2975.25           1568          25.00        76.72
  192.50        2975.50           1571          22.00        63.64
  192.53        2975.75           1575          30.00        98.52
  192.56        2976.00           1578          25.00        76.72
  192.58        2976.25           1581          28.00        89.80
  192.61        2976.50           1585          27.00        85.44
  192.64        2976.75           1588          26.00        81.08
  192.67        2977.00           1591          23.00        68.00
  192.69        2977.25           1595          25.00        76.72
  192.72        2977.50           1598          25.00        76.72
  192.75        2977.75           1601          25.00        76.72
  192.78        2978.00           1605          22.00        63.64
  192.80        2978.25           1608          24.00        72.36
  192.83        2978.50           1611          24.00        72.36
  192.86        2978.75           1615          27.00        85.44
  192.89        2979.00           1618          24.00        72.36
  192.91        2979.25           1621          20.00        54.93
  192.94        2979.50           1625          25.00        76.72
  192.97        2979.75           1628          22.00        63.64
  192.99        2980.00           1631          23.00        68.00
  193.02        2980.25           1635          22.00        63.64
  193.05        2980.50           1638          26.00        81.08
  193.08        2980.75           1641          27.00        85.44
  193.10        2981.00           1645          19.00        50.57
  193.13        2981.25           1648          27.00        85.44
  193.16        2981.50           1651          26.00        81.08
  193.18        2981.75           1655          20.00        54.93
  193.21        2982.00           1658          20.00        54.93
  193.24        2982.25           1661          21.00        59.29
  193.27        2982.50           1665          26.00        81.08
  193.29        2982.75           1668          27.00        85.44
  193.32        2983.00           1671          21.00        59.29
  193.35        2983.25           1675          23.00        68.00
  193.38        2983.50           1678          20.00        54.93
  193.40        2983.75           1681          20.00        54.93
  193.43        2984.00           1685          18.00        46.21
HS scan finished at 03:13:37
end
