************************************************************
  HS Scan of (1) Internal mercury lamp
************************************************************
Integration time is 0.2294 seconds per sample
dh250717Tamanrasset 22.79-5.529 3.184857pr865
************************************************************
Dead Time -------------------------  2.8E-08 
Number of Cycles Used -------------  4 
Starting Wavelength (Angstroms) ---  2950 
Final Wavelength (Angstoms) -------  2984 
Wavelength Increment (Angstroms) --  .25 
Filter Wheel #1 Position ---------- (1) Ground quartz diffuser (ND=2.32)
Filter Wheel #2 Position ---------- (1) Neutral Density 0.494



************************************************************
HS scan start time = 03:17:16
Dark Count =  5.8 


Time (GMT)  Wavelength (Ang)  Step Number  Raw Counts  Counts/Second

  197.62        2950.00           1233          18.00        53.18
  197.69        2950.25           1236          15.00        40.10
  197.71        2950.50           1239          23.00        74.98
  197.74        2950.75           1242          21.00        66.26
  197.77        2951.00           1246          26.00        88.06
  197.80        2951.25           1249          21.00        66.26
  197.82        2951.50           1252          18.00        53.18
  197.85        2951.75           1256          21.00        66.26
  197.88        2952.00           1259          19.00        57.54
  197.90        2952.25           1262          16.00        44.46
  197.93        2952.50           1266          22.00        70.62
  197.96        2952.75           1269          21.00        66.26
  197.98        2953.00           1272          18.00        53.18
  198.01        2953.25           1276          20.00        61.90
  198.04        2953.50           1279          19.00        57.54
  198.07        2953.75           1282          17.00        48.82
  198.09        2954.00           1286          20.00        61.90
  198.12        2954.25           1289          17.00        48.82
  198.15        2954.50           1292          19.00        57.54
  198.18        2954.75           1295          21.00        66.26
  198.20        2955.00           1299          20.00        61.90
  198.23        2955.25           1302          21.00        66.26
  198.26        2955.50           1305          26.00        88.06
  198.28        2955.75           1309          21.00        66.26
  198.31        2956.00           1312          24.00        79.34
  198.34        2956.25           1315          20.00        61.90
  198.37        2956.50           1319          21.00        66.26
  198.39        2956.75           1322          24.00        79.34
  198.42        2957.00           1325          23.00        74.98
  198.45        2957.25           1329          22.00        70.62
  198.47        2957.50           1332          17.00        48.82
  198.50        2957.75           1335          18.00        53.18
  198.53        2958.00           1339          21.00        66.26
  198.56        2958.25           1342          23.00        74.98
  198.58        2958.50           1345          19.00        57.54
  198.61        2958.75           1348          18.00        53.18
  198.64        2959.00           1352          18.00        53.18
  198.67        2959.25           1355          22.00        70.62
  198.69        2959.50           1358          22.00        70.62
  198.72        2959.75           1362          25.00        83.70
  198.75        2960.00           1365          27.00        92.42
  198.77        2960.25           1368          26.00        88.06
  198.80        2960.50           1372          32.00       114.21
  198.83        2960.75           1375          53.00       205.76
  198.86        2961.00           1378         145.00       606.81
  198.88        2961.25           1382         674.00      2913.05
  198.91        2961.50           1385        1577.00      6850.49
  198.94        2961.75           1388        3063.00     13331.92
  198.96        2962.00           1392        5932.00     25852.19
  198.99        2962.25           1395        8825.00     38486.10
  199.02        2962.50           1398       11817.00     51561.75
  199.05        2962.75           1402       15657.00     68357.40
  199.07        2963.00           1405       18406.00     80390.87
  199.10        2963.25           1408       21288.00     93015.26
  199.13        2963.50           1412       25362.00    110876.40
  199.16        2963.75           1415       28249.00    123544.30
  199.18        2964.00           1418       31189.00    136454.10
  199.21        2964.25           1422       34797.00    152309.90
  199.24        2964.50           1425       37739.00    165249.30
  199.27        2964.75           1428       40747.00    178488.80
  199.29        2965.00           1431       43861.00    192205.10
  199.32        2965.25           1435       48020.00    210540.90
  199.35        2965.50           1438       50891.00    223209.40
  199.37        2965.75           1441       54048.00    237150.20
  199.40        2966.00           1445       57851.00    253958.10
  199.43        2966.25           1448       60326.00    264905.30
  199.46        2966.50           1451       62101.00    272760.50
  199.48        2966.75           1455       63443.00    278701.80
  199.51        2967.00           1458       63986.00    281106.30
  199.54        2967.25           1461       64376.00    282833.50
  199.57        2967.50           1465       64073.00    281491.50
  199.59        2967.75           1468       63155.00    277426.60
  199.62        2968.00           1471       61881.00    271786.70
  199.65        2968.25           1475       59374.00    260693.70
  199.68        2968.50           1478       56712.00    248922.50
  199.70        2968.75           1481       53764.00    235895.60
  199.73        2969.00           1485       49456.00    216876.20
  199.76        2969.25           1488       46407.00    203427.50
  199.78        2969.50           1491       43459.00    190433.80
  199.81        2969.75           1495       39214.00    171740.20
  199.84        2970.00           1498       36072.00    157916.40
  199.87        2970.25           1501       33475.00    146498.60
  199.89        2970.50           1505       29071.00    127152.90
  199.92        2970.75           1508       26229.00    114679.80
  199.95        2971.00           1511       23183.00    101321.00
  199.98        2971.25           1515       19504.00     85199.52
  200.00        2971.50           1518       16439.00     71779.70
  200.03        2971.75           1521       13680.00     59708.29
  200.06        2972.00           1525        9674.00     42195.42
  200.09        2972.25           1528        6886.00     30017.37
  200.11        2972.50           1531        4306.00     18755.27
  200.14        2972.75           1535        1792.00      7788.10
  200.17        2973.00           1538         683.00      2952.29
  200.19        2973.25           1541         204.00       864.01
  200.22        2973.50           1545          49.00       188.32
  200.25        2973.75           1548          38.00       140.37
  200.28        2974.00           1551          31.00       109.85
  200.30        2974.25           1555          25.00        83.70
  200.33        2974.50           1558          27.00        92.42
  200.36        2974.75           1561          19.00        57.54
  200.38        2975.00           1565          25.00        83.70
  200.41        2975.25           1568          21.00        66.26
  200.44        2975.50           1571          24.00        79.34
  200.47        2975.75           1575          24.00        79.34
  200.49        2976.00           1578          18.00        53.18
  200.52        2976.25           1581          20.00        61.90
  200.55        2976.50           1585          26.00        88.06
  200.58        2976.75           1588          19.00        57.54
  200.60        2977.00           1591          22.00        70.62
  200.63        2977.25           1595          21.00        66.26
  200.66        2977.50           1598          23.00        74.98
  200.68        2977.75           1601          21.00        66.26
  200.71        2978.00           1605          21.00        66.26
  200.74        2978.25           1608          22.00        70.62
  200.77        2978.50           1611          28.00        96.77
  200.79        2978.75           1615          17.00        48.82
  200.82        2979.00           1618          22.00        70.62
  200.85        2979.25           1621          20.00        61.90
  200.87        2979.50           1625          25.00        83.70
  200.90        2979.75           1628          24.00        79.34
  200.93        2980.00           1631          18.00        53.18
  200.96        2980.25           1635          21.00        66.26
  200.98        2980.50           1638          21.00        66.26
  201.01        2980.75           1641          24.00        79.34
  201.04        2981.00           1645          21.00        66.26
  201.06        2981.25           1648          19.00        57.54
  201.09        2981.50           1651          21.00        66.26
  201.12        2981.75           1655          26.00        88.06
  201.15        2982.00           1658          20.00        61.90
  201.17        2982.25           1661          20.00        61.90
  201.20        2982.50           1665          22.00        70.62
  201.23        2982.75           1668          16.00        44.46
  201.25        2983.00           1671          17.00        48.82
  201.28        2983.25           1675          20.00        61.90
  201.31        2983.50           1678          20.00        61.90
  201.34        2983.75           1681          23.00        74.98
  201.36        2984.00           1685          19.00        57.54
HS scan finished at 03:21:33
end
