************************************************************
  HS Scan of (1) Internal mercury lamp
************************************************************
Integration time is 0.2294 seconds per sample
dh020817Tamanrasset 22.79-5.529 3.587623pr865
************************************************************
Dead Time -------------------------  2.8E-08 
Number of Cycles Used -------------  4 
Starting Wavelength (Angstroms) ---  2950 
Final Wavelength (Angstoms) -------  2984 
Wavelength Increment (Angstroms) --  .25 
Filter Wheel #1 Position ---------- (1) Ground quartz diffuser (ND=2.32)
Filter Wheel #2 Position ---------- (1) Neutral Density 0.494



************************************************************
HS scan start time = 03:20:16
Dark Count =  8.399999 


Time (GMT)  Wavelength (Ang)  Step Number  Raw Counts  Counts/Second

  200.63        2950.00           1233          22.00        59.29
  200.69        2950.25           1236          22.00        59.29
  200.72        2950.50           1239          18.00        41.85
  200.75        2950.75           1242          23.00        63.64
  200.78        2951.00           1246          22.00        59.29
  200.80        2951.25           1249          18.00        41.85
  200.83        2951.50           1252          22.00        59.29
  200.86        2951.75           1256          18.00        41.85
  200.88        2952.00           1259          18.00        41.85
  200.91        2952.25           1262          21.00        54.93
  200.94        2952.50           1266          20.00        50.57
  200.96        2952.75           1269          28.00        85.44
  200.99        2953.00           1272          20.00        50.57
  201.02        2953.25           1276          19.00        46.21
  201.05        2953.50           1279          23.00        63.64
  201.07        2953.75           1282          20.00        50.57
  201.10        2954.00           1286          20.00        50.57
  201.13        2954.25           1289          16.00        33.13
  201.15        2954.50           1292          19.00        46.21
  201.18        2954.75           1295          19.00        46.21
  201.21        2955.00           1299          21.00        54.93
  201.24        2955.25           1302          24.00        68.00
  201.26        2955.50           1305          22.00        59.29
  201.29        2955.75           1309          17.00        37.49
  201.32        2956.00           1312          24.00        68.00
  201.34        2956.25           1315          18.00        41.85
  201.37        2956.50           1319          20.00        50.57
  201.40        2956.75           1322          23.00        63.64
  201.43        2957.00           1325          18.00        41.85
  201.45        2957.25           1329          24.00        68.00
  201.48        2957.50           1332          25.00        72.36
  201.51        2957.75           1335          18.00        41.85
  201.53        2958.00           1339          20.00        50.57
  201.56        2958.25           1342          21.00        54.93
  201.59        2958.50           1345          19.00        46.21
  201.62        2958.75           1348          20.00        50.57
  201.64        2959.00           1352          20.00        50.57
  201.67        2959.25           1355          24.00        68.00
  201.70        2959.50           1358          23.00        63.64
  201.73        2959.75           1362          34.00       111.60
  201.75        2960.00           1365          27.00        81.08
  201.78        2960.25           1368          31.00        98.52
  201.81        2960.50           1372          38.00       129.03
  201.84        2960.75           1375          51.00       185.70
  201.86        2961.00           1378         177.00       734.98
  201.89        2961.25           1382         836.00      3608.04
  201.92        2961.50           1385        1893.00      8217.23
  201.94        2961.75           1388        3659.00     15920.78
  201.97        2962.00           1392        7205.00     31399.00
  202.00        2962.25           1395       10212.00     44535.01
  202.03        2962.50           1398       13469.00     58774.06
  202.05        2962.75           1402       17736.00     77445.88
  202.08        2963.00           1405       20948.00     91514.05
  202.11        2963.25           1408       24223.00    105869.60
  202.14        2963.50           1412       28308.00    123791.90
  202.16        2963.75           1415       31631.00    138384.40
  202.19        2964.00           1418       34991.00    153151.40
  202.22        2964.25           1422       38964.00    170628.40
  202.24        2964.50           1425       42395.00    185735.00
  202.27        2964.75           1428       45802.00    200748.60
  202.30        2965.00           1431       48980.00    214764.50
  202.33        2965.25           1435       53293.00    233803.70
  202.35        2965.50           1438       56551.00    248199.30
  202.38        2965.75           1441       60092.00    263858.50
  202.41        2966.00           1445       64265.00    282330.40
  202.44        2966.25           1448       66559.00    292493.00
  202.46        2966.50           1451       68655.00    301783.50
  202.49        2966.75           1455       70291.00    309038.40
  202.52        2967.00           1458       70879.00    311646.60
  202.55        2967.25           1461       71215.00    313137.20
  202.57        2967.50           1465       70596.00    310391.30
  202.60        2967.75           1468       69948.00    307517.10
  202.63        2968.00           1471       68490.00    301051.90
  202.65        2968.25           1475       65236.00    286631.20
  202.68        2968.50           1478       62285.00    273563.50
  202.71        2968.75           1481       59249.00    260129.30
  202.74        2969.00           1485       54505.00    239157.60
  202.76        2969.25           1488       51382.00    225365.30
  202.79        2969.50           1491       47510.00    208280.00
  202.82        2969.75           1495       42797.00    187505.80
  202.85        2970.00           1498       39699.00    173863.50
  202.87        2970.25           1501       36392.00    159312.40
  202.90        2970.50           1505       32058.00    140260.30
  202.93        2970.75           1508       28526.00    124748.90
  202.96        2971.00           1511       25265.00    110439.50
  202.98        2971.25           1515       21173.00     92499.94
  203.01        2971.50           1518       17673.00     77170.05
  203.04        2971.75           1521       14381.00     62763.21
  203.07        2972.00           1525       10090.00     44001.87
  203.09        2972.25           1528        7174.00     31263.62
  203.12        2972.50           1531        4413.00     19210.85
  203.15        2972.75           1535        1732.00      7515.09
  203.17        2973.00           1538         561.00      2409.06
  203.20        2973.25           1541         156.00       643.43
  203.23        2973.50           1545          57.00       211.86
  203.26        2973.75           1548          45.00       159.55
  203.28        2974.00           1551          38.00       129.03
  203.31        2974.25           1555          31.00        98.52
  203.34        2974.50           1558          27.00        81.08
  203.36        2974.75           1561          31.00        98.52
  203.39        2975.00           1565          23.00        63.64
  203.42        2975.25           1568          25.00        72.36
  203.45        2975.50           1571          30.00        94.16
  203.47        2975.75           1575          26.00        76.72
  203.50        2976.00           1578          22.00        59.29
  203.53        2976.25           1581          23.00        63.64
  203.55        2976.50           1585          22.00        59.29
  203.58        2976.75           1588          25.00        72.36
  203.61        2977.00           1591          25.00        72.36
  203.64        2977.25           1595          25.00        72.36
  203.66        2977.50           1598          24.00        68.00
  203.69        2977.75           1601          25.00        72.36
  203.72        2978.00           1605          26.00        76.72
  203.74        2978.25           1608          27.00        81.08
  203.77        2978.50           1611          24.00        68.00
  203.80        2978.75           1615          26.00        76.72
  203.83        2979.00           1618          25.00        72.36
  203.85        2979.25           1621          23.00        63.64
  203.88        2979.50           1625          24.00        68.00
  203.91        2979.75           1628          26.00        76.72
  203.93        2980.00           1631          21.00        54.93
  203.96        2980.25           1635          27.00        81.08
  203.99        2980.50           1638          23.00        63.64
  204.02        2980.75           1641          21.00        54.93
  204.04        2981.00           1645          19.00        46.21
  204.07        2981.25           1648          21.00        54.93
  204.10        2981.50           1651          26.00        76.72
  204.13        2981.75           1655          23.00        63.64
  204.15        2982.00           1658          24.00        68.00
  204.18        2982.25           1661          22.00        59.29
  204.21        2982.50           1665          22.00        59.29
  204.23        2982.75           1668          24.00        68.00
  204.26        2983.00           1671          27.00        81.08
  204.29        2983.25           1675          24.00        68.00
  204.32        2983.50           1678          23.00        63.64
  204.34        2983.75           1681          23.00        63.64
  204.37        2984.00           1685          20.00        50.57
HS scan finished at 03:24:34
end
