************************************************************
  HS Scan of (1) Internal mercury lamp
************************************************************
Integration time is 0.2294 seconds per sample
dh070817Tamanrasset 22.79-5.529 3.302118pr865
************************************************************
Dead Time -------------------------  2.8E-08 
Number of Cycles Used -------------  4 
Starting Wavelength (Angstroms) ---  2950 
Final Wavelength (Angstoms) -------  2984 
Wavelength Increment (Angstroms) --  .25 
Filter Wheel #1 Position ---------- (1) Ground quartz diffuser (ND=2.32)
Filter Wheel #2 Position ---------- (1) Neutral Density 0.494



************************************************************
HS scan start time = 03:22:16
Dark Count =  6.1 


Time (GMT)  Wavelength (Ang)  Step Number  Raw Counts  Counts/Second

  202.62        2950.00           1233          23.00        73.67
  202.68        2950.25           1236          21.00        64.95
  202.71        2950.50           1239          22.00        69.31
  202.74        2950.75           1242          16.00        43.16
  202.77        2951.00           1246          18.00        51.87
  202.79        2951.25           1249          21.00        64.95
  202.82        2951.50           1252          20.00        60.59
  202.85        2951.75           1256          20.00        60.59
  202.87        2952.00           1259          25.00        82.39
  202.90        2952.25           1262          22.00        69.31
  202.93        2952.50           1266          20.00        60.59
  202.96        2952.75           1269          19.00        56.23
  202.98        2953.00           1272          14.00        34.44
  203.01        2953.25           1276          18.00        51.87
  203.04        2953.50           1279          19.00        56.23
  203.06        2953.75           1282          17.00        47.52
  203.09        2954.00           1286          22.00        69.31
  203.12        2954.25           1289          22.00        69.31
  203.15        2954.50           1292          22.00        69.31
  203.17        2954.75           1295          21.00        64.95
  203.20        2955.00           1299          18.00        51.87
  203.23        2955.25           1302          20.00        60.59
  203.25        2955.50           1305          20.00        60.59
  203.28        2955.75           1309          16.00        43.16
  203.31        2956.00           1312          24.00        78.03
  203.34        2956.25           1315          21.00        64.95
  203.36        2956.50           1319          20.00        60.59
  203.39        2956.75           1322          17.00        47.52
  203.42        2957.00           1325          24.00        78.03
  203.45        2957.25           1329          18.00        51.87
  203.47        2957.50           1332          15.00        38.80
  203.50        2957.75           1335          17.00        47.52
  203.53        2958.00           1339          22.00        69.31
  203.55        2958.25           1342          17.00        47.52
  203.58        2958.50           1345          20.00        60.59
  203.61        2958.75           1348          19.00        56.23
  203.64        2959.00           1352          20.00        60.59
  203.66        2959.25           1355          18.00        51.87
  203.69        2959.50           1358          21.00        64.95
  203.72        2959.75           1362          25.00        82.39
  203.74        2960.00           1365          27.00        91.11
  203.77        2960.25           1368          29.00        99.83
  203.80        2960.50           1372          35.00       125.98
  203.83        2960.75           1375          43.00       160.86
  203.85        2961.00           1378          96.00       391.90
  203.88        2961.25           1382         561.00      2419.08
  203.91        2961.50           1385        1418.00      6155.81
  203.93        2961.75           1388        2842.00     12366.53
  203.96        2962.00           1392        5839.00     25444.89
  203.99        2962.25           1395        8657.00     37750.87
  204.02        2962.50           1398       11600.00     50611.78
  204.04        2962.75           1402       15559.00     67927.25
  204.07        2963.00           1405       18811.00     82163.09
  204.10        2963.25           1408       22058.00     96388.38
  204.13        2963.50           1412       25639.00    112090.10
  204.15        2963.75           1415       28623.00    125184.80
  204.18        2964.00           1418       31938.00    139743.20
  204.21        2964.25           1422       35863.00    156996.00
  204.23        2964.50           1425       38954.00    170594.50
  204.26        2964.75           1428       41968.00    183864.40
  204.29        2965.00           1431       45115.00    197730.30
  204.32        2965.25           1435       49087.00    215246.70
  204.34        2965.50           1438       52373.00    229751.00
  204.37        2965.75           1441       55279.00    242587.70
  204.40        2966.00           1445       59487.00    261192.30
  204.43        2966.25           1448       61918.00    271949.20
  204.45        2966.50           1451       64020.00    281255.50
  204.48        2966.75           1455       65596.00    288236.20
  204.51        2967.00           1458       66281.00    291271.30
  204.54        2967.25           1461       66338.00    291523.80
  204.56        2967.50           1465       66121.00    290562.30
  204.59        2967.75           1468       65527.00    287930.60
  204.62        2968.00           1471       64525.00    283492.10
  204.65        2968.25           1475       61758.00    271241.00
  204.67        2968.50           1478       59038.00    259206.20
  204.70        2968.75           1481       56090.00    246171.80
  204.73        2969.00           1485       51750.00    227000.20
  204.75        2969.25           1488       48537.00    212820.20
  204.78        2969.50           1491       45335.00    198700.10
  204.81        2969.75           1495       41170.00    180350.00
  204.84        2970.00           1498       37773.00    165397.60
  204.86        2970.25           1501       34738.00    152049.20
  204.89        2970.50           1505       30505.00    133448.50
  204.92        2970.75           1508       27351.00    119601.70
  204.95        2971.00           1511       24484.00    107024.30
  204.97        2971.25           1515       20337.00     88847.18
  205.00        2971.50           1518       17256.00     75354.56
  205.03        2971.75           1521       14359.00     62677.04
  205.06        2972.00           1525       10333.00     45073.86
  205.08        2972.25           1528        7413.00     32317.37
  205.11        2972.50           1531        4844.00     21101.83
  205.14        2972.75           1535        2011.00      8741.90
  205.16        2973.00           1538         773.00      3343.38
  205.19        2973.25           1541         235.00       997.85
  205.22        2973.50           1545          49.00       187.01
  205.25        2973.75           1548          42.00       156.50
  205.27        2974.00           1551          35.00       125.98
  205.30        2974.25           1555          29.00        99.83
  205.33        2974.50           1558          27.00        91.11
  205.36        2974.75           1561          21.00        64.95
  205.38        2975.00           1565          22.00        69.31
  205.41        2975.25           1568          21.00        64.95
  205.44        2975.50           1571          27.00        91.11
  205.46        2975.75           1575          21.00        64.95
  205.49        2976.00           1578          25.00        82.39
  205.52        2976.25           1581          22.00        69.31
  205.55        2976.50           1585          22.00        69.31
  205.57        2976.75           1588          20.00        60.59
  205.60        2977.00           1591          21.00        64.95
  205.63        2977.25           1595          23.00        73.67
  205.65        2977.50           1598          21.00        64.95
  205.68        2977.75           1601          24.00        78.03
  205.71        2978.00           1605          22.00        69.31
  205.74        2978.25           1608          20.00        60.59
  205.76        2978.50           1611          23.00        73.67
  205.79        2978.75           1615          17.00        47.52
  205.82        2979.00           1618          21.00        64.95
  205.84        2979.25           1621          23.00        73.67
  205.87        2979.50           1625          23.00        73.67
  205.90        2979.75           1628          21.00        64.95
  205.93        2980.00           1631          23.00        73.67
  205.95        2980.25           1635          19.00        56.23
  205.98        2980.50           1638          20.00        60.59
  206.01        2980.75           1641          23.00        73.67
  206.04        2981.00           1645          20.00        60.59
  206.06        2981.25           1648          20.00        60.59
  206.09        2981.50           1651          21.00        64.95
  206.12        2981.75           1655          24.00        78.03
  206.14        2982.00           1658          19.00        56.23
  206.17        2982.25           1661          24.00        78.03
  206.20        2982.50           1665          20.00        60.59
  206.23        2982.75           1668          22.00        69.31
  206.25        2983.00           1671          19.00        56.23
  206.28        2983.25           1675          18.00        51.87
  206.31        2983.50           1678          19.00        56.23
  206.33        2983.75           1681          22.00        69.31
  206.36        2984.00           1685          16.00        43.16
HS scan finished at 03:26:33
end
