************************************************************
  HS Scan of (1) Internal mercury lamp
************************************************************
Integration time is 0.2294 seconds per sample
dh040817Tamanrasset 22.79-5.529 3.465263pr865
************************************************************
Dead Time -------------------------  2.8E-08 
Number of Cycles Used -------------  4 
Starting Wavelength (Angstroms) ---  2950 
Final Wavelength (Angstoms) -------  2984 
Wavelength Increment (Angstroms) --  .25 
Filter Wheel #1 Position ---------- (1) Ground quartz diffuser (ND=2.32)
Filter Wheel #2 Position ---------- (1) Neutral Density 0.494



************************************************************
HS scan start time = 03:21:46
Dark Count =  6.2 


Time (GMT)  Wavelength (Ang)  Step Number  Raw Counts  Counts/Second

  202.12        2950.00           1233          19.00        55.80
  202.18        2950.25           1236          20.00        60.16
  202.21        2950.50           1239          15.00        38.36
  202.23        2950.75           1242          18.00        51.44
  202.26        2951.00           1246          25.00        81.95
  202.29        2951.25           1249          18.00        51.44
  202.32        2951.50           1252          18.00        51.44
  202.34        2951.75           1256          18.00        51.44
  202.37        2952.00           1259          21.00        64.52
  202.40        2952.25           1262          20.00        60.16
  202.42        2952.50           1266          20.00        60.16
  202.45        2952.75           1269          23.00        73.23
  202.48        2953.00           1272          20.00        60.16
  202.51        2953.25           1276          23.00        73.23
  202.53        2953.50           1279          21.00        64.52
  202.56        2953.75           1282          19.00        55.80
  202.59        2954.00           1286          20.00        60.16
  202.61        2954.25           1289          25.00        81.95
  202.64        2954.50           1292          21.00        64.52
  202.67        2954.75           1295          20.00        60.16
  202.70        2955.00           1299          21.00        64.52
  202.72        2955.25           1302          26.00        86.31
  202.75        2955.50           1305          24.00        77.59
  202.78        2955.75           1309          23.00        73.23
  202.80        2956.00           1312          21.00        64.52
  202.83        2956.25           1315          22.00        68.88
  202.86        2956.50           1319          24.00        77.59
  202.89        2956.75           1322          20.00        60.16
  202.91        2957.00           1325          22.00        68.88
  202.94        2957.25           1329          18.00        51.44
  202.97        2957.50           1332          21.00        64.52
  202.99        2957.75           1335          18.00        51.44
  203.02        2958.00           1339          19.00        55.80
  203.05        2958.25           1342          21.00        64.52
  203.08        2958.50           1345          22.00        68.88
  203.10        2958.75           1348          20.00        60.16
  203.13        2959.00           1352          26.00        86.31
  203.16        2959.25           1355          21.00        64.52
  203.18        2959.50           1358          25.00        81.95
  203.21        2959.75           1362          24.00        77.59
  203.24        2960.00           1365          27.00        90.67
  203.27        2960.25           1368          34.00       121.19
  203.29        2960.50           1372          36.00       129.90
  203.32        2960.75           1375          46.00       173.50
  203.35        2961.00           1378         121.00       500.44
  203.38        2961.25           1382         629.00      2715.12
  203.40        2961.50           1385        1531.00      6648.14
  203.43        2961.75           1388        3016.00     13125.14
  203.46        2962.00           1392        6060.00     26409.23
  203.48        2962.25           1395        9038.00     39414.88
  203.51        2962.50           1398       12347.00     53877.21
  203.54        2962.75           1402       16224.00     70836.96
  203.57        2963.00           1405       19583.00     85543.81
  203.59        2963.25           1408       22718.00     99280.84
  203.62        2963.50           1412       27006.00    118087.30
  203.65        2963.75           1415       29991.00    131190.70
  203.68        2964.00           1418       33243.00    145477.20
  203.70        2964.25           1422       37494.00    164169.70
  203.73        2964.50           1425       40647.00    178046.70
  203.76        2964.75           1428       43943.00    192564.70
  203.79        2965.00           1431       47192.00    206887.30
  203.81        2965.25           1435       51177.00    224470.10
  203.84        2965.50           1438       54901.00    240917.00
  203.87        2965.75           1441       57928.00    254296.90
  203.89        2966.00           1445       62276.00    273533.40
  203.92        2966.25           1448       65209.00    286521.40
  203.95        2966.50           1451       67169.00    295206.00
  203.98        2966.75           1455       69076.00    303659.80
  204.00        2967.00           1458       69927.00    307433.70
  204.03        2967.25           1461       69667.00    306280.60
  204.06        2967.50           1465       69953.00    307549.00
  204.09        2967.75           1468       69053.00    303557.90
  204.11        2968.00           1471       67772.00    297878.70
  204.14        2968.25           1475       65325.00    287035.30
  204.17        2968.50           1478       62270.00    273506.80
  204.20        2968.75           1481       59171.00    259794.00
  204.22        2969.00           1485       54553.00    239379.50
  204.25        2969.25           1488       51052.00    223918.30
  204.28        2969.50           1491       47639.00    208858.70
  204.31        2969.75           1495       43401.00    190176.50
  204.33        2970.00           1498       39831.00    174454.30
  204.36        2970.25           1501       36411.00    159405.60
  204.39        2970.50           1505       32076.00    140349.10
  204.41        2970.75           1508       28877.00    126299.40
  204.44        2971.00           1511       25635.00    112072.20
  204.47        2971.25           1515       21385.00     93438.58
  204.50        2971.50           1518       18110.00     79093.02
  204.52        2971.75           1521       15144.00     66110.93
  204.55        2972.00           1525       10842.00     47298.00
  204.58        2972.25           1528        7496.00     32679.41
  204.61        2972.50           1531        4758.00     20726.06
  204.63        2972.75           1535        1975.00      8584.45
  204.66        2973.00           1538         716.00      3094.43
  204.69        2973.25           1541         213.00       901.50
  204.72        2973.50           1545          52.00       199.65
  204.74        2973.75           1548          45.00       169.14
  204.77        2974.00           1551          39.00       142.98
  204.80        2974.25           1555          38.00       138.62
  204.82        2974.50           1558          26.00        86.31
  204.85        2974.75           1561          28.00        95.03
  204.88        2975.00           1565          24.00        77.59
  204.91        2975.25           1568          25.00        81.95
  204.93        2975.50           1571          26.00        86.31
  204.96        2975.75           1575          26.00        86.31
  204.99        2976.00           1578          21.00        64.52
  205.01        2976.25           1581          26.00        86.31
  205.04        2976.50           1585          21.00        64.52
  205.07        2976.75           1588          28.00        95.03
  205.10        2977.00           1591          20.00        60.16
  205.12        2977.25           1595          24.00        77.59
  205.15        2977.50           1598          18.00        51.44
  205.18        2977.75           1601          19.00        55.80
  205.20        2978.00           1605          30.00       103.75
  205.23        2978.25           1608          23.00        73.23
  205.26        2978.50           1611          22.00        68.88
  205.29        2978.75           1615          19.00        55.80
  205.31        2979.00           1618          20.00        60.16
  205.34        2979.25           1621          24.00        77.59
  205.37        2979.50           1625          25.00        81.95
  205.39        2979.75           1628          29.00        99.39
  205.42        2980.00           1631          24.00        77.59
  205.45        2980.25           1635          24.00        77.59
  205.48        2980.50           1638          19.00        55.80
  205.50        2980.75           1641          21.00        64.52
  205.53        2981.00           1645          22.00        68.88
  205.56        2981.25           1648          23.00        73.23
  205.58        2981.50           1651          21.00        64.52
  205.61        2981.75           1655          17.00        47.08
  205.64        2982.00           1658          26.00        86.31
  205.67        2982.25           1661          22.00        68.88
  205.69        2982.50           1665          20.00        60.16
  205.72        2982.75           1668          17.00        47.08
  205.75        2983.00           1671          17.00        47.08
  205.77        2983.25           1675          23.00        73.23
  205.80        2983.50           1678          23.00        73.23
  205.83        2983.75           1681          21.00        64.52
  205.86        2984.00           1685          22.00        68.88
HS scan finished at 03:26:03
end
