************************************************************
  HS Scan of (1) Internal mercury lamp
************************************************************
Integration time is 0.2294 seconds per sample
dh050818Tamanrasset 22.79-5.529 4.974364pr865
************************************************************
Dead Time -------------------------  2.8E-08 
Number of Cycles Used -------------  4 
Starting Wavelength (Angstroms) ---  2950 
Final Wavelength (Angstoms) -------  2984 
Wavelength Increment (Angstroms) --  .25 
Filter Wheel #1 Position ---------- (1) Ground quartz diffuser (ND=2.32)
Filter Wheel #2 Position ---------- (1) Neutral Density 0.494



************************************************************
HS scan start time = 03:22:04
Dark Count =  4.7 


Time (GMT)  Wavelength (Ang)  Step Number  Raw Counts  Counts/Second

  202.42        2950.00           1233          20.00        66.70
  202.48        2950.25           1236          23.00        79.77
  202.51        2950.50           1239          18.00        57.98
  202.54        2950.75           1242          20.00        66.70
  202.56        2951.00           1246          16.00        49.26
  202.59        2951.25           1249          19.00        62.34
  202.62        2951.50           1252          18.00        57.98
  202.65        2951.75           1256          17.00        53.62
  202.67        2952.00           1259          17.00        53.62
  202.70        2952.25           1262          21.00        71.06
  202.73        2952.50           1266          20.00        66.70
  202.75        2952.75           1269          20.00        66.70
  202.78        2953.00           1272          21.00        71.06
  202.81        2953.25           1276          15.00        44.90
  202.84        2953.50           1279          17.00        53.62
  202.86        2953.75           1282          17.00        53.62
  202.89        2954.00           1286          18.00        57.98
  202.92        2954.25           1289          18.00        57.98
  202.94        2954.50           1292          18.00        57.98
  202.97        2954.75           1295          20.00        66.70
  203.00        2955.00           1299          16.00        49.26
  203.03        2955.25           1302          20.00        66.70
  203.05        2955.50           1305          20.00        66.70
  203.08        2955.75           1309          18.00        57.98
  203.11        2956.00           1312          22.00        75.41
  203.13        2956.25           1315          18.00        57.98
  203.16        2956.50           1319          18.00        57.98
  203.19        2956.75           1322          18.00        57.98
  203.22        2957.00           1325          18.00        57.98
  203.24        2957.25           1329          22.00        75.41
  203.27        2957.50           1332          18.00        57.98
  203.30        2957.75           1335          25.00        88.49
  203.32        2958.00           1339          17.00        53.62
  203.35        2958.25           1342          20.00        66.70
  203.38        2958.50           1345          19.00        62.34
  203.41        2958.75           1348          23.00        79.77
  203.43        2959.00           1352          20.00        66.70
  203.46        2959.25           1355          21.00        71.06
  203.49        2959.50           1358          22.00        75.41
  203.52        2959.75           1362          20.00        66.70
  203.54        2960.00           1365          20.00        66.70
  203.57        2960.25           1368          27.00        97.21
  203.60        2960.50           1372          37.00       140.80
  203.62        2960.75           1375          55.00       219.27
  203.65        2961.00           1378         188.00       799.06
  203.68        2961.25           1382         796.00      3449.77
  203.71        2961.50           1385        1750.00      7609.73
  203.73        2961.75           1388        3319.00     14453.54
  203.76        2962.00           1392        6252.00     27254.01
  203.79        2962.25           1395        8938.00     38984.56
  203.81        2962.50           1398       11802.00     51500.98
  203.84        2962.75           1402       15488.00     67622.69
  203.87        2963.00           1405       18103.00     79068.94
  203.90        2963.25           1408       20952.00     91547.79
  203.92        2963.50           1412       24703.00    107990.80
  203.95        2963.75           1415       27165.00    118791.60
  203.98        2964.00           1418       30086.00    131614.50
  204.01        2964.25           1422       33841.00    148112.10
  204.03        2964.50           1425       36249.00    158699.70
  204.06        2964.75           1428       39338.00    172290.80
  204.09        2965.00           1431       42211.00    184940.90
  204.12        2965.25           1435       46069.00    201942.10
  204.14        2965.50           1438       49152.00    215539.70
  204.17        2965.75           1441       51520.00    225990.90
  204.20        2966.00           1445       55239.00    242417.10
  204.22        2966.25           1448       57417.00    252044.10
  204.25        2966.50           1451       58996.00    259026.70
  204.28        2966.75           1455       60336.00    264954.50
  204.31        2967.00           1458       60861.00    267277.50
  204.33        2967.25           1461       61020.00    267981.00
  204.36        2967.50           1465       60587.00    266065.00
  204.39        2967.75           1468       59850.00    262804.30
  204.42        2968.00           1471       58538.00    257001.00
  204.44        2968.25           1475       56191.00    246624.40
  204.47        2968.50           1478       53397.00    234279.40
  204.50        2968.75           1481       50872.00    223130.30
  204.52        2969.00           1485       47051.00    206272.10
  204.55        2969.25           1488       44048.00    193034.00
  204.58        2969.50           1491       41013.00    179664.90
  204.61        2969.75           1495       37022.00    162099.80
  204.63        2970.00           1498       34100.00    149250.60
  204.66        2970.25           1501       31180.00    136419.40
  204.69        2970.50           1505       27384.00    119752.70
  204.72        2970.75           1508       24302.00    106232.30
  204.74        2971.00           1511       21617.00     94461.81
  204.77        2971.25           1515       17867.00     78035.63
  204.80        2971.50           1518       14886.00     64988.69
  204.82        2971.75           1521       12317.00     53752.60
  204.85        2972.00           1525        8715.00     38010.36
  204.88        2972.25           1528        5912.00     25769.68
  204.91        2972.50           1531        3571.00     15552.98
  204.93        2972.75           1535        1362.00      5917.72
  204.96        2973.00           1538         505.00      2181.04
  204.99        2973.25           1541         131.00       550.58
  205.02        2973.50           1545          49.00       193.11
  205.04        2973.75           1548          38.00       145.16
  205.07        2974.00           1551          31.00       114.65
  205.10        2974.25           1555          30.00       110.29
  205.12        2974.50           1558          22.00        75.41
  205.15        2974.75           1561          23.00        79.77
  205.18        2975.00           1565          18.00        57.98
  205.21        2975.25           1568          18.00        57.98
  205.23        2975.50           1571          20.00        66.70
  205.26        2975.75           1575          20.00        66.70
  205.29        2976.00           1578          20.00        66.70
  205.31        2976.25           1581          22.00        75.41
  205.34        2976.50           1585          21.00        71.06
  205.37        2976.75           1588          22.00        75.41
  205.40        2977.00           1591          21.00        71.06
  205.42        2977.25           1595          18.00        57.98
  205.45        2977.50           1598          18.00        57.98
  205.48        2977.75           1601          25.00        88.49
  205.50        2978.00           1605          19.00        62.34
  205.53        2978.25           1608          21.00        71.06
  205.56        2978.50           1611          18.00        57.98
  205.59        2978.75           1615          21.00        71.06
  205.61        2979.00           1618          19.00        62.34
  205.64        2979.25           1621          24.00        84.13
  205.67        2979.50           1625          23.00        79.77
  205.69        2979.75           1628          21.00        71.06
  205.72        2980.00           1631          19.00        62.34
  205.75        2980.25           1635          23.00        79.77
  205.78        2980.50           1638          18.00        57.98
  205.80        2980.75           1641          21.00        71.06
  205.83        2981.00           1645          21.00        71.06
  205.86        2981.25           1648          21.00        71.06
  205.88        2981.50           1651          20.00        66.70
  205.91        2981.75           1655          18.00        57.98
  205.94        2982.00           1658          20.00        66.70
  205.97        2982.25           1661          19.00        62.34
  205.99        2982.50           1665          18.00        57.98
  206.02        2982.75           1668          23.00        79.77
  206.05        2983.00           1671          21.00        71.06
  206.07        2983.25           1675          19.00        62.34
  206.10        2983.50           1678          19.00        62.34
  206.13        2983.75           1681          15.00        44.90
  206.16        2984.00           1685          19.00        62.34
HS scan finished at 03:26:21
end
