************************************************************
  HS Scan of (1) Internal mercury lamp
************************************************************
Integration time is 0.2294 seconds per sample
dh050817Tamanrasset 22.79-5.529 3.429576pr865
************************************************************
Dead Time -------------------------  2.8E-08 
Number of Cycles Used -------------  4 
Starting Wavelength (Angstroms) ---  2950 
Final Wavelength (Angstoms) -------  2984 
Wavelength Increment (Angstroms) --  .25 
Filter Wheel #1 Position ---------- (1) Ground quartz diffuser (ND=2.32)
Filter Wheel #2 Position ---------- (1) Neutral Density 0.494



************************************************************
HS scan start time = 03:22:18
Dark Count =  6.4 


Time (GMT)  Wavelength (Ang)  Step Number  Raw Counts  Counts/Second

  202.66        2950.00           1233          21.00        63.64
  202.72        2950.25           1236          18.00        50.57
  202.75        2950.50           1239          21.00        63.64
  202.78        2950.75           1242          16.00        41.85
  202.80        2951.00           1246          18.00        50.57
  202.83        2951.25           1249          21.00        63.64
  202.86        2951.50           1252          19.00        54.93
  202.89        2951.75           1256          17.00        46.21
  202.91        2952.00           1259          21.00        63.64
  202.94        2952.25           1262          23.00        72.36
  202.97        2952.50           1266          21.00        63.64
  202.99        2952.75           1269          21.00        63.64
  203.02        2953.00           1272          19.00        54.93
  203.05        2953.25           1276          21.00        63.64
  203.08        2953.50           1279          23.00        72.36
  203.10        2953.75           1282          14.00        33.13
  203.13        2954.00           1286          19.00        54.93
  203.16        2954.25           1289          20.00        59.29
  203.19        2954.50           1292          17.00        46.21
  203.21        2954.75           1295          17.00        46.21
  203.24        2955.00           1299          20.00        59.29
  203.27        2955.25           1302          19.00        54.93
  203.29        2955.50           1305          16.00        41.85
  203.32        2955.75           1309          24.00        76.72
  203.35        2956.00           1312          19.00        54.93
  203.38        2956.25           1315          21.00        63.64
  203.40        2956.50           1319          16.00        41.85
  203.43        2956.75           1322          22.00        68.00
  203.46        2957.00           1325          23.00        72.36
  203.48        2957.25           1329          19.00        54.93
  203.51        2957.50           1332          19.00        54.93
  203.54        2957.75           1335          17.00        46.21
  203.57        2958.00           1339          24.00        76.72
  203.59        2958.25           1342          21.00        63.64
  203.62        2958.50           1345          16.00        41.85
  203.65        2958.75           1348          19.00        54.93
  203.67        2959.00           1352          25.00        81.08
  203.70        2959.25           1355          20.00        59.29
  203.73        2959.50           1358          21.00        63.64
  203.76        2959.75           1362          23.00        72.36
  203.78        2960.00           1365          24.00        76.72
  203.81        2960.25           1368          27.00        89.80
  203.84        2960.50           1372          40.00       146.47
  203.87        2960.75           1375          43.00       159.55
  203.89        2961.00           1378         143.00       595.48
  203.92        2961.25           1382         739.00      3193.83
  203.95        2961.50           1385        1704.00      7401.71
  203.97        2961.75           1388        3338.00     14529.01
  204.00        2962.00           1392        6555.00     28569.49
  204.03        2962.25           1395        9625.00     41978.69
  204.06        2962.50           1398       12922.00     56390.63
  204.08        2962.75           1402       16773.00     73238.97
  204.11        2963.00           1405       19861.00     86760.64
  204.14        2963.25           1408       23101.00    100958.90
  204.17        2963.50           1412       27288.00    119323.90
  204.19        2963.75           1415       30486.00    133363.70
  204.22        2964.00           1418       33651.00    147269.50
  204.25        2964.25           1422       38064.00    166676.70
  204.27        2964.50           1425       41403.00    181374.80
  204.30        2964.75           1428       44541.00    195199.10
  204.33        2965.00           1431       47650.00    208906.30
  204.36        2965.25           1435       51722.00    226875.20
  204.38        2965.50           1438       55092.00    241760.10
  204.41        2965.75           1441       58239.00    255671.20
  204.44        2966.00           1445       62591.00    274926.90
  204.47        2966.25           1448       64688.00    284212.70
  204.49        2966.50           1451       67105.00    294921.50
  204.52        2966.75           1455       68629.00    301677.00
  204.55        2967.00           1458       69360.00    304918.30
  204.58        2967.25           1461       69199.00    304204.40
  204.60        2967.50           1465       68830.00    302568.20
  204.63        2967.75           1468       68307.00    300249.50
  204.66        2968.00           1471       67022.00    294553.60
  204.68        2968.25           1475       64310.00    282538.50
  204.71        2968.50           1478       60814.00    267062.00
  204.74        2968.75           1481       57847.00    253937.80
  204.77        2969.00           1485       53662.00    235442.40
  204.79        2969.25           1488       50090.00    219671.40
  204.82        2969.50           1491       46946.00    205801.50
  204.85        2969.75           1495       42510.00    186250.40
  204.88        2970.00           1498       39270.00    171984.00
  204.90        2970.25           1501       35885.00    157091.40
  204.93        2970.50           1505       31667.00    138551.30
  204.96        2970.75           1508       28096.00    122870.10
  204.99        2971.00           1511       24967.00    109141.20
  205.01        2971.25           1515       20812.00     90926.92
  205.04        2971.50           1518       17776.00     77629.77
  205.07        2971.75           1521       14660.00     63992.50
  205.09        2972.00           1525       10517.00     45876.68
  205.12        2972.25           1528        7208.00     31420.83
  205.15        2972.50           1531        4557.00     19847.99
  205.18        2972.75           1535        1770.00      7689.54
  205.20        2973.00           1538         679.00      2932.24
  205.23        2973.25           1541         197.00       830.88
  205.26        2973.50           1545          57.00       220.58
  205.29        2973.75           1548          49.00       185.70
  205.31        2974.00           1551          36.00       129.03
  205.34        2974.25           1555          33.00       115.96
  205.37        2974.50           1558          21.00        63.64
  205.39        2974.75           1561          29.00        98.52
  205.42        2975.00           1565          21.00        63.64
  205.45        2975.25           1568          23.00        72.36
  205.48        2975.50           1571          22.00        68.00
  205.50        2975.75           1575          24.00        76.72
  205.53        2976.00           1578          21.00        63.64
  205.56        2976.25           1581          21.00        63.64
  205.58        2976.50           1585          29.00        98.52
  205.61        2976.75           1588          24.00        76.72
  205.64        2977.00           1591          24.00        76.72
  205.67        2977.25           1595          19.00        54.93
  205.69        2977.50           1598          20.00        59.29
  205.72        2977.75           1601          19.00        54.93
  205.75        2978.00           1605          22.00        68.00
  205.78        2978.25           1608          22.00        68.00
  205.80        2978.50           1611          23.00        72.36
  205.83        2978.75           1615          23.00        72.36
  205.86        2979.00           1618          21.00        63.64
  205.88        2979.25           1621          20.00        59.29
  205.91        2979.50           1625          20.00        59.29
  205.94        2979.75           1628          16.00        41.85
  205.97        2980.00           1631          20.00        59.29
  205.99        2980.25           1635          21.00        63.64
  206.02        2980.50           1638          24.00        76.72
  206.05        2980.75           1641          18.00        50.57
  206.07        2981.00           1645          17.00        46.21
  206.10        2981.25           1648          24.00        76.72
  206.13        2981.50           1651          23.00        72.36
  206.16        2981.75           1655          23.00        72.36
  206.18        2982.00           1658          18.00        50.57
  206.21        2982.25           1661          23.00        72.36
  206.24        2982.50           1665          20.00        59.29
  206.26        2982.75           1668          20.00        59.29
  206.29        2983.00           1671          16.00        41.85
  206.32        2983.25           1675          21.00        63.64
  206.35        2983.50           1678          19.00        54.93
  206.37        2983.75           1681          18.00        50.57
  206.40        2984.00           1685          21.00        63.64
HS scan finished at 03:26:35
end
