************************************************************
  HS Scan of (1) Internal mercury lamp
************************************************************
Integration time is 0.2294 seconds per sample
dh070818Tamanrasset 22.79-5.529 4.974364pr865
************************************************************
Dead Time -------------------------  2.8E-08 
Number of Cycles Used -------------  4 
Starting Wavelength (Angstroms) ---  2950 
Final Wavelength (Angstoms) -------  2984 
Wavelength Increment (Angstroms) --  .25 
Filter Wheel #1 Position ---------- (1) Ground quartz diffuser (ND=2.32)
Filter Wheel #2 Position ---------- (1) Neutral Density 0.494



************************************************************
HS scan start time = 03:22:02
Dark Count =  5.5 


Time (GMT)  Wavelength (Ang)  Step Number  Raw Counts  Counts/Second

  202.39        2950.00           1233          22.00        71.93
  202.46        2950.25           1236          21.00        67.57
  202.49        2950.50           1239          21.00        67.57
  202.51        2950.75           1242          19.00        58.85
  202.54        2951.00           1246          21.00        67.57
  202.57        2951.25           1249          21.00        67.57
  202.59        2951.50           1252          18.00        54.49
  202.62        2951.75           1256          18.00        54.49
  202.65        2952.00           1259          19.00        58.85
  202.67        2952.25           1262          20.00        63.21
  202.70        2952.50           1266          21.00        67.57
  202.73        2952.75           1269          21.00        67.57
  202.76        2953.00           1272          20.00        63.21
  202.78        2953.25           1276          21.00        67.57
  202.81        2953.50           1279          19.00        58.85
  202.84        2953.75           1282          16.00        45.77
  202.86        2954.00           1286          24.00        80.65
  202.89        2954.25           1289          23.00        76.29
  202.92        2954.50           1292          18.00        54.49
  202.95        2954.75           1295          21.00        67.57
  202.97        2955.00           1299          19.00        58.85
  203.00        2955.25           1302          19.00        58.85
  203.03        2955.50           1305          18.00        54.49
  203.05        2955.75           1309          17.00        50.13
  203.08        2956.00           1312          20.00        63.21
  203.11        2956.25           1315          18.00        54.49
  203.14        2956.50           1319          22.00        71.93
  203.16        2956.75           1322          19.00        58.85
  203.19        2957.00           1325          22.00        71.93
  203.22        2957.25           1329          20.00        63.21
  203.24        2957.50           1332          17.00        50.13
  203.27        2957.75           1335          15.00        41.41
  203.30        2958.00           1339          16.00        45.77
  203.33        2958.25           1342          19.00        58.85
  203.35        2958.50           1345          23.00        76.29
  203.38        2958.75           1348          20.00        63.21
  203.41        2959.00           1352          21.00        67.57
  203.43        2959.25           1355          18.00        54.49
  203.46        2959.50           1358          23.00        76.29
  203.49        2959.75           1362          26.00        89.36
  203.52        2960.00           1365          28.00        98.08
  203.54        2960.25           1368          30.00       106.80
  203.57        2960.50           1372          35.00       128.60
  203.60        2960.75           1375          47.00       180.91
  203.62        2961.00           1378         170.00       717.10
  203.65        2961.25           1382         849.00      3677.36
  203.68        2961.50           1385        2010.00      8740.15
  203.71        2961.75           1388        3773.00     16430.84
  203.73        2962.00           1392        7108.00     30988.08
  203.76        2962.25           1395        9971.00     43494.53
  203.79        2962.50           1398       12966.00     56586.98
  203.82        2962.75           1402       16935.00     73952.01
  203.84        2963.00           1405       19821.00     86589.37
  203.87        2963.25           1408       23060.00    100783.10
  203.90        2963.50           1412       26956.00    117870.90
  203.92        2963.75           1415       30032.00    131373.80
  203.95        2964.00           1418       33138.00    145018.80
  203.98        2964.25           1422       36908.00    161594.80
  204.01        2964.50           1425       39969.00    175064.90
  204.03        2964.75           1428       43035.00    188567.10
  204.06        2965.00           1431       46259.00    202776.20
  204.09        2965.25           1435       50570.00    221793.80
  204.12        2965.50           1438       53724.00    235720.20
  204.14        2965.75           1441       56888.00    249701.80
  204.17        2966.00           1445       60850.00    267225.20
  204.20        2966.25           1448       63155.00    277427.90
  204.22        2966.50           1451       65493.00    287782.60
  204.25        2966.75           1455       66546.00    292448.20
  204.28        2967.00           1458       66940.00    294194.20
  204.31        2967.25           1461       66989.00    294411.40
  204.33        2967.50           1465       66576.00    292581.10
  204.36        2967.75           1468       66066.00    290321.30
  204.39        2968.00           1471       64826.00    284827.90
  204.42        2968.25           1475       61800.00    271429.50
  204.44        2968.50           1478       58943.00    258788.70
  204.47        2968.75           1481       55815.00    244959.10
  204.50        2969.00           1485       51258.00    224830.70
  204.53        2969.25           1488       48161.00    211164.20
  204.55        2969.50           1491       45234.00    198257.50
  204.58        2969.75           1495       40720.00    178371.20
  204.61        2970.00           1498       37583.00    164564.30
  204.63        2970.25           1501       34375.00    150456.00
  204.66        2970.50           1505       30285.00    132484.90
  204.69        2970.75           1508       26978.00    117967.50
  204.72        2971.00           1511       23860.00    104290.60
  204.74        2971.25           1515       19742.00     86243.32
  204.77        2971.50           1518       16634.00     72634.50
  204.80        2971.75           1521       13739.00     59967.65
  204.83        2972.00           1525        9709.00     42349.67
  204.85        2972.25           1528        6689.00     29158.50
  204.88        2972.50           1531        4133.00     18001.66
  204.91        2972.75           1535        1647.00      7157.06
  204.93        2973.00           1538         604.00      2609.17
  204.96        2973.25           1541         168.00       708.38
  204.99        2973.50           1545          59.00       233.22
  205.02        2973.75           1548          38.00       141.67
  205.04        2974.00           1551          33.00       119.88
  205.07        2974.25           1555          31.00       111.16
  205.10        2974.50           1558          26.00        89.36
  205.13        2974.75           1561          26.00        89.36
  205.15        2975.00           1565          26.00        89.36
  205.18        2975.25           1568          21.00        67.57
  205.21        2975.50           1571          24.00        80.65
  205.23        2975.75           1575          21.00        67.57
  205.26        2976.00           1578          23.00        76.29
  205.29        2976.25           1581          25.00        85.00
  205.32        2976.50           1585          23.00        76.29
  205.34        2976.75           1588          24.00        80.65
  205.37        2977.00           1591          27.00        93.72
  205.40        2977.25           1595          24.00        80.65
  205.42        2977.50           1598          17.00        50.13
  205.45        2977.75           1601          24.00        80.65
  205.48        2978.00           1605          23.00        76.29
  205.51        2978.25           1608          19.00        58.85
  205.53        2978.50           1611          21.00        67.57
  205.56        2978.75           1615          26.00        89.36
  205.59        2979.00           1618          23.00        76.29
  205.61        2979.25           1621          23.00        76.29
  205.64        2979.50           1625          20.00        63.21
  205.67        2979.75           1628          23.00        76.29
  205.70        2980.00           1631          21.00        67.57
  205.72        2980.25           1635          27.00        93.72
  205.75        2980.50           1638          21.00        67.57
  205.78        2980.75           1641          25.00        85.00
  205.80        2981.00           1645          16.00        45.77
  205.83        2981.25           1648          21.00        67.57
  205.86        2981.50           1651          28.00        98.08
  205.89        2981.75           1655          24.00        80.65
  205.91        2982.00           1658          19.00        58.85
  205.94        2982.25           1661          25.00        85.00
  205.97        2982.50           1665          19.00        58.85
  205.99        2982.75           1668          22.00        71.93
  206.02        2983.00           1671          20.00        63.21
  206.05        2983.25           1675          19.00        58.85
  206.08        2983.50           1678          18.00        54.49
  206.10        2983.75           1681          24.00        80.65
  206.13        2984.00           1685          22.00        71.93
HS scan finished at 03:26:19
end
