************************************************************
  HS Scan of (1) Internal mercury lamp
************************************************************
Integration time is 0.2294 seconds per sample
dh090817Tamanrasset 22.79-5.529 3.062497pr865
************************************************************
Dead Time -------------------------  2.8E-08 
Number of Cycles Used -------------  4 
Starting Wavelength (Angstroms) ---  2950 
Final Wavelength (Angstoms) -------  2984 
Wavelength Increment (Angstroms) --  .25 
Filter Wheel #1 Position ---------- (1) Ground quartz diffuser (ND=2.32)
Filter Wheel #2 Position ---------- (1) Neutral Density 0.494



************************************************************
HS scan start time = 03:23:18
Dark Count =  3.9 


Time (GMT)  Wavelength (Ang)  Step Number  Raw Counts  Counts/Second

  203.65        2950.00           1233          18.00        61.46
  203.71        2950.25           1236          22.00        78.90
  203.74        2950.50           1239          21.00        74.54
  203.77        2950.75           1242          20.00        70.18
  203.80        2951.00           1246          18.00        61.46
  203.82        2951.25           1249          19.00        65.82
  203.85        2951.50           1252          20.00        70.18
  203.88        2951.75           1256          17.00        57.11
  203.91        2952.00           1259          13.00        39.67
  203.93        2952.25           1262          15.00        48.39
  203.96        2952.50           1266          23.00        83.26
  203.99        2952.75           1269          21.00        74.54
  204.01        2953.00           1272          20.00        70.18
  204.04        2953.25           1276          19.00        65.82
  204.07        2953.50           1279          23.00        83.26
  204.10        2953.75           1282          16.00        52.75
  204.12        2954.00           1286          20.00        70.18
  204.15        2954.25           1289          22.00        78.90
  204.18        2954.50           1292          21.00        74.54
  204.21        2954.75           1295          17.00        57.11
  204.23        2955.00           1299          23.00        83.26
  204.26        2955.25           1302          18.00        61.46
  204.29        2955.50           1305          18.00        61.46
  204.31        2955.75           1309          21.00        74.54
  204.34        2956.00           1312          18.00        61.46
  204.37        2956.25           1315          22.00        78.90
  204.40        2956.50           1319          16.00        52.75
  204.42        2956.75           1322          16.00        52.75
  204.45        2957.00           1325          16.00        52.75
  204.48        2957.25           1329          19.00        65.82
  204.50        2957.50           1332          18.00        61.46
  204.53        2957.75           1335          23.00        83.26
  204.56        2958.00           1339          17.00        57.11
  204.59        2958.25           1342          19.00        65.82
  204.61        2958.50           1345          20.00        70.18
  204.64        2958.75           1348          22.00        78.90
  204.67        2959.00           1352          22.00        78.90
  204.69        2959.25           1355          19.00        65.82
  204.72        2959.50           1358          16.00        52.75
  204.75        2959.75           1362          22.00        78.90
  204.78        2960.00           1365          26.00        96.34
  204.80        2960.25           1368          32.00       122.49
  204.83        2960.50           1372          35.00       135.57
  204.86        2960.75           1375          43.00       170.45
  204.88        2961.00           1378         106.00       445.08
  204.91        2961.25           1382         535.00      2315.32
  204.94        2961.50           1385        1311.00      5698.82
  204.97        2961.75           1388        2711.00     11804.69
  204.99        2962.00           1392        5432.00     23677.86
  205.02        2962.25           1395        7989.00     34842.61
  205.05        2962.50           1398       10784.00     47054.55
  205.08        2962.75           1402       14438.00     63032.24
  205.10        2963.00           1405       17230.00     75250.37
  205.13        2963.25           1408       20059.00     87638.94
  205.16        2963.50           1412       23323.00    101943.20
  205.18        2963.75           1415       26176.00    114455.60
  205.21        2964.00           1418       29220.00    127815.40
  205.24        2964.25           1422       32762.00    143373.50
  205.27        2964.50           1425       35508.00    155444.50
  205.29        2964.75           1428       38475.00    168496.20
  205.32        2965.00           1431       41287.00    180874.90
  205.35        2965.25           1435       45104.00    197691.60
  205.38        2965.50           1438       47842.00    209764.20
  205.40        2965.75           1441       50444.00    221244.70
  205.43        2966.00           1445       54261.00    238099.50
  205.46        2966.25           1448       56673.00    248758.50
  205.48        2966.50           1451       58614.00    257340.70
  205.51        2966.75           1455       59779.00    262493.70
  205.54        2967.00           1458       60417.00    265316.40
  205.57        2967.25           1461       60454.00    265480.10
  205.59        2967.50           1465       60167.00    264210.30
  205.62        2967.75           1468       59579.00    261609.00
  205.65        2968.00           1471       58444.00    256588.80
  205.68        2968.25           1475       56033.00    245929.60
  205.70        2968.50           1478       53401.00    234300.60
  205.73        2968.75           1481       50569.00    221796.50
  205.76        2969.00           1485       46575.00    204176.60
  205.79        2969.25           1488       43778.00    191847.80
  205.81        2969.50           1491       40979.00    179518.70
  205.84        2969.75           1495       37026.00    162120.90
  205.87        2970.00           1498       34172.00    149570.60
  205.90        2970.25           1501       31301.00    136954.40
  205.92        2970.50           1505       27247.00    119154.90
  205.95        2970.75           1508       24563.00    107380.40
  205.98        2971.00           1511       21758.00     95083.24
  206.00        2971.25           1515       18011.00     78669.61
  206.03        2971.50           1518       15164.00     66208.50
  206.06        2971.75           1521       12395.00     54097.14
  206.09        2972.00           1525        9019.00     39341.92
  206.11        2972.25           1528        6285.00     27401.58
  206.14        2972.50           1531        3993.00     17397.75
  206.17        2972.75           1535        1641.00      7137.87
  206.20        2973.00           1538         632.00      2738.22
  206.22        2973.25           1541         191.00       815.62
  206.25        2973.50           1545          54.00       218.40
  206.28        2973.75           1548          42.00       166.09
  206.30        2974.00           1551          31.00       118.13
  206.33        2974.25           1555          25.00        91.98
  206.36        2974.50           1558          25.00        91.98
  206.39        2974.75           1561          22.00        78.90
  206.41        2975.00           1565          19.00        65.82
  206.44        2975.25           1568          23.00        83.26
  206.47        2975.50           1571          17.00        57.11
  206.49        2975.75           1575          20.00        70.18
  206.52        2976.00           1578          20.00        70.18
  206.55        2976.25           1581          21.00        74.54
  206.58        2976.50           1585          25.00        91.98
  206.60        2976.75           1588          15.00        48.39
  206.63        2977.00           1591          17.00        57.11
  206.66        2977.25           1595          22.00        78.90
  206.68        2977.50           1598          20.00        70.18
  206.71        2977.75           1601          20.00        70.18
  206.74        2978.00           1605          20.00        70.18
  206.77        2978.25           1608          23.00        83.26
  206.79        2978.50           1611          21.00        74.54
  206.82        2978.75           1615          19.00        65.82
  206.85        2979.00           1618          26.00        96.34
  206.87        2979.25           1621          20.00        70.18
  206.90        2979.50           1625          18.00        61.46
  206.93        2979.75           1628          23.00        83.26
  206.96        2980.00           1631          23.00        83.26
  206.98        2980.25           1635          20.00        70.18
  207.01        2980.50           1638          17.00        57.11
  207.04        2980.75           1641          19.00        65.82
  207.06        2981.00           1645          23.00        83.26
  207.09        2981.25           1648          23.00        83.26
  207.12        2981.50           1651          20.00        70.18
  207.15        2981.75           1655          21.00        74.54
  207.17        2982.00           1658          23.00        83.26
  207.20        2982.25           1661          14.00        44.03
  207.23        2982.50           1665          20.00        70.18
  207.25        2982.75           1668          18.00        61.46
  207.28        2983.00           1671          20.00        70.18
  207.31        2983.25           1675          20.00        70.18
  207.34        2983.50           1678          17.00        57.11
  207.36        2983.75           1681          20.00        70.18
  207.39        2984.00           1685          22.00        78.90
HS scan finished at 03:27:35
end
