************************************************************
  HS Scan of (1) Internal mercury lamp
************************************************************
Integration time is 0.2294 seconds per sample
dh100818Tamanrasset 22.79-5.529 4.974364pr865
************************************************************
Dead Time -------------------------  2.8E-08 
Number of Cycles Used -------------  4 
Starting Wavelength (Angstroms) ---  2950 
Final Wavelength (Angstoms) -------  2984 
Wavelength Increment (Angstroms) --  .25 
Filter Wheel #1 Position ---------- (1) Ground quartz diffuser (ND=2.32)
Filter Wheel #2 Position ---------- (1) Neutral Density 0.494



************************************************************
HS scan start time = 03:23:11
Dark Count =  5.2 


Time (GMT)  Wavelength (Ang)  Step Number  Raw Counts  Counts/Second

  203.53        2950.00           1233          18.00        55.80
  203.60        2950.25           1236          18.00        55.80
  203.63        2950.50           1239          21.00        68.88
  203.65        2950.75           1242          20.00        64.52
  203.68        2951.00           1246          19.00        60.16
  203.71        2951.25           1249          18.00        55.80
  203.73        2951.50           1252          20.00        64.52
  203.76        2951.75           1256          23.00        77.59
  203.79        2952.00           1259          19.00        60.16
  203.82        2952.25           1262          21.00        68.88
  203.84        2952.50           1266          17.00        51.44
  203.87        2952.75           1269          18.00        55.80
  203.90        2953.00           1272          21.00        68.88
  203.92        2953.25           1276          21.00        68.88
  203.95        2953.50           1279          24.00        81.95
  203.98        2953.75           1282          17.00        51.44
  204.01        2954.00           1286          26.00        90.67
  204.03        2954.25           1289          17.00        51.44
  204.06        2954.50           1292          19.00        60.16
  204.09        2954.75           1295          20.00        64.52
  204.11        2955.00           1299          23.00        77.59
  204.14        2955.25           1302          22.00        73.23
  204.17        2955.50           1305          22.00        73.23
  204.20        2955.75           1309          18.00        55.80
  204.22        2956.00           1312          17.00        51.44
  204.25        2956.25           1315          16.00        47.08
  204.28        2956.50           1319          19.00        60.16
  204.30        2956.75           1322          22.00        73.23
  204.33        2957.00           1325          18.00        55.80
  204.36        2957.25           1329          16.00        47.08
  204.39        2957.50           1332          17.00        51.44
  204.41        2957.75           1335          16.00        47.08
  204.44        2958.00           1339          22.00        73.23
  204.47        2958.25           1342          22.00        73.23
  204.49        2958.50           1345          22.00        73.23
  204.52        2958.75           1348          22.00        73.23
  204.55        2959.00           1352          21.00        68.88
  204.58        2959.25           1355          29.00       103.75
  204.60        2959.50           1358          23.00        77.59
  204.63        2959.75           1362          22.00        73.23
  204.66        2960.00           1365          24.00        81.95
  204.69        2960.25           1368          32.00       116.83
  204.71        2960.50           1372          34.00       125.55
  204.74        2960.75           1375          44.00       169.14
  204.77        2961.00           1378         128.00       535.32
  204.79        2961.25           1382         631.00      2728.19
  204.82        2961.50           1385        1449.00      6294.92
  204.85        2961.75           1388        2910.00     12667.09
  204.88        2962.00           1392        5857.00     25527.40
  204.90        2962.25           1395        8551.00     37291.75
  204.93        2962.50           1398       11615.00     50681.29
  204.96        2962.75           1402       15262.00     66631.61
  204.99        2963.00           1405       18060.00     78878.48
  205.01        2963.25           1408       20916.00     91387.88
  205.04        2963.50           1412       24701.00    107979.90
  205.07        2963.75           1415       27375.00    119711.00
  205.09        2964.00           1418       30604.00    133887.20
  205.12        2964.25           1422       34279.00    150035.30
  205.15        2964.50           1425       37340.00    163496.60
  205.18        2964.75           1428       40220.00    176171.10
  205.20        2965.00           1431       42928.00    188097.00
  205.23        2965.25           1435       46868.00    205462.90
  205.26        2965.50           1438       49794.00    218370.40
  205.29        2965.75           1441       52935.00    232236.70
  205.31        2966.00           1445       56782.00    249234.60
  205.34        2966.25           1448       58606.00    257299.50
  205.37        2966.50           1451       61029.00    268018.70
  205.39        2966.75           1455       62482.00    274449.70
  205.42        2967.00           1458       62878.00    276202.80
  205.45        2967.25           1461       63068.00    277044.00
  205.48        2967.50           1465       62858.00    276114.30
  205.50        2967.75           1468       62365.00    273931.80
  205.53        2968.00           1471       60806.00    267031.90
  205.56        2968.25           1475       58184.00    255433.30
  205.59        2968.50           1478       55967.00    245632.20
  205.61        2968.75           1481       52807.00    231671.50
  205.64        2969.00           1485       49092.00    215272.80
  205.67        2969.25           1488       45752.00    200542.30
  205.70        2969.50           1491       42864.00    187815.10
  205.72        2969.75           1495       38873.00    170242.00
  205.75        2970.00           1498       35526.00    155517.90
  205.78        2970.25           1501       32620.00    142743.80
  205.80        2970.50           1505       28806.00    125992.10
  205.83        2970.75           1508       25641.00    112102.90
  205.86        2971.00           1511       22490.00     98285.81
  205.89        2971.25           1515       18494.00     80778.85
  205.91        2971.50           1518       15676.00     68443.16
  205.94        2971.75           1521       12838.00     56028.54
  205.97        2972.00           1525        9290.00     40520.23
  206.00        2972.25           1528        6532.00     28474.31
  206.02        2972.50           1531        3985.00     17357.17
  206.05        2972.75           1535        1629.00      7079.87
  206.08        2973.00           1538         607.00      2623.56
  206.10        2973.25           1541         177.00       748.93
  206.13        2973.50           1545          48.00       186.57
  206.16        2973.75           1548          41.00       156.06
  206.19        2974.00           1551          35.00       129.90
  206.21        2974.25           1555          32.00       116.83
  206.24        2974.50           1558          27.00        95.03
  206.27        2974.75           1561          28.00        99.39
  206.30        2975.00           1565          21.00        68.88
  206.32        2975.25           1568          24.00        81.95
  206.35        2975.50           1571          28.00        99.39
  206.38        2975.75           1575          18.00        55.80
  206.40        2976.00           1578          21.00        68.88
  206.43        2976.25           1581          21.00        68.88
  206.46        2976.50           1585          16.00        47.08
  206.49        2976.75           1588          22.00        73.23
  206.51        2977.00           1591          21.00        68.88
  206.54        2977.25           1595          23.00        77.59
  206.57        2977.50           1598          21.00        68.88
  206.59        2977.75           1601          20.00        64.52
  206.62        2978.00           1605          20.00        64.52
  206.65        2978.25           1608          21.00        68.88
  206.68        2978.50           1611          16.00        47.08
  206.70        2978.75           1615          21.00        68.88
  206.73        2979.00           1618          20.00        64.52
  206.76        2979.25           1621          17.00        51.44
  206.78        2979.50           1625          25.00        86.31
  206.81        2979.75           1628          20.00        64.52
  206.84        2980.00           1631          19.00        60.16
  206.87        2980.25           1635          17.00        51.44
  206.89        2980.50           1638          16.00        47.08
  206.92        2980.75           1641          22.00        73.23
  206.95        2981.00           1645          23.00        77.59
  206.97        2981.25           1648          19.00        60.16
  207.00        2981.50           1651          19.00        60.16
  207.03        2981.75           1655          17.00        51.44
  207.06        2982.00           1658          14.00        38.36
  207.08        2982.25           1661          21.00        68.88
  207.11        2982.50           1665          23.00        77.59
  207.14        2982.75           1668          23.00        77.59
  207.16        2983.00           1671          17.00        51.44
  207.19        2983.25           1675          23.00        77.59
  207.22        2983.50           1678          26.00        90.67
  207.25        2983.75           1681          19.00        60.16
  207.27        2984.00           1685          22.00        73.23
HS scan finished at 03:27:28
end
