************************************************************
  HS Scan of (1) Internal mercury lamp
************************************************************
Integration time is 0.2294 seconds per sample
dh140817Tamanrasset 22.79-5.529 3.419379pr865
************************************************************
Dead Time -------------------------  2.8E-08 
Number of Cycles Used -------------  4 
Starting Wavelength (Angstroms) ---  2950 
Final Wavelength (Angstoms) -------  2984 
Wavelength Increment (Angstroms) --  .25 
Filter Wheel #1 Position ---------- (1) Ground quartz diffuser (ND=2.32)
Filter Wheel #2 Position ---------- (1) Neutral Density 0.494



************************************************************
HS scan start time = 03:25:22
Dark Count =  5.8 


Time (GMT)  Wavelength (Ang)  Step Number  Raw Counts  Counts/Second

  205.72        2950.00           1233          23.00        74.98
  205.78        2950.25           1236          20.00        61.90
  205.81        2950.50           1239          14.00        35.75
  205.83        2950.75           1242          22.00        70.62
  205.86        2951.00           1246          18.00        53.18
  205.89        2951.25           1249          21.00        66.26
  205.92        2951.50           1252          20.00        61.90
  205.94        2951.75           1256          25.00        83.70
  205.97        2952.00           1259          22.00        70.62
  206.00        2952.25           1262          17.00        48.82
  206.03        2952.50           1266          22.00        70.62
  206.05        2952.75           1269          19.00        57.54
  206.08        2953.00           1272          20.00        61.90
  206.11        2953.25           1276          21.00        66.26
  206.13        2953.50           1279          18.00        53.18
  206.16        2953.75           1282          22.00        70.62
  206.19        2954.00           1286          25.00        83.70
  206.22        2954.25           1289          16.00        44.46
  206.24        2954.50           1292          21.00        66.26
  206.27        2954.75           1295          19.00        57.54
  206.30        2955.00           1299          27.00        92.42
  206.32        2955.25           1302          19.00        57.54
  206.35        2955.50           1305          16.00        44.46
  206.38        2955.75           1309          18.00        53.18
  206.41        2956.00           1312          18.00        53.18
  206.43        2956.25           1315          22.00        70.62
  206.46        2956.50           1319          19.00        57.54
  206.49        2956.75           1322          15.00        40.10
  206.51        2957.00           1325          22.00        70.62
  206.54        2957.25           1329          24.00        79.34
  206.57        2957.50           1332          23.00        74.98
  206.60        2957.75           1335          19.00        57.54
  206.62        2958.00           1339          20.00        61.90
  206.65        2958.25           1342          19.00        57.54
  206.68        2958.50           1345          22.00        70.62
  206.70        2958.75           1348          19.00        57.54
  206.73        2959.00           1352          20.00        61.90
  206.76        2959.25           1355          19.00        57.54
  206.79        2959.50           1358          24.00        79.34
  206.81        2959.75           1362          20.00        61.90
  206.84        2960.00           1365          28.00        96.77
  206.87        2960.25           1368          30.00       105.49
  206.90        2960.50           1372          37.00       136.01
  206.92        2960.75           1375          51.00       197.04
  206.95        2961.00           1378         172.00       724.51
  206.98        2961.25           1382         796.00      3444.97
  207.00        2961.50           1385        1768.00      7683.43
  207.03        2961.75           1388        3453.00     15033.36
  207.06        2962.00           1392        6981.00     30432.20
  207.09        2962.25           1395        9829.00     42872.71
  207.11        2962.50           1398       13175.00     57499.65
  207.14        2962.75           1402       17068.00     74532.90
  207.17        2963.00           1405       20166.00     88099.34
  207.19        2963.25           1408       23198.00    101386.80
  207.22        2963.50           1412       27188.00    118887.70
  207.25        2963.75           1415       30328.00    132672.40
  207.28        2964.00           1418       33509.00    146648.00
  207.30        2964.25           1422       37496.00    164180.20
  207.33        2964.50           1425       40945.00    179360.60
  207.36        2964.75           1428       44072.00    193134.90
  207.39        2965.00           1431       47220.00    207012.50
  207.41        2965.25           1435       51546.00    226100.80
  207.44        2965.50           1438       54847.00    240680.20
  207.47        2965.75           1441       57837.00    253896.20
  207.50        2966.00           1445       61864.00    271711.50
  207.52        2966.25           1448       64745.00    284467.80
  207.55        2966.50           1451       66546.00    292446.80
  207.58        2966.75           1455       68276.00    300114.70
  207.61        2967.00           1458       68481.00    301023.60
  207.63        2967.25           1461       68739.00    302167.40
  207.66        2967.50           1465       68549.00    301325.00
  207.69        2967.75           1468       67880.00    298359.20
  207.71        2968.00           1471       66608.00    292721.60
  207.74        2968.25           1475       63384.00    278440.50
  207.77        2968.50           1478       60628.00    266241.60
  207.80        2968.75           1481       57232.00    251221.30
  207.82        2969.00           1485       53266.00    233696.00
  207.85        2969.25           1488       49648.00    217723.40
  207.88        2969.50           1491       46229.00    202642.60
  207.91        2969.75           1495       42010.00    184050.70
  207.93        2970.00           1498       38680.00    169390.00
  207.96        2970.25           1501       35340.00    154697.40
  207.99        2970.50           1505       31080.00    135975.30
  208.02        2970.75           1508       27822.00    121670.10
  208.04        2971.00           1511       24651.00    107758.00
  208.07        2971.25           1515       20372.00     89001.82
  208.10        2971.50           1518       17287.00     75491.57
  208.12        2971.75           1521       14373.00     62739.59
  208.15        2972.00           1525       10131.00     44192.40
  208.18        2972.25           1528        7111.00     30999.87
  208.21        2972.50           1531        4543.00     19789.52
  208.23        2972.75           1535        1834.00      7971.27
  208.26        2973.00           1538         640.00      2764.82
  208.29        2973.25           1541         176.00       741.95
  208.32        2973.50           1545          58.00       227.55
  208.34        2973.75           1548          36.00       131.65
  208.37        2974.00           1551          38.00       140.37
  208.40        2974.25           1555          24.00        79.34
  208.42        2974.50           1558          30.00       105.49
  208.45        2974.75           1561          25.00        83.70
  208.48        2975.00           1565          24.00        79.34
  208.51        2975.25           1568          17.00        48.82
  208.53        2975.50           1571          23.00        74.98
  208.56        2975.75           1575          27.00        92.42
  208.59        2976.00           1578          20.00        61.90
  208.61        2976.25           1581          23.00        74.98
  208.64        2976.50           1585          27.00        92.42
  208.67        2976.75           1588          25.00        83.70
  208.70        2977.00           1591          20.00        61.90
  208.72        2977.25           1595          26.00        88.06
  208.75        2977.50           1598          25.00        83.70
  208.78        2977.75           1601          28.00        96.77
  208.80        2978.00           1605          22.00        70.62
  208.83        2978.25           1608          25.00        83.70
  208.86        2978.50           1611          23.00        74.98
  208.89        2978.75           1615          22.00        70.62
  208.91        2979.00           1618          14.00        35.75
  208.94        2979.25           1621          20.00        61.90
  208.97        2979.50           1625          25.00        83.70
  209.00        2979.75           1628          22.00        70.62
  209.02        2980.00           1631          22.00        70.62
  209.05        2980.25           1635          21.00        66.26
  209.08        2980.50           1638          25.00        83.70
  209.10        2980.75           1641          18.00        53.18
  209.13        2981.00           1645          24.00        79.34
  209.16        2981.25           1648          24.00        79.34
  209.19        2981.50           1651          25.00        83.70
  209.21        2981.75           1655          23.00        74.98
  209.24        2982.00           1658          21.00        66.26
  209.27        2982.25           1661          22.00        70.62
  209.29        2982.50           1665          21.00        66.26
  209.32        2982.75           1668          20.00        61.90
  209.35        2983.00           1671          14.00        35.75
  209.38        2983.25           1675          20.00        61.90
  209.40        2983.50           1678          22.00        70.62
  209.43        2983.75           1681          18.00        53.18
  209.46        2984.00           1685          23.00        74.98
HS scan finished at 03:29:39
end
