************************************************************
  HS Scan of (1) Internal mercury lamp
************************************************************
Integration time is 0.2294 seconds per sample
dh090818Tamanrasset 22.79-5.529 4.974364pr865
************************************************************
Dead Time -------------------------  2.8E-08 
Number of Cycles Used -------------  4 
Starting Wavelength (Angstroms) ---  2950 
Final Wavelength (Angstoms) -------  2984 
Wavelength Increment (Angstroms) --  .25 
Filter Wheel #1 Position ---------- (1) Ground quartz diffuser (ND=2.32)
Filter Wheel #2 Position ---------- (1) Neutral Density 0.494



************************************************************
HS scan start time = 03:23:03
Dark Count =  5 


Time (GMT)  Wavelength (Ang)  Step Number  Raw Counts  Counts/Second

  203.41        2950.00           1233          16.00        47.95
  203.47        2950.25           1236          21.00        69.75
  203.50        2950.50           1239          23.00        78.47
  203.52        2950.75           1242          19.00        61.03
  203.55        2951.00           1246          20.00        65.39
  203.58        2951.25           1249          17.00        52.31
  203.61        2951.50           1252          19.00        61.03
  203.63        2951.75           1256          21.00        69.75
  203.66        2952.00           1259          16.00        47.95
  203.69        2952.25           1262          16.00        47.95
  203.71        2952.50           1266          19.00        61.03
  203.74        2952.75           1269          20.00        65.39
  203.77        2953.00           1272          21.00        69.75
  203.80        2953.25           1276          22.00        74.11
  203.82        2953.50           1279          22.00        74.11
  203.85        2953.75           1282          25.00        87.18
  203.88        2954.00           1286          17.00        52.31
  203.90        2954.25           1289          20.00        65.39
  203.93        2954.50           1292          19.00        61.03
  203.96        2954.75           1295          17.00        52.31
  203.99        2955.00           1299          17.00        52.31
  204.01        2955.25           1302          17.00        52.31
  204.04        2955.50           1305          19.00        61.03
  204.07        2955.75           1309          21.00        69.75
  204.10        2956.00           1312          24.00        82.82
  204.12        2956.25           1315          14.00        39.23
  204.15        2956.50           1319          20.00        65.39
  204.18        2956.75           1322          20.00        65.39
  204.20        2957.00           1325          18.00        56.67
  204.23        2957.25           1329          16.00        47.95
  204.26        2957.50           1332          19.00        61.03
  204.29        2957.75           1335          20.00        65.39
  204.31        2958.00           1339          18.00        56.67
  204.34        2958.25           1342          20.00        65.39
  204.37        2958.50           1345          21.00        69.75
  204.40        2958.75           1348          19.00        61.03
  204.42        2959.00           1352          21.00        69.75
  204.45        2959.25           1355          19.00        61.03
  204.48        2959.50           1358          18.00        56.67
  204.50        2959.75           1362          27.00        95.90
  204.53        2960.00           1365          26.00        91.54
  204.56        2960.25           1368          32.00       117.70
  204.59        2960.50           1372          34.00       126.42
  204.61        2960.75           1375          40.00       152.57
  204.64        2961.00           1378         114.00       475.16
  204.67        2961.25           1382         585.00      2528.51
  204.69        2961.50           1385        1377.00      5981.82
  204.72        2961.75           1388        2808.00     12223.01
  204.75        2962.00           1392        5548.00     24179.40
  204.78        2962.25           1395        8162.00     35593.43
  204.80        2962.50           1398       11157.00     48680.09
  204.83        2962.75           1402       14876.00     64943.62
  204.86        2963.00           1405       17492.00     76392.53
  204.88        2963.25           1408       20541.00     89745.72
  204.91        2963.50           1412       24421.00    106752.80
  204.94        2963.75           1415       27213.00    119000.90
  204.97        2964.00           1418       30123.00    131775.70
  204.99        2964.25           1422       34259.00    149948.20
  205.02        2964.50           1425       36872.00    161438.70
  205.05        2964.75           1428       39839.00    174494.80
  205.08        2965.00           1431       42500.00    186212.50
  205.10        2965.25           1435       46551.00    204065.90
  205.13        2965.50           1438       49564.00    217356.30
  205.16        2965.75           1441       52693.00    231168.90
  205.19        2966.00           1445       56409.00    247586.60
  205.21        2966.25           1448       58622.00    257371.20
  205.24        2966.50           1451       60871.00    267320.40
  205.27        2966.75           1455       62417.00    274162.90
  205.29        2967.00           1458       63081.00    277102.50
  205.32        2967.25           1461       63446.00    278718.60
  205.35        2967.50           1465       63178.00    277532.00
  205.38        2967.75           1468       62499.00    274525.80
  205.40        2968.00           1471       61078.00    268236.40
  205.43        2968.25           1475       58763.00    257994.70
  205.46        2968.50           1478       56234.00    246813.10
  205.49        2968.75           1481       53513.00    234790.50
  205.51        2969.00           1485       49121.00    215401.60
  205.54        2969.25           1488       45924.00    201301.40
  205.57        2969.50           1491       42894.00    187948.10
  205.59        2969.75           1495       38966.00    170652.20
  205.62        2970.00           1498       35879.00    157071.20
  205.65        2970.25           1501       32979.00    144322.20
  205.68        2970.50           1505       28936.00    126563.70
  205.70        2970.75           1508       25996.00    113661.10
  205.73        2971.00           1511       22998.00    100513.50
  205.76        2971.25           1515       19192.00     83836.50
  205.79        2971.50           1518       16250.00     70956.01
  205.81        2971.75           1521       13524.00     59029.48
  205.84        2972.00           1525        9731.00     42447.98
  205.87        2972.25           1528        7035.00     30671.49
  205.90        2972.50           1531        4414.00     19230.06
  205.92        2972.75           1535        1890.00      8218.98
  205.95        2973.00           1538         747.00      3234.82
  205.98        2973.25           1541         237.00      1011.36
  206.00        2973.50           1545          54.00       213.60
  206.03        2973.75           1548          41.00       156.93
  206.06        2974.00           1551          32.00       117.70
  206.09        2974.25           1555          31.00       113.34
  206.11        2974.50           1558          23.00        78.47
  206.14        2974.75           1561          23.00        78.47
  206.17        2975.00           1565          25.00        87.18
  206.19        2975.25           1568          24.00        82.82
  206.22        2975.50           1571          24.00        82.82
  206.25        2975.75           1575          18.00        56.67
  206.28        2976.00           1578          19.00        61.03
  206.30        2976.25           1581          24.00        82.82
  206.33        2976.50           1585          24.00        82.82
  206.36        2976.75           1588          24.00        82.82
  206.38        2977.00           1591          21.00        69.75
  206.41        2977.25           1595          19.00        61.03
  206.44        2977.50           1598          23.00        78.47
  206.47        2977.75           1601          21.00        69.75
  206.49        2978.00           1605          23.00        78.47
  206.52        2978.25           1608          21.00        69.75
  206.55        2978.50           1611          22.00        74.11
  206.57        2978.75           1615          21.00        69.75
  206.60        2979.00           1618          19.00        61.03
  206.63        2979.25           1621          21.00        69.75
  206.66        2979.50           1625          22.00        74.11
  206.68        2979.75           1628          18.00        56.67
  206.71        2980.00           1631          19.00        61.03
  206.74        2980.25           1635          21.00        69.75
  206.76        2980.50           1638          17.00        52.31
  206.79        2980.75           1641          24.00        82.82
  206.82        2981.00           1645          19.00        61.03
  206.85        2981.25           1648          22.00        74.11
  206.87        2981.50           1651          19.00        61.03
  206.90        2981.75           1655          19.00        61.03
  206.93        2982.00           1658          22.00        74.11
  206.95        2982.25           1661          19.00        61.03
  206.98        2982.50           1665          19.00        61.03
  207.01        2982.75           1668          21.00        69.75
  207.04        2983.00           1671          19.00        61.03
  207.06        2983.25           1675          23.00        78.47
  207.09        2983.50           1678          22.00        74.11
  207.12        2983.75           1681          18.00        56.67
  207.14        2984.00           1685          18.00        56.67
HS scan finished at 03:27:20
end
