************************************************************
  HS Scan of (1) Internal mercury lamp
************************************************************
Integration time is 0.2294 seconds per sample
dh100817Tamanrasset 22.79-5.529 3.455067pr865
************************************************************
Dead Time -------------------------  2.8E-08 
Number of Cycles Used -------------  4 
Starting Wavelength (Angstroms) ---  2950 
Final Wavelength (Angstoms) -------  2984 
Wavelength Increment (Angstroms) --  .25 
Filter Wheel #1 Position ---------- (1) Ground quartz diffuser (ND=2.32)
Filter Wheel #2 Position ---------- (1) Neutral Density 0.494



************************************************************
HS scan start time = 03:24:17
Dark Count =  7.2 


Time (GMT)  Wavelength (Ang)  Step Number  Raw Counts  Counts/Second

  204.64        2950.00           1233          19.00        51.44
  204.70        2950.25           1236          19.00        51.44
  204.73        2950.50           1239          18.00        47.08
  204.76        2950.75           1242          22.00        64.52
  204.78        2951.00           1246          24.00        73.23
  204.81        2951.25           1249          23.00        68.88
  204.84        2951.50           1252          17.00        42.72
  204.86        2951.75           1256          20.00        55.80
  204.89        2952.00           1259          23.00        68.88
  204.92        2952.25           1262          18.00        47.08
  204.95        2952.50           1266          18.00        47.08
  204.97        2952.75           1269          21.00        60.16
  205.00        2953.00           1272          19.00        51.44
  205.03        2953.25           1276          21.00        60.16
  205.06        2953.50           1279          21.00        60.16
  205.08        2953.75           1282          22.00        64.52
  205.11        2954.00           1286          21.00        60.16
  205.14        2954.25           1289          19.00        51.44
  205.16        2954.50           1292          16.00        38.36
  205.19        2954.75           1295          21.00        60.16
  205.22        2955.00           1299          22.00        64.52
  205.25        2955.25           1302          24.00        73.23
  205.27        2955.50           1305          19.00        51.44
  205.30        2955.75           1309          21.00        60.16
  205.33        2956.00           1312          26.00        81.95
  205.35        2956.25           1315          24.00        73.23
  205.38        2956.50           1319          19.00        51.44
  205.41        2956.75           1322          16.00        38.36
  205.44        2957.00           1325          21.00        60.16
  205.46        2957.25           1329          17.00        42.72
  205.49        2957.50           1332          16.00        38.36
  205.52        2957.75           1335          19.00        51.44
  205.54        2958.00           1339          20.00        55.80
  205.57        2958.25           1342          15.00        34.00
  205.60        2958.50           1345          23.00        68.88
  205.63        2958.75           1348          19.00        51.44
  205.65        2959.00           1352          21.00        60.16
  205.68        2959.25           1355          21.00        60.16
  205.71        2959.50           1358          19.00        51.44
  205.73        2959.75           1362          26.00        81.95
  205.76        2960.00           1365          30.00        99.39
  205.79        2960.25           1368          29.00        95.03
  205.82        2960.50           1372          35.00       121.19
  205.84        2960.75           1375          67.00       260.68
  205.87        2961.00           1378         246.00      1041.01
  205.90        2961.25           1382         992.00      4293.45
  205.92        2961.50           1385        2253.00      9792.57
  205.95        2961.75           1388        4169.00     18151.33
  205.98        2962.00           1392        7640.00     33303.93
  206.01        2962.25           1395       10633.00     46380.16
  206.03        2962.50           1398       13773.00     60108.93
  206.06        2962.75           1402       17825.00     77840.79
  206.09        2963.00           1405       21126.00     92299.26
  206.12        2963.25           1408       24469.00    106953.70
  206.14        2963.50           1412       28330.00    123893.70
  206.17        2963.75           1415       31538.00    137981.10
  206.20        2964.00           1418       34606.00    151464.00
  206.23        2964.25           1422       38951.00    170576.50
  206.25        2964.50           1425       41806.00    183146.00
  206.28        2964.75           1428       45104.00    197677.00
  206.31        2965.00           1431       48571.00    212965.40
  206.33        2965.25           1435       52875.00    231962.90
  206.36        2965.50           1438       55976.00    245663.10
  206.39        2965.75           1441       58995.00    259011.20
  206.42        2966.00           1445       63467.00    278801.90
  206.44        2966.25           1448       65589.00    288200.40
  206.47        2966.50           1451       67295.00    295760.00
  206.50        2966.75           1455       68737.00    302152.30
  206.53        2967.00           1458       69305.00    304670.90
  206.55        2967.25           1461       69253.00    304440.30
  206.58        2967.50           1465       68970.00    303185.40
  206.61        2967.75           1468       68003.00    298898.30
  206.64        2968.00           1471       66490.00    292192.50
  206.66        2968.25           1475       63155.00    277420.40
  206.69        2968.50           1478       60106.00    263925.80
  206.72        2968.75           1481       57091.00    250591.70
  206.75        2969.00           1485       52653.00    230982.50
  206.77        2969.25           1488       49300.00    216181.70
  206.80        2969.50           1491       46297.00    202936.30
  206.83        2969.75           1495       41674.00    182564.70
  206.85        2970.00           1498       38208.00    167306.80
  206.88        2970.25           1501       35050.00    153416.10
  206.91        2970.50           1505       30557.00    133672.00
  206.94        2970.75           1508       27280.00    119285.30
  206.96        2971.00           1511       24108.00    105370.60
  206.99        2971.25           1515       19613.00     85670.84
  207.02        2971.50           1518       16339.00     71335.90
  207.05        2971.75           1521       13282.00     57961.47
  207.07        2972.00           1525        9391.00     40952.77
  207.10        2972.25           1528        6409.00     27928.54
  207.13        2972.50           1531        3767.00     16397.24
  207.15        2972.75           1535        1356.00      5880.65
  207.18        2973.00           1538         474.00      2034.99
  207.21        2973.25           1541         118.00       483.01
  207.24        2973.50           1545          49.00       182.22
  207.26        2973.75           1548          45.00       164.78
  207.29        2974.00           1551          33.00       112.47
  207.32        2974.25           1555          32.00       108.11
  207.35        2974.50           1558          25.00        77.59
  207.37        2974.75           1561          26.00        81.95
  207.40        2975.00           1565          26.00        81.95
  207.43        2975.25           1568          30.00        99.39
  207.45        2975.50           1571          25.00        77.59
  207.48        2975.75           1575          25.00        77.59
  207.51        2976.00           1578          21.00        60.16
  207.54        2976.25           1581          24.00        73.23
  207.56        2976.50           1585          22.00        64.52
  207.59        2976.75           1588          23.00        68.88
  207.62        2977.00           1591          23.00        68.88
  207.64        2977.25           1595          21.00        60.16
  207.67        2977.50           1598          24.00        73.23
  207.70        2977.75           1601          21.00        60.16
  207.73        2978.00           1605          20.00        55.80
  207.75        2978.25           1608          23.00        68.88
  207.78        2978.50           1611          25.00        77.59
  207.81        2978.75           1615          28.00        90.67
  207.83        2979.00           1618          28.00        90.67
  207.86        2979.25           1621          21.00        60.16
  207.89        2979.50           1625          22.00        64.52
  207.92        2979.75           1628          24.00        73.23
  207.94        2980.00           1631          26.00        81.95
  207.97        2980.25           1635          23.00        68.88
  208.00        2980.50           1638          19.00        51.44
  208.02        2980.75           1641          24.00        73.23
  208.05        2981.00           1645          19.00        51.44
  208.08        2981.25           1648          20.00        55.80
  208.11        2981.50           1651          17.00        42.72
  208.13        2981.75           1655          22.00        64.52
  208.16        2982.00           1658          23.00        68.88
  208.19        2982.25           1661          21.00        60.16
  208.21        2982.50           1665          22.00        64.52
  208.24        2982.75           1668          23.00        68.88
  208.27        2983.00           1671          17.00        42.72
  208.30        2983.25           1675          23.00        68.88
  208.32        2983.50           1678          20.00        55.80
  208.35        2983.75           1681          23.00        68.88
  208.38        2984.00           1685          22.00        64.52
HS scan finished at 03:28:34
end
