************************************************************
  HS Scan of (1) Internal mercury lamp
************************************************************
Integration time is 0.2294 seconds per sample
dh291018Tamanrasset 22.79-5.529 4.974364pr865
************************************************************
Dead Time -------------------------  2.8E-08 
Number of Cycles Used -------------  4 
Starting Wavelength (Angstroms) ---  2950 
Final Wavelength (Angstoms) -------  2984 
Wavelength Increment (Angstroms) --  .25 
Filter Wheel #1 Position ---------- (1) Ground quartz diffuser (ND=2.32)
Filter Wheel #2 Position ---------- (1) Neutral Density 0.494



************************************************************
HS scan start time = 03:53:11
Dark Count =  5.4 


Time (GMT)  Wavelength (Ang)  Step Number  Raw Counts  Counts/Second

  233.54        2950.00           1233          20.00        63.64
  233.61        2950.25           1236          19.00        59.29
  233.63        2950.50           1239          18.00        54.93
  233.66        2950.75           1242          20.00        63.64
  233.69        2951.00           1246          18.00        54.93
  233.71        2951.25           1249          25.00        85.44
  233.74        2951.50           1252          19.00        59.29
  233.77        2951.75           1256          17.00        50.57
  233.80        2952.00           1259          17.00        50.57
  233.82        2952.25           1262          19.00        59.29
  233.85        2952.50           1266          18.00        54.93
  233.88        2952.75           1269          18.00        54.93
  233.90        2953.00           1272          19.00        59.29
  233.93        2953.25           1276          21.00        68.00
  233.96        2953.50           1279          17.00        50.57
  233.99        2953.75           1282          21.00        68.00
  234.01        2954.00           1286          20.00        63.64
  234.04        2954.25           1289          20.00        63.64
  234.07        2954.50           1292          18.00        54.93
  234.09        2954.75           1295          20.00        63.64
  234.12        2955.00           1299          19.00        59.29
  234.15        2955.25           1302          17.00        50.57
  234.18        2955.50           1305          18.00        54.93
  234.20        2955.75           1309          19.00        59.29
  234.23        2956.00           1312          20.00        63.64
  234.26        2956.25           1315          22.00        72.36
  234.29        2956.50           1319          16.00        46.21
  234.31        2956.75           1322          17.00        50.57
  234.34        2957.00           1325          19.00        59.29
  234.37        2957.25           1329          19.00        59.29
  234.39        2957.50           1332          19.00        59.29
  234.42        2957.75           1335          18.00        54.93
  234.45        2958.00           1339          24.00        81.08
  234.48        2958.25           1342          19.00        59.29
  234.50        2958.50           1345          23.00        76.72
  234.53        2958.75           1348          22.00        72.36
  234.56        2959.00           1352          22.00        72.36
  234.58        2959.25           1355          20.00        63.64
  234.61        2959.50           1358          17.00        50.57
  234.64        2959.75           1362          23.00        76.72
  234.67        2960.00           1365          25.00        85.44
  234.69        2960.25           1368          28.00        98.52
  234.72        2960.50           1372          30.00       107.24
  234.75        2960.75           1375          34.00       124.67
  234.77        2961.00           1378          95.00       390.59
  234.80        2961.25           1382         572.00      2470.09
  234.83        2961.50           1385        1340.00      5818.73
  234.86        2961.75           1388        2609.00     11353.22
  234.88        2962.00           1392        5258.00     22911.82
  234.91        2962.25           1395        7545.00     32896.90
  234.94        2962.50           1398       10050.00     43840.19
  234.97        2962.75           1402       13216.00     57680.71
  234.99        2963.00           1405       15792.00     68949.91
  235.02        2963.25           1408       18326.00     80042.32
  235.05        2963.50           1412       21500.00     93946.02
  235.08        2963.75           1415       24068.00    105203.10
  235.10        2964.00           1418       26756.00    116993.80
  235.13        2964.25           1422       29853.00    130588.20
  235.16        2964.50           1425       32379.00    141683.90
  235.18        2964.75           1428       34998.00    153195.40
  235.21        2965.00           1431       37422.00    163856.40
  235.24        2965.25           1435       41046.00    179807.10
  235.27        2965.50           1438       43696.00    191479.90
  235.29        2965.75           1441       46306.00    202983.90
  235.32        2966.00           1445       49765.00    218241.50
  235.35        2966.25           1448       51461.00    225727.40
  235.37        2966.50           1451       53296.00    233830.20
  235.40        2966.75           1455       54527.00    239268.10
  235.43        2967.00           1458       55109.00    241839.60
  235.46        2967.25           1461       55058.00    241614.20
  235.48        2967.50           1465       54810.00    240518.50
  235.51        2967.75           1468       54466.00    238998.60
  235.54        2968.00           1471       53188.00    233353.20
  235.57        2968.25           1475       51043.00    223882.10
  235.59        2968.50           1478       49153.00    215541.00
  235.62        2968.75           1481       46291.00    202917.80
  235.65        2969.00           1485       43140.00    189030.10
  235.68        2969.25           1488       40325.00    176632.50
  235.70        2969.50           1491       37666.00    164929.90
  235.73        2969.75           1495       34342.00    150311.40
  235.76        2970.00           1498       31675.00    138590.80
  235.79        2970.25           1501       28907.00    126434.60
  235.81        2970.50           1505       25305.00    110628.10
  235.84        2970.75           1508       22932.00    100222.40
  235.87        2971.00           1511       20346.00     88889.66
  235.89        2971.25           1515       17046.00     74438.34
  235.92        2971.50           1518       14229.00     62111.41
  235.95        2971.75           1521       11785.00     51423.60
  235.98        2972.00           1525        8570.00     37373.88
  236.00        2972.25           1528        6056.00     26395.26
  236.03        2972.50           1531        3834.00     16697.43
  236.06        2972.75           1535        1674.00      7275.24
  236.09        2973.00           1538         684.00      2958.40
  236.11        2973.25           1541         223.00       948.59
  236.14        2973.50           1545          54.00       211.86
  236.17        2973.75           1548          35.00       129.03
  236.19        2974.00           1551          36.00       133.39
  236.22        2974.25           1555          29.00       102.88
  236.25        2974.50           1558          25.00        85.44
  236.28        2974.75           1561          23.00        76.72
  236.30        2975.00           1565          28.00        98.52
  236.33        2975.25           1568          20.00        63.64
  236.36        2975.50           1571          22.00        72.36
  236.38        2975.75           1575          21.00        68.00
  236.41        2976.00           1578          21.00        68.00
  236.44        2976.25           1581          19.00        59.29
  236.47        2976.50           1585          25.00        85.44
  236.49        2976.75           1588          20.00        63.64
  236.52        2977.00           1591          18.00        54.93
  236.55        2977.25           1595          24.00        81.08
  236.57        2977.50           1598          23.00        76.72
  236.60        2977.75           1601          20.00        63.64
  236.63        2978.00           1605          22.00        72.36
  236.66        2978.25           1608          19.00        59.29
  236.68        2978.50           1611          20.00        63.64
  236.71        2978.75           1615          24.00        81.08
  236.74        2979.00           1618          21.00        68.00
  236.76        2979.25           1621          19.00        59.29
  236.79        2979.50           1625          20.00        63.64
  236.82        2979.75           1628          25.00        85.44
  236.85        2980.00           1631          15.00        41.85
  236.87        2980.25           1635          23.00        76.72
  236.90        2980.50           1638          17.00        50.57
  236.93        2980.75           1641          21.00        68.00
  236.95        2981.00           1645          22.00        72.36
  236.98        2981.25           1648          21.00        68.00
  237.01        2981.50           1651          19.00        59.29
  237.04        2981.75           1655          21.00        68.00
  237.06        2982.00           1658          24.00        81.08
  237.09        2982.25           1661          18.00        54.93
  237.12        2982.50           1665          16.00        46.21
  237.14        2982.75           1668          21.00        68.00
  237.17        2983.00           1671          17.00        50.57
  237.20        2983.25           1675          20.00        63.64
  237.23        2983.50           1678          19.00        59.29
  237.25        2983.75           1681          18.00        54.93
  237.28        2984.00           1685          23.00        76.72
HS scan finished at 03:57:28
end
