************************************************************
  HS Scan of (1) Internal mercury lamp
************************************************************
Integration time is 0.2294 seconds per sample
dh310718arosa 46.7828-9.6754 3.138972pr812
************************************************************
Dead Time -------------------------  3E-08 
Number of Cycles Used -------------  4 
Starting Wavelength (Angstroms) ---  2950 
Final Wavelength (Angstoms) -------  2984 
Wavelength Increment (Angstroms) --  .25 
Filter Wheel #1 Position ---------- (1) Ground quartz diffuser (ND=2.32)
Filter Wheel #2 Position ---------- (1) Neutral Density 0.494



************************************************************
HS scan start time = 02:47:32
Dark Count =  6.8 


Time (GMT)  Wavelength (Ang)  Step Number  Raw Counts  Counts/Second

  167.86        2950.00           1230         125.00       515.27
  167.92        2950.25           1234         132.00       545.78
  167.95        2950.50           1237         118.00       484.75
  167.98        2950.75           1240         135.00       558.86
  168.01        2951.00           1244         118.00       484.75
  168.04        2951.25           1247         121.00       497.83
  168.07        2951.50           1250         119.00       489.11
  168.10        2951.75           1254         128.00       528.34
  168.13        2952.00           1257         136.00       563.22
  168.16        2952.25           1260         127.00       523.98
  168.19        2952.50           1264         138.00       571.94
  168.22        2952.75           1267         121.00       497.83
  168.25        2953.00           1270         133.00       550.14
  168.28        2953.25           1274         131.00       541.42
  168.31        2953.50           1277         130.00       537.06
  168.34        2953.75           1280         124.00       510.91
  168.37        2954.00           1284         131.00       541.42
  168.40        2954.25           1287         125.00       515.27
  168.43        2954.50           1290         132.00       545.78
  168.46        2954.75           1294         123.00       506.55
  168.49        2955.00           1297         120.00       493.47
  168.51        2955.25           1300         124.00       510.91
  168.54        2955.50           1304         110.00       449.88
  168.57        2955.75           1307         136.00       563.22
  168.60        2956.00           1310         130.00       537.06
  168.63        2956.25           1314         120.00       493.47
  168.66        2956.50           1317         133.00       550.14
  168.69        2956.75           1320         118.00       484.75
  168.72        2957.00           1324         115.00       471.67
  168.75        2957.25           1327         114.00       467.31
  168.78        2957.50           1330         120.00       493.47
  168.81        2957.75           1334         120.00       493.47
  168.84        2958.00           1337         111.00       454.23
  168.87        2958.25           1340         119.00       489.11
  168.90        2958.50           1344         114.00       467.31
  168.93        2958.75           1347         121.00       497.83
  168.96        2959.00           1350         120.00       493.47
  168.99        2959.25           1354         120.00       493.47
  169.02        2959.50           1357         127.00       523.98
  169.05        2959.75           1360         126.00       519.62
  169.08        2960.00           1364         124.00       510.91
  169.11        2960.25           1367         132.00       545.78
  169.14        2960.50           1370         151.00       628.61
  169.16        2960.75           1374         352.00      1504.86
  169.19        2961.00           1377         942.00      4077.22
  169.22        2961.25           1380        2060.00      8952.71
  169.25        2961.50           1384        4727.00     20589.00
  169.28        2961.75           1387        7679.00     33478.25
  169.31        2962.00           1391       12326.00     53788.56
  169.34        2962.25           1394       16638.00     72656.90
  169.37        2962.50           1397       21241.00     92822.19
  169.40        2962.75           1401       26925.00    117757.00
  169.43        2963.00           1404       32008.00    140087.10
  169.46        2963.25           1407       36656.00    160532.40
  169.49        2963.50           1411       43319.00    189885.10
  169.52        2963.75           1414       48071.00    210850.90
  169.55        2964.00           1417       53011.00    232674.30
  169.58        2964.25           1421       59758.00    262526.80
  169.61        2964.50           1424       64990.00    285713.10
  169.64        2964.75           1427       70218.00    308914.10
  169.66        2965.00           1431       76690.00    337680.90
  169.69        2965.25           1434       81594.00    359511.40
  169.72        2965.50           1437       86370.00    380799.80
  169.75        2965.75           1441       92122.00    406475.00
  169.78        2966.00           1444       96154.00    424496.30
  169.81        2966.25           1447       99508.00    439502.30
  169.84        2966.50           1451      103217.00    456112.40
  169.87        2966.75           1454      105215.00    465067.00
  169.90        2967.00           1457      106505.00    470851.00
  169.93        2967.25           1461      106585.00    471209.80
  169.96        2967.50           1464      105950.00    468362.30
  169.99        2967.75           1467      104513.00    461920.20
  170.02        2968.00           1471      101755.00    449563.10
  170.05        2968.25           1474       98257.00    433903.70
  170.08        2968.50           1477       94272.00    416082.20
  170.11        2968.75           1481       88468.00    390160.00
  170.14        2969.00           1484       83602.00    368458.50
  170.17        2969.25           1487       79437.00    349905.80
  170.19        2969.50           1491       72633.00    319642.50
  170.23        2969.75           1494       68478.00    301188.70
  170.25        2970.00           1498       62061.00    272728.90
  170.28        2970.25           1501       57273.00    251525.50
  170.31        2970.50           1504       52849.00    231958.20
  170.34        2970.75           1508       46483.00    203841.70
  170.37        2971.00           1511       41343.00    181174.70
  170.40        2971.25           1514       36359.00    159225.20
  170.43        2971.50           1518       29774.00    130269.20
  170.46        2971.75           1521       24443.00    106864.30
  170.49        2972.00           1524       19651.00     85853.80
  170.52        2972.25           1528       13540.00     59098.59
  170.55        2972.50           1531        9437.00     41158.90
  170.58        2972.75           1534        6448.00     28102.15
  170.61        2973.00           1538        3187.00     13868.89
  170.64        2973.25           1541        1656.00      7190.74
  170.67        2973.50           1544         767.00      3314.19
  170.70        2973.75           1548         310.00      1321.76
  170.73        2974.00           1551         183.00       768.11
  170.76        2974.25           1554         161.00       672.20
  170.79        2974.50           1558         140.00       580.66
  170.82        2974.75           1561         136.00       563.22
  170.85        2975.00           1565         119.00       489.11
  170.87        2975.25           1568         114.00       467.31
  170.90        2975.50           1571         117.00       480.39
  170.93        2975.75           1575         105.00       428.08
  170.96        2976.00           1578         113.00       462.95
  170.99        2976.25           1581         117.00       480.39
  171.02        2976.50           1585         121.00       497.83
  171.05        2976.75           1588         118.00       484.75
  171.08        2977.00           1591         115.00       471.67
  171.11        2977.25           1595         109.00       445.52
  171.14        2977.50           1598         116.00       476.03
  171.17        2977.75           1601         114.00       467.31
  171.20        2978.00           1605         113.00       462.95
  171.23        2978.25           1608         107.00       436.80
  171.26        2978.50           1611         107.00       436.80
  171.29        2978.75           1615         110.00       449.88
  171.32        2979.00           1618         114.00       467.31
  171.35        2979.25           1622         105.00       428.08
  171.37        2979.50           1625         103.00       419.36
  171.40        2979.75           1628         113.00       462.95
  171.43        2980.00           1632         116.00       476.03
  171.46        2980.25           1635         105.00       428.08
  171.49        2980.50           1638         106.00       432.44
  171.52        2980.75           1642         114.00       467.31
  171.55        2981.00           1645          95.00       384.49
  171.58        2981.25           1648         108.00       441.16
  171.61        2981.50           1652         107.00       436.80
  171.64        2981.75           1655         112.00       458.59
  171.67        2982.00           1658         108.00       441.16
  171.70        2982.25           1662         107.00       436.80
  171.73        2982.50           1665         106.00       432.44
  171.76        2982.75           1669         103.00       419.36
  171.79        2983.00           1672         106.00       432.44
  171.82        2983.25           1675         100.00       406.28
  171.85        2983.50           1679         114.00       467.31
  171.88        2983.75           1682         102.00       415.00
  171.91        2984.00           1685         100.00       406.28
HS scan finished at 02:52:08
end
************************************************************
  HS Scan of (1) Internal mercury lamp
************************************************************
Integration time is 0.2294 seconds per sample
dh310718arosa 46.7828-9.6754 3.251135pr812
************************************************************
Dead Time -------------------------  3E-08 
Number of Cycles Used -------------  4 
Starting Wavelength (Angstroms) ---  2950 
Final Wavelength (Angstoms) -------  2984 
Wavelength Increment (Angstroms) --  .25 
Filter Wheel #1 Position ---------- (1) Ground quartz diffuser (ND=2.32)
Filter Wheel #2 Position ---------- (1) Neutral Density 0.494



************************************************************
HS scan start time = 19:53:27
Dark Count =  3.2 


Time (GMT)  Wavelength (Ang)  Step Number  Raw Counts  Counts/Second

 1193.78        2950.00           1230         117.00       496.08
 1193.85        2950.25           1234         123.00       522.24
 1193.88        2950.50           1237         120.00       509.16
 1193.91        2950.75           1240         123.00       522.24
 1193.94        2951.00           1244         121.00       513.52
 1193.96        2951.25           1247         118.00       500.44
 1193.99        2951.50           1250         121.00       513.52
 1194.02        2951.75           1254         120.00       509.16
 1194.05        2952.00           1257         130.00       552.76
 1194.08        2952.25           1260         126.00       535.32
 1194.11        2952.50           1264         118.00       500.44
 1194.14        2952.75           1267         126.00       535.32
 1194.17        2953.00           1270         117.00       496.08
 1194.20        2953.25           1274         118.00       500.44
 1194.23        2953.50           1277         118.00       500.44
 1194.26        2953.75           1280         120.00       509.16
 1194.29        2954.00           1284         112.00       474.29
 1194.32        2954.25           1287         110.00       465.57
 1194.35        2954.50           1290         105.00       443.77
 1194.38        2954.75           1294         117.00       496.08
 1194.41        2955.00           1297         128.00       544.04
 1194.44        2955.25           1300         118.00       500.44
 1194.47        2955.50           1304         118.00       500.44
 1194.50        2955.75           1307         117.00       496.08
 1194.53        2956.00           1310         131.00       557.11
 1194.55        2956.25           1314         120.00       509.16
 1194.58        2956.50           1317         112.00       474.29
 1194.61        2956.75           1320         110.00       465.57
 1194.64        2957.00           1324         122.00       517.88
 1194.67        2957.25           1327         116.00       491.72
 1194.70        2957.50           1330         114.00       483.01
 1194.73        2957.75           1334         117.00       496.08
 1194.76        2958.00           1337         111.00       469.93
 1194.79        2958.25           1340         117.00       496.08
 1194.82        2958.50           1344         119.00       504.80
 1194.85        2958.75           1347         106.00       448.13
 1194.88        2959.00           1350         121.00       513.52
 1194.91        2959.25           1354         134.00       570.19
 1194.94        2959.50           1357         122.00       517.88
 1194.97        2959.75           1360         119.00       504.80
 1195.00        2960.00           1364         135.00       574.55
 1195.03        2960.25           1367         128.00       544.04
 1195.06        2960.50           1370         163.00       696.61
 1195.09        2960.75           1374         400.00      1729.82
 1195.12        2961.00           1377        1035.00      4498.43
 1195.15        2961.25           1380        2393.00     10420.87
 1195.18        2961.50           1384        5232.00     22808.98
 1195.20        2961.75           1387        8186.00     35708.68
 1195.23        2962.00           1391       13283.00     57990.07
 1195.26        2962.25           1394       17535.00     76600.41
 1195.29        2962.50           1397       22131.00     96739.82
 1195.32        2962.75           1401       28574.00    125013.80
 1195.35        2963.00           1404       33504.00    146680.70
 1195.38        2963.25           1407       37986.00    166403.20
 1195.41        2963.50           1411       45032.00    197455.70
 1195.44        2963.75           1414       50179.00    220175.80
 1195.47        2964.00           1417       54922.00    241140.10
 1195.50        2964.25           1421       61477.00    270157.20
 1195.53        2964.50           1424       67217.00    295608.20
 1195.56        2964.75           1427       72505.00    319089.70
 1195.59        2965.00           1431       79284.00    349240.60
 1195.62        2965.25           1434       84238.00    371309.30
 1195.65        2965.50           1437       89110.00    393041.50
 1195.68        2965.75           1441       95378.00    421042.50
 1195.70        2966.00           1444       99113.00    437750.40
 1195.73        2966.25           1447      102891.00    454667.90
 1195.76        2966.50           1451      106624.00    471400.80
 1195.79        2966.75           1454      108910.00    481656.10
 1195.82        2967.00           1457      110034.00    486700.80
 1195.85        2967.25           1461      110344.00    488092.30
 1195.88        2967.50           1464      109386.00    483792.20
 1195.91        2967.75           1467      107682.00    476146.30
 1195.94        2968.00           1471      104794.00    463195.90
 1195.97        2968.25           1474      101364.00    447828.10
 1196.00        2968.50           1477       96868.00    427705.80
 1196.03        2968.75           1481       90644.00    399889.90
 1196.06        2969.00           1484       86016.00    379237.00
 1196.09        2969.25           1487       80984.00    356810.40
 1196.12        2969.50           1491       74436.00    327672.60
 1196.15        2969.75           1494       69904.00    307535.70
 1196.18        2970.00           1498       63216.00    277863.80
 1196.21        2970.25           1501       58502.00    256981.40
 1196.24        2970.50           1504       54107.00    237535.90
 1196.27        2970.75           1508       47129.00    206708.60
 1196.30        2971.00           1511       42044.00    184280.10
 1196.33        2971.25           1514       37220.00    163030.90
 1196.35        2971.50           1518       30107.00    131748.10
 1196.38        2971.75           1521       24805.00    108468.40
 1196.41        2972.00           1524       19682.00     86005.41
 1196.44        2972.25           1528       13253.00     57858.84
 1196.47        2972.50           1531        9188.00     40086.54
 1196.50        2972.75           1534        6156.00     26842.88
 1196.53        2973.00           1538        3097.00     13491.95
 1196.56        2973.25           1541        1588.00      6909.89
 1196.59        2973.50           1544         725.00      3146.77
 1196.62        2973.75           1548         324.00      1398.49
 1196.65        2974.00           1551         191.00       818.68
 1196.68        2974.25           1554         150.00       639.94
 1196.71        2974.50           1558         130.00       552.76
 1196.74        2974.75           1561         132.00       561.47
 1196.77        2975.00           1565         122.00       517.88
 1196.80        2975.25           1568         118.00       500.44
 1196.83        2975.50           1571         114.00       483.01
 1196.86        2975.75           1575         111.00       469.93
 1196.88        2976.00           1578         105.00       443.77
 1196.91        2976.25           1581         105.00       443.77
 1196.94        2976.50           1585         111.00       469.93
 1196.97        2976.75           1588         110.00       465.57
 1197.00        2977.00           1591         106.00       448.13
 1197.03        2977.25           1595         109.00       461.21
 1197.06        2977.50           1598         104.00       439.41
 1197.09        2977.75           1601         113.00       478.65
 1197.12        2978.00           1605         110.00       465.57
 1197.15        2978.25           1608         111.00       469.93
 1197.18        2978.50           1611         119.00       504.80
 1197.21        2978.75           1615         110.00       465.57
 1197.24        2979.00           1618         103.00       435.05
 1197.27        2979.25           1622         107.00       452.49
 1197.30        2979.50           1625         108.00       456.85
 1197.33        2979.75           1628         114.00       483.01
 1197.36        2980.00           1632         105.00       443.77
 1197.38        2980.25           1635         109.00       461.21
 1197.41        2980.50           1638         111.00       469.93
 1197.44        2980.75           1642         105.00       443.77
 1197.47        2981.00           1645         108.00       456.85
 1197.50        2981.25           1648         101.00       426.34
 1197.53        2981.50           1652         112.00       474.29
 1197.56        2981.75           1655          97.00       408.90
 1197.59        2982.00           1658         104.00       439.41
 1197.62        2982.25           1662          96.00       404.54
