************************************************************
  HS Scan of (1) Internal mercury lamp
************************************************************
Integration time is 0.2294 seconds per sample
dh020617Arenosillo 37.1 6.73 3.287017pr1000
************************************************************
Dead Time -------------------------  3.3E-08 
Number of Cycles Used -------------  4 
Starting Wavelength (Angstroms) ---  2950 
Final Wavelength (Angstoms) -------  2984 
Wavelength Increment (Angstroms) --  .25 
Filter Wheel #1 Position ---------- (1) Ground quartz diffuser (ND=2.32)
Filter Wheel #2 Position ---------- (1) Neutral Density 0.494



************************************************************
HS scan start time = 01:05:47
Dark Count =  7 


Time (GMT)  Wavelength (Ang)  Step Number  Raw Counts  Counts/Second

   66.18        2950.00           1431         661.00      2851.18
   66.25        2950.25           1434         659.00      2842.46
   66.27        2950.50           1437         633.00      2729.10
   66.30        2950.75           1440         635.00      2737.82
   66.32        2951.00           1444         601.00      2589.59
   66.35        2951.25           1447         598.00      2576.51
   66.38        2951.50           1450         622.00      2681.14
   66.40        2951.75           1454         586.00      2524.19
   66.43        2952.00           1457         574.00      2471.87
   66.46        2952.25           1460         574.00      2471.87
   66.48        2952.50           1464         556.00      2393.39
   66.51        2952.75           1467         551.00      2371.59
   66.53        2953.00           1470         541.00      2327.99
   66.56        2953.25           1473         520.00      2236.43
   66.59        2953.50           1477         507.00      2179.76
   66.61        2953.75           1480         487.00      2092.56
   66.64        2954.00           1483         501.00      2153.60
   66.66        2954.25           1487         482.00      2070.76
   66.69        2954.50           1490         479.00      2057.68
   66.72        2954.75           1493         475.00      2040.24
   66.74        2955.00           1497         453.00      1944.33
   66.77        2955.25           1500         451.00      1935.61
   66.80        2955.50           1503         434.00      1861.49
   66.82        2955.75           1506         426.00      1826.61
   66.85        2956.00           1510         429.00      1839.69
   66.87        2956.25           1513         421.00      1804.82
   66.90        2956.50           1516         404.00      1730.70
   66.93        2956.75           1520         404.00      1730.70
   66.95        2957.00           1523         411.00      1761.22
   66.98        2957.25           1526         406.00      1739.42
   67.00        2957.50           1530         378.00      1617.35
   67.03        2957.75           1533         389.00      1665.31
   67.06        2958.00           1536         398.00      1704.54
   67.08        2958.25           1539         363.00      1551.95
   67.11        2958.50           1543         386.00      1652.23
   67.14        2958.75           1546         372.00      1591.19
   67.16        2959.00           1549         362.00      1547.59
   67.19        2959.25           1553         358.00      1530.16
   67.21        2959.50           1556         376.00      1608.63
   67.24        2959.75           1559         352.00      1504.00
   67.27        2960.00           1563         344.00      1469.12
   67.29        2960.25           1566         342.00      1460.40
   67.32        2960.50           1569         321.00      1368.85
   67.35        2960.75           1572         333.00      1421.17
   67.37        2961.00           1576         333.00      1421.17
   67.40        2961.25           1579         329.00      1403.73
   67.42        2961.50           1582         314.00      1338.33
   67.45        2961.75           1586         333.00      1421.17
   67.48        2962.00           1589         321.00      1368.85
   67.50        2962.25           1592         317.00      1351.41
   67.53        2962.50           1596         316.00      1347.05
   67.55        2962.75           1599         316.00      1347.05
   67.58        2963.00           1602         319.00      1360.13
   67.61        2963.25           1606         306.00      1303.46
   67.63        2963.50           1609         303.00      1290.38
   67.66        2963.75           1612         300.00      1277.30
   67.69        2964.00           1616         289.00      1229.34
   67.71        2964.25           1619         296.00      1259.86
   67.74        2964.50           1622         275.00      1168.31
   67.76        2964.75           1625         279.00      1185.75
   67.79        2965.00           1629         285.00      1211.91
   67.82        2965.25           1632         271.00      1150.87
   67.84        2965.50           1635         287.00      1220.62
   67.87        2965.75           1639         278.00      1181.39
   67.89        2966.00           1642         284.00      1207.55
   67.92        2966.25           1645         286.00      1216.27
   67.95        2966.50           1649         277.00      1177.03
   67.97        2966.75           1652         273.00      1159.59
   68.00        2967.00           1655         262.00      1111.64
   68.03        2967.25           1659         276.00      1172.67
   68.05        2967.50           1662         267.00      1133.43
   68.08        2967.75           1665         249.00      1054.96
   68.10        2968.00           1668         273.00      1159.59
   68.13        2968.25           1672         269.00      1142.15
   68.16        2968.50           1675         248.00      1050.60
   68.18        2968.75           1678         248.00      1050.60
   68.21        2969.00           1682         253.00      1072.40
   68.23        2969.25           1685         256.00      1085.48
   68.26        2969.50           1688         249.00      1054.96
   68.29        2969.75           1692         244.00      1033.17
   68.31        2970.00           1695         251.00      1063.68
   68.34        2970.25           1698         230.00       972.13
   68.37        2970.50           1702         247.00      1046.24
   68.39        2970.75           1705         250.00      1059.32
   68.42        2971.00           1708         231.00       976.49
   68.44        2971.25           1712         233.00       985.21
   68.47        2971.50           1715         245.00      1037.52
   68.50        2971.75           1718         233.00       985.21
   68.52        2972.00           1722         230.00       972.13
   68.55        2972.25           1725         233.00       985.21
   68.58        2972.50           1728         221.00       932.90
   68.60        2972.75           1732         235.00       993.93
   68.63        2973.00           1735         227.00       959.05
   68.65        2973.25           1738         228.00       963.41
   68.68        2973.50           1741         221.00       932.90
   68.71        2973.75           1745         228.00       963.41
   68.73        2974.00           1748         210.00       884.94
   68.76        2974.25           1751         213.00       898.02
   68.78        2974.50           1755         213.00       898.02
   68.81        2974.75           1758         206.00       867.51
   68.84        2975.00           1761         214.00       902.38
   68.86        2975.25           1765         218.00       919.82
   68.89        2975.50           1768         205.00       863.15
   68.92        2975.75           1771         207.00       871.86
   68.94        2976.00           1775         212.00       893.66
   68.97        2976.25           1778         200.00       841.35
   68.99        2976.50           1781         212.00       893.66
   69.02        2976.75           1785         191.00       802.11
   69.05        2977.00           1788         212.00       893.66
   69.07        2977.25           1791         198.00       832.63
   69.10        2977.50           1795         206.00       867.51
   69.12        2977.75           1798         197.00       828.27
   69.15        2978.00           1801         197.00       828.27
   69.18        2978.25           1805         193.00       810.83
   69.20        2978.50           1808         191.00       802.11
   69.23        2978.75           1811         189.00       793.39
   69.26        2979.00           1815         191.00       802.11
   69.28        2979.25           1818         183.00       767.24
   69.31        2979.50           1821         189.00       793.39
   69.33        2979.75           1825         189.00       793.39
   69.36        2980.00           1828         189.00       793.39
   69.39        2980.25           1831         169.00       706.21
   69.41        2980.50           1835         186.00       780.32
   69.44        2980.75           1838         184.00       771.60
   69.47        2981.00           1841         176.00       736.72
   69.49        2981.25           1845         177.00       741.08
   69.52        2981.50           1848         195.00       819.55
   69.54        2981.75           1851         169.00       706.21
   69.57        2982.00           1854         179.00       749.80
   69.60        2982.25           1858         172.00       719.28
   69.62        2982.50           1861         176.00       736.72
   69.65        2982.75           1864         184.00       771.60
   69.68        2983.00           1868         170.00       710.57
   69.70        2983.25           1871         166.00       693.13
   69.73        2983.50           1874         174.00       728.00
   69.75        2983.75           1878         162.00       675.69
   69.78        2984.00           1881         175.00       732.36
HS scan finished at 01:09:53
end
************************************************************
  HS Scan of (1) Internal mercury lamp
************************************************************
Integration time is 0.2294 seconds per sample
dh020617Arenosillo 37.1 6.73 3.287017pr1000
************************************************************
Dead Time -------------------------  3.3E-08 
Number of Cycles Used -------------  4 
Starting Wavelength (Angstroms) ---  2950 
Final Wavelength (Angstoms) -------  2984 
Wavelength Increment (Angstroms) --  .25 
Filter Wheel #1 Position ---------- (1) Ground quartz diffuser (ND=2.32)
Filter Wheel #2 Position ---------- (1) Neutral Density 0.494



************************************************************
HS scan start time = 02:09:25
Dark Count =  2.8 


Time (GMT)  Wavelength (Ang)  Step Number  Raw Counts  Counts/Second

  129.71        2950.00           1431         249.00      1073.27
  129.78        2950.25           1434         243.00      1047.12
  129.81        2950.50           1437         260.00      1121.23
  129.83        2950.75           1440         249.00      1073.27
  129.86        2951.00           1444         249.00      1073.27
  129.89        2951.25           1447         261.00      1125.59
  129.91        2951.50           1450         260.00      1121.23
  129.94        2951.75           1454         259.00      1116.87
  129.97        2952.00           1457         274.00      1182.26
  129.99        2952.25           1460         259.00      1116.87
  130.02        2952.50           1464         271.00      1169.18
  130.04        2952.75           1467         278.00      1199.70
  130.07        2953.00           1470         290.00      1252.01
  130.10        2953.25           1473         277.00      1195.34
  130.12        2953.50           1477         308.00      1330.49
  130.15        2953.75           1480         288.00      1243.29
  130.18        2954.00           1483         310.00      1339.20
  130.20        2954.25           1487         307.00      1326.13
  130.23        2954.50           1490         323.00      1395.88
  130.25        2954.75           1493         323.00      1395.88
  130.28        2955.00           1497         325.00      1404.60
  130.31        2955.25           1500         330.00      1426.40
  130.33        2955.50           1503         331.00      1430.76
  130.36        2955.75           1506         336.00      1452.55
  130.38        2956.00           1510         359.00      1552.83
  130.41        2956.25           1513         359.00      1552.83
  130.44        2956.50           1516         361.00      1561.55
  130.46        2956.75           1520         366.00      1583.34
  130.49        2957.00           1523         373.00      1613.86
  130.52        2957.25           1526         365.00      1578.98
  130.54        2957.50           1530         387.00      1674.90
  130.57        2957.75           1533         405.00      1753.37
  130.59        2958.00           1536         400.00      1731.57
  130.62        2958.25           1539         399.00      1727.21
  130.65        2958.50           1543         428.00      1853.64
  130.67        2958.75           1546         416.00      1801.33
  130.70        2959.00           1549         443.00      1919.04
  130.72        2959.25           1553         458.00      1984.44
  130.75        2959.50           1556         445.00      1927.76
  130.78        2959.75           1559         460.00      1993.16
  130.80        2960.00           1563         482.00      2089.07
  130.83        2960.25           1566         480.00      2080.35
  130.86        2960.50           1569         511.00      2215.51
  130.88        2960.75           1572         507.00      2198.07
  130.91        2961.00           1576         612.00      2655.86
  130.93        2961.25           1579        1132.00      4923.21
  130.96        2961.50           1582        3461.00     15082.48
  130.99        2961.75           1586        9488.00     41404.40
  131.01        2962.00           1589       15798.00     69011.40
  131.04        2962.25           1592       22723.00     99367.14
  131.07        2962.50           1596       31506.00    137955.30
  131.09        2962.75           1599       38215.00    167497.80
  131.12        2963.00           1602       45400.00    199200.60
  131.14        2963.25           1606       54337.00    238726.80
  131.17        2963.50           1609       61679.00    271276.40
  131.20        2963.75           1612       68324.00    300796.70
  131.22        2964.00           1616       76326.00    336422.30
  131.25        2964.25           1619       83573.00    368759.30
  131.28        2964.50           1622       89797.00    396587.20
  131.30        2964.75           1625       96612.00    427116.60
  131.33        2965.00           1629      105177.00    465573.60
  131.35        2965.25           1632      111554.00    494270.40
  131.38        2965.50           1635      117906.00    522909.30
  131.41        2965.75           1639      126212.00    560440.80
  131.43        2966.00           1642      132517.00    588993.20
  131.46        2966.25           1645      138011.00    613917.50
  131.49        2966.50           1649      142356.00    633658.50
  131.51        2966.75           1652      143504.00    638878.60
  131.54        2967.00           1655      143752.00    640006.60
  131.56        2967.25           1659      143678.00    639670.00
  131.59        2967.50           1662      143917.00    640757.10
  131.62        2967.75           1665      142229.00    633081.10
  131.64        2968.00           1668      138967.00    618258.80
  131.67        2968.25           1672      132259.00    587823.80
  131.70        2968.50           1675      126390.00    561246.10
  131.72        2968.75           1678      120539.00    534796.60
  131.75        2969.00           1682      111787.00    495320.00
  131.78        2969.25           1685      105699.00    467920.60
  131.80        2969.50           1688       98766.00    436778.80
  131.83        2969.75           1692       89543.00    395450.50
  131.86        2970.00           1695       82065.00    362024.70
  131.88        2970.25           1698       75391.00    332255.20
  131.91        2970.50           1702       66645.00    293332.30
  131.93        2970.75           1705       59553.00    261843.90
  131.96        2971.00           1708       53514.00    235082.60
  131.99        2971.25           1712       44997.00    197420.60
  132.01        2971.50           1715       38171.00    167303.90
  132.04        2971.75           1718       31878.00    139591.90
  132.07        2972.00           1722       23286.00    101837.80
  132.09        2972.25           1725       16575.00     72414.35
  132.12        2972.50           1728       10627.00     46383.94
  132.14        2972.75           1732        4611.00     20101.39
  132.17        2973.00           1735        2059.00      8966.04
  132.20        2973.25           1738         971.00      4221.16
  132.22        2973.50           1741         597.00      2590.46
  132.25        2973.75           1745         493.00      2137.03
  132.28        2974.00           1748         501.00      2171.91
  132.30        2974.25           1751         478.00      2071.63
  132.33        2974.50           1755         485.00      2102.15
  132.35        2974.75           1758         448.00      1940.84
  132.38        2975.00           1761         438.00      1897.24
  132.41        2975.25           1765         431.00      1866.72
  132.43        2975.50           1768         412.00      1783.89
  132.46        2975.75           1771         424.00      1836.21
  132.48        2976.00           1775         407.00      1762.09
  132.51        2976.25           1778         410.00      1775.17
  132.54        2976.50           1781         403.00      1744.65
  132.56        2976.75           1785         379.00      1640.02
  132.59        2977.00           1788         373.00      1613.86
  132.62        2977.25           1791         358.00      1548.47
  132.64        2977.50           1795         356.00      1539.75
  132.67        2977.75           1798         354.00      1531.03
  132.69        2978.00           1801         330.00      1426.40
  132.72        2978.25           1805         329.00      1422.04
  132.75        2978.50           1808         332.00      1435.12
  132.77        2978.75           1811         329.00      1422.04
  132.80        2979.00           1815         318.00      1374.08
  132.82        2979.25           1818         310.00      1339.20
  132.85        2979.50           1821         298.00      1286.89
  132.88        2979.75           1825         301.00      1299.97
  132.90        2980.00           1828         301.00      1299.97
  132.93        2980.25           1831         297.00      1282.53
  132.96        2980.50           1835         292.00      1260.73
  132.98        2980.75           1838         284.00      1225.86
  133.01        2981.00           1841         287.00      1238.93
  133.03        2981.25           1845         276.00      1190.98
  133.06        2981.50           1848         266.00      1147.38
  133.09        2981.75           1851         260.00      1121.23
  133.11        2982.00           1854         274.00      1182.26
  133.14        2982.25           1858         272.00      1173.54
