************************************************************
  HS Scan of (1) Internal mercury lamp
************************************************************
Integration time is 0.2294 seconds per sample
dh010617Arenosillo 37.1 6.73 3.233369pr1000
************************************************************
Dead Time -------------------------  3.3E-08 
Number of Cycles Used -------------  4 
Starting Wavelength (Angstroms) ---  2950 
Final Wavelength (Angstoms) -------  2984 
Wavelength Increment (Angstroms) --  .25 
Filter Wheel #1 Position ---------- (1) Ground quartz diffuser (ND=2.32)
Filter Wheel #2 Position ---------- (1) Neutral Density 0.494



************************************************************
HS scan start time = 01:49:41
Dark Count =  3.9 


Time (GMT)  Wavelength (Ang)  Step Number  Raw Counts  Counts/Second

  110.00        2950.00           1431         582.00      2520.26
  110.07        2950.25           1434         573.00      2481.02
  110.10        2950.50           1437         555.00      2402.54
  110.12        2950.75           1440         539.00      2332.79
  110.15        2951.00           1444         550.00      2380.74
  110.18        2951.25           1447         527.00      2280.47
  110.20        2951.50           1450         500.00      2162.75
  110.23        2951.75           1454         488.00      2110.43
  110.25        2952.00           1457         494.00      2136.59
  110.28        2952.25           1460         494.00      2136.59
  110.31        2952.50           1464         458.00      1979.64
  110.33        2952.75           1467         481.00      2079.92
  110.36        2953.00           1470         441.00      1905.53
  110.39        2953.25           1473         444.00      1918.60
  110.41        2953.50           1477         434.00      1875.01
  110.44        2953.75           1480         426.00      1840.13
  110.46        2954.00           1483         405.00      1748.58
  110.49        2954.25           1487         414.00      1787.81
  110.52        2954.50           1490         404.00      1744.22
  110.54        2954.75           1493         395.00      1704.98
  110.57        2955.00           1497         372.00      1604.71
  110.59        2955.25           1500         396.00      1709.34
  110.62        2955.50           1503         378.00      1630.86
  110.65        2955.75           1506         377.00      1626.50
  110.67        2956.00           1510         371.00      1600.35
  110.70        2956.25           1513         361.00      1556.75
  110.73        2956.50           1516         341.00      1469.56
  110.75        2956.75           1520         353.00      1521.87
  110.78        2957.00           1523         354.00      1526.23
  110.80        2957.25           1526         352.00      1517.51
  110.83        2957.50           1530         347.00      1495.71
  110.86        2957.75           1533         336.00      1447.76
  110.88        2958.00           1536         333.00      1434.68
  110.91        2958.25           1539         308.00      1325.69
  110.93        2958.50           1543         318.00      1369.29
  110.96        2958.75           1546         343.00      1478.28
  110.99        2959.00           1549         314.00      1351.85
  111.01        2959.25           1553         315.00      1356.21
  111.04        2959.50           1556         300.00      1290.81
  111.07        2959.75           1559         307.00      1321.33
  111.09        2960.00           1563         292.00      1255.94
  111.12        2960.25           1566         284.00      1221.06
  111.14        2960.50           1569         292.00      1255.94
  111.17        2960.75           1572         295.00      1269.02
  111.20        2961.00           1576         268.00      1151.31
  111.22        2961.25           1579         291.00      1251.58
  111.25        2961.50           1582         278.00      1194.90
  111.27        2961.75           1586         290.00      1247.22
  111.30        2962.00           1589         247.00      1059.76
  111.33        2962.25           1592         275.00      1181.82
  111.35        2962.50           1596         262.00      1125.15
  111.38        2962.75           1599         275.00      1181.82
  111.41        2963.00           1602         261.00      1120.79
  111.43        2963.25           1606         267.00      1146.95
  111.46        2963.50           1609         258.00      1107.71
  111.48        2963.75           1612         255.00      1094.63
  111.51        2964.00           1616         257.00      1103.35
  111.54        2964.25           1619         248.00      1064.12
  111.56        2964.50           1622         240.00      1029.24
  111.59        2964.75           1625         245.00      1051.04
  111.61        2965.00           1629         241.00      1033.60
  111.64        2965.25           1632         239.00      1024.88
  111.67        2965.50           1635         243.00      1042.32
  111.69        2965.75           1639         256.00      1098.99
  111.72        2966.00           1642         240.00      1029.24
  111.75        2966.25           1645         242.00      1037.96
  111.77        2966.50           1649         232.00       994.37
  111.80        2966.75           1652         238.00      1020.52
  111.82        2967.00           1655         227.00       972.57
  111.85        2967.25           1659         231.00       990.01
  111.88        2967.50           1662         232.00       994.37
  111.91        2967.75           1665         238.00      1020.52
  111.93        2968.00           1668         219.00       937.69
  111.96        2968.25           1672         224.00       959.49
  111.99        2968.50           1675         212.00       907.18
  112.02        2968.75           1678         219.00       937.69
  112.04        2969.00           1682         219.00       937.69
  112.07        2969.25           1685         200.00       854.86
  112.10        2969.50           1688         215.00       920.25
  112.12        2969.75           1692         216.00       924.61
  112.15        2970.00           1695         206.00       881.02
  112.17        2970.25           1698         215.00       920.25
  112.20        2970.50           1702         196.00       837.43
  112.23        2970.75           1705         201.00       859.22
  112.25        2971.00           1708         209.00       894.10
  112.28        2971.25           1712         190.00       811.27
  112.31        2971.50           1715         203.00       867.94
  112.33        2971.75           1718         199.00       850.50
  112.36        2972.00           1722         200.00       854.86
  112.38        2972.25           1725         198.00       846.14
  112.41        2972.50           1728         193.00       824.35
  112.44        2972.75           1732         193.00       824.35
  112.46        2973.00           1735         195.00       833.07
  112.49        2973.25           1738         184.00       785.11
  112.52        2973.50           1741         183.00       780.75
  112.54        2973.75           1745         181.00       772.03
  112.57        2974.00           1748         185.00       789.47
  112.59        2974.25           1751         183.00       780.75
  112.62        2974.50           1755         180.00       767.67
  112.65        2974.75           1758         182.00       776.39
  112.67        2975.00           1761         192.00       819.99
  112.70        2975.25           1765         168.00       715.36
  112.72        2975.50           1768         189.00       806.91
  112.75        2975.75           1771         179.00       763.31
  112.78        2976.00           1775         179.00       763.31
  112.80        2976.25           1778         184.00       785.11
  112.83        2976.50           1781         182.00       776.39
  112.86        2976.75           1785         167.00       711.00
  112.88        2977.00           1788         163.00       693.56
  112.91        2977.25           1791         174.00       741.52
  112.93        2977.50           1795         181.00       772.03
  112.96        2977.75           1798         157.00       667.41
  112.99        2978.00           1801         164.00       697.92
  113.01        2978.25           1805         158.00       671.77
  113.04        2978.50           1808         159.00       676.13
  113.07        2978.75           1811         166.00       706.64
  113.09        2979.00           1815         167.00       711.00
  113.12        2979.25           1818         160.00       680.49
  113.14        2979.50           1821         160.00       680.49
  113.17        2979.75           1825         158.00       671.77
  113.20        2980.00           1828         157.00       667.41
  113.22        2980.25           1831         149.00       632.53
  113.25        2980.50           1835         159.00       676.13
  113.27        2980.75           1838         154.00       654.33
  113.30        2981.00           1841         152.00       645.61
  113.33        2981.25           1845         154.00       654.33
  113.35        2981.50           1848         141.00       597.66
  113.38        2981.75           1851         149.00       632.53
  113.41        2982.00           1854         147.00       623.81
  113.43        2982.25           1858         145.00       615.10
  113.46        2982.50           1861         150.00       636.89
  113.48        2982.75           1864         142.00       602.02
  113.51        2983.00           1868         146.00       619.45
  113.54        2983.25           1871         149.00       632.53
  113.56        2983.50           1874         133.00       562.78
  113.59        2983.75           1878         148.00       628.17
  113.61        2984.00           1881         143.00       606.38
HS scan finished at 01:53:43
end
************************************************************
  HS Scan of (1) Internal mercury lamp
************************************************************
Integration time is 0.2294 seconds per sample
dh010617Arenosillo 37.1 6.73 3.233369pr1000
************************************************************
Dead Time -------------------------  3.3E-08 
Number of Cycles Used -------------  4 
Starting Wavelength (Angstroms) ---  2950 
Final Wavelength (Angstoms) -------  2984 
Wavelength Increment (Angstroms) --  .25 
Filter Wheel #1 Position ---------- (1) Ground quartz diffuser (ND=2.32)
Filter Wheel #2 Position ---------- (1) Neutral Density 0.494



************************************************************
HS scan start time = 03:02:43
Dark Count =  .4 


Time (GMT)  Wavelength (Ang)  Step Number  Raw Counts  Counts/Second

  182.95        2950.00           1431         563.00      2452.68
  183.02        2950.25           1434         557.00      2426.52
  183.05        2950.50           1437         535.00      2330.61
  183.07        2950.75           1440         532.00      2317.53
  183.10        2951.00           1444         549.00      2391.64
  183.13        2951.25           1447         525.00      2287.01
  183.15        2951.50           1450         524.00      2282.65
  183.18        2951.75           1454         487.00      2121.33
  183.21        2952.00           1457         486.00      2116.97
  183.24        2952.25           1460         466.00      2029.78
  183.26        2952.50           1464         465.00      2025.42
  183.29        2952.75           1467         460.00      2003.62
  183.31        2953.00           1470         443.00      1929.50
  183.34        2953.25           1473         458.00      1994.90
  183.37        2953.50           1477         419.00      1824.87
  183.39        2953.75           1480         421.00      1833.59
  183.42        2954.00           1483         421.00      1833.59
  183.44        2954.25           1487         418.00      1820.51
  183.47        2954.50           1490         396.00      1724.60
  183.50        2954.75           1493         403.00      1755.11
  183.52        2955.00           1497         383.00      1667.92
  183.55        2955.25           1500         392.00      1707.16
  183.58        2955.50           1503         388.00      1689.72
  183.60        2955.75           1506         372.00      1619.96
  183.63        2956.00           1510         390.00      1698.44
  183.65        2956.25           1513         349.00      1519.69
  183.68        2956.50           1516         341.00      1484.82
  183.71        2956.75           1520         341.00      1484.82
  183.73        2957.00           1523         354.00      1541.49
  183.76        2957.25           1526         343.00      1493.53
  183.78        2957.50           1530         313.00      1362.75
  183.81        2957.75           1533         326.00      1419.42
  183.84        2958.00           1536         339.00      1476.10
  183.86        2958.25           1539         332.00      1445.58
  183.89        2958.50           1543         325.00      1415.06
  183.91        2958.75           1546         310.00      1349.67
  183.94        2959.00           1549         316.00      1375.83
  183.97        2959.25           1553         324.00      1410.70
  183.99        2959.50           1556         310.00      1349.67
  184.02        2959.75           1559         319.00      1388.90
  184.05        2960.00           1563         305.00      1327.87
  184.07        2960.25           1566         281.00      1223.24
  184.10        2960.50           1569         290.00      1262.48
  184.12        2960.75           1572         290.00      1262.48
  184.15        2961.00           1576         293.00      1275.56
  184.18        2961.25           1579         283.00      1231.96
  184.20        2961.50           1582         280.00      1218.88
  184.23        2961.75           1586         274.00      1192.72
  184.25        2962.00           1589         266.00      1157.85
  184.28        2962.25           1592         282.00      1227.60
  184.31        2962.50           1596         266.00      1157.85
  184.33        2962.75           1599         270.00      1175.29
  184.36        2963.00           1602         266.00      1157.85
  184.39        2963.25           1606         259.00      1127.33
  184.41        2963.50           1609         256.00      1114.25
  184.44        2963.75           1612         257.00      1118.61
  184.46        2964.00           1616         256.00      1114.25
  184.49        2964.25           1619         257.00      1118.61
  184.52        2964.50           1622         264.00      1149.13
  184.54        2964.75           1625         275.00      1197.08
  184.57        2965.00           1629         262.00      1140.41
  184.59        2965.25           1632         248.00      1079.38
  184.62        2965.50           1635         238.00      1035.78
  184.65        2965.75           1639         240.00      1044.50
  184.67        2966.00           1642         235.00      1022.70
  184.70        2966.25           1645         246.00      1070.66
  184.73        2966.50           1649         235.00      1022.70
  184.75        2966.75           1652         217.00       944.23
  184.78        2967.00           1655         232.00      1009.62
  184.80        2967.25           1659         242.00      1053.22
  184.83        2967.50           1662         233.00      1013.98
  184.86        2967.75           1665         234.00      1018.34
  184.88        2968.00           1668         233.00      1013.98
  184.91        2968.25           1672         233.00      1013.98
  184.93        2968.50           1675         226.00       983.47
  184.96        2968.75           1678         207.00       900.64
  184.99        2969.00           1682         228.00       992.19
  185.01        2969.25           1685         208.00       905.00
  185.04        2969.50           1688         213.00       926.79
  185.07        2969.75           1692         222.00       966.03
  185.09        2970.00           1695         208.00       905.00
  185.12        2970.25           1698         212.00       922.43
  185.14        2970.50           1702         203.00       883.20
  185.17        2970.75           1705         221.00       961.67
  185.20        2971.00           1708         213.00       926.79
  185.22        2971.25           1712         196.00       852.68
  185.25        2971.50           1715         201.00       874.48
  185.27        2971.75           1718         216.00       939.87
  185.30        2972.00           1722         201.00       874.48
  185.33        2972.25           1725         203.00       883.20
  185.35        2972.50           1728         198.00       861.40
  185.38        2972.75           1732         208.00       905.00
  185.41        2973.00           1735         200.00       870.12
  185.43        2973.25           1738         201.00       874.48
  185.46        2973.50           1741         189.00       822.17
  185.48        2973.75           1745         188.00       817.81
  185.51        2974.00           1748         188.00       817.81
  185.54        2974.25           1751         174.00       756.78
  185.56        2974.50           1755         195.00       848.32
  185.59        2974.75           1758         187.00       813.45
  185.61        2975.00           1761         191.00       830.89
  185.64        2975.25           1765         180.00       782.93
  185.67        2975.50           1768         181.00       787.29
  185.69        2975.75           1771         165.00       717.54
  185.72        2976.00           1775         176.00       765.49
  185.75        2976.25           1778         172.00       748.06
  185.77        2976.50           1781         168.00       730.62
  185.80        2976.75           1785         170.00       739.34
  185.82        2977.00           1788         182.00       791.65
  185.85        2977.25           1791         174.00       756.78
  185.88        2977.50           1795         164.00       713.18
  185.90        2977.75           1798         176.00       765.49
  185.93        2978.00           1801         181.00       787.29
  185.95        2978.25           1805         160.00       695.74
  185.98        2978.50           1808         159.00       691.38
  186.01        2978.75           1811         160.00       695.74
  186.03        2979.00           1815         167.00       726.26
  186.06        2979.25           1818         162.00       704.46
  186.09        2979.50           1821         172.00       748.06
  186.11        2979.75           1825         170.00       739.34
  186.14        2980.00           1828         152.00       660.87
  186.16        2980.25           1831         160.00       695.74
  186.19        2980.50           1835         155.00       673.95
  186.22        2980.75           1838         162.00       704.46
  186.24        2981.00           1841         149.00       647.79
  186.27        2981.25           1845         154.00       669.59
  186.29        2981.50           1848         149.00       647.79
  186.32        2981.75           1851         155.00       673.95
  186.35        2982.00           1854         155.00       673.95
  186.37        2982.25           1858         149.00       647.79
