************************************************************
  HS Scan of 
************************************************************
Integration time is 0.2294 seconds per sample
dh030117Reading 51.44 .94 2.25pr1000
************************************************************
Dead Time -------------------------  3.4E-08 
Number of Cycles Used -------------  4 
Starting Wavelength (Angstroms) ---  2950 
Final Wavelength (Angstoms) -------  2984 
Wavelength Increment (Angstroms) --  .25 
Filter Wheel #1 Position ---------- (1) Ground quartz diffuser (ND=2.32)
Filter Wheel #2 Position ---------- (1) Neutral Density 0.494



************************************************************
HS scan start time = 05:19:35
Dark Count =  .3 


Time (GMT)  Wavelength (Ang)  Step Number  Raw Counts  Counts/Second

  320.48        2950.00           2144         116.00       504.37
  320.68        2950.25           2147         129.00       561.04
  320.71        2950.50           2151          99.00       430.26
  320.74        2950.75           2155         104.00       452.06
  320.77        2951.00           2158         120.00       521.81
  320.80        2951.25           2162         119.00       517.45
  320.83        2951.50           2165         102.00       443.34
  320.86        2951.75           2169         106.00       460.77
  320.89        2952.00           2172         111.00       482.57
  320.92        2952.25           2176         107.00       465.13
  320.95        2952.50           2179         142.00       617.71
  320.98        2952.75           2183         116.00       504.37
  321.01        2953.00           2186         104.00       452.06
  321.04        2953.25           2190         141.00       613.35
  321.07        2953.50           2193          79.00       343.07
  321.10        2953.75           2197          89.00       386.67
  321.13        2954.00           2200          79.00       343.07
  321.16        2954.25           2204          82.00       356.15
  321.20        2954.50           2208          76.00       329.99
  321.23        2954.75           2211          79.00       343.07
  321.26        2955.00           2215          84.00       364.87
  321.29        2955.25           2218          79.00       343.07
  321.32        2955.50           2222          80.00       347.43
  321.35        2955.75           2225          75.00       325.64
  321.38        2956.00           2229          74.00       321.28
  321.41        2956.25           2232          73.00       316.92
  321.44        2956.50           2236          76.00       329.99
  321.47        2956.75           2239          70.00       303.84
  321.50        2957.00           2243          69.00       299.48
  321.53        2957.25           2246          72.00       312.56
  321.56        2957.50           2250          72.00       312.56
  321.59        2957.75           2254          74.00       321.28
  321.62        2958.00           2257          63.00       273.32
  321.65        2958.25           2261          68.00       295.12
  321.68        2958.50           2264          74.00       321.28
  321.72        2958.75           2268          67.00       290.76
  321.75        2959.00           2271          76.00       329.99
  321.78        2959.25           2275          68.00       295.12
  321.81        2959.50           2278          63.00       273.32
  321.84        2959.75           2282          66.00       286.40
  321.87        2960.00           2285          67.00       290.76
  321.90        2960.25           2289          71.00       308.20
  321.93        2960.50           2293          72.00       312.56
  321.96        2960.75           2296          70.00       303.84
  321.99        2961.00           2300          65.00       282.04
  322.02        2961.25           2303          81.00       351.79
  322.05        2961.50           2307         160.00       696.18
  322.08        2961.75           2310         391.00      1703.24
  322.11        2962.00           2314         921.00      4014.06
  322.14        2962.25           2317        1379.00      6011.25
  322.17        2962.50           2321        2002.00      8728.40
  322.20        2962.75           2324        2407.00     10495.03
  322.24        2963.00           2328        2942.00     12829.05
  322.27        2963.25           2331        3359.00     14648.53
  322.30        2963.50           2335        4048.00     17655.32
  322.33        2963.75           2339        4700.00     20501.21
  322.36        2964.00           2342        5125.00     22356.57
  322.39        2964.25           2346        5709.00     24906.44
  322.42        2964.50           2349        6160.00     26875.90
  322.45        2964.75           2353        6722.00     29330.46
  322.48        2965.00           2356        7125.00     31090.83
  322.51        2965.25           2360        7743.00     33790.77
  322.54        2965.50           2363        8218.00     35866.29
  322.57        2965.75           2367        8772.00     38287.39
  322.60        2966.00           2370        9052.00     39511.20
  322.63        2966.25           2374        9497.00     41456.39
  322.66        2966.50           2378        9912.00     43270.67
  322.69        2966.75           2381       10044.00     43847.80
  322.72        2967.00           2385       10011.00     43703.52
  322.75        2967.25           2388       10302.00     44975.88
  322.79        2967.50           2392       10235.00     44682.92
  322.82        2967.75           2395       10231.00     44665.43
  322.85        2968.00           2399        9925.00     43327.52
  322.88        2968.25           2402        9738.00     42509.96
  322.91        2968.50           2406        9192.00     40123.14
  322.94        2968.75           2409        8839.00     38580.22
  322.97        2969.00           2413        8319.00     36307.66
  323.00        2969.25           2417        7765.00     33886.89
  323.03        2969.50           2420        7198.00     31409.73
  323.06        2969.75           2424        6629.00     28924.25
  323.09        2970.00           2427        6331.00     27622.71
  323.12        2970.25           2431        5793.00     25273.24
  323.15        2970.50           2434        5146.00     22448.26
  323.18        2970.75           2438        4528.00     19750.40
  323.21        2971.00           2441        4056.00     17690.24
  323.24        2971.25           2445        3447.00     15032.53
  323.27        2971.50           2449        2906.00     12671.98
  323.31        2971.75           2452        2484.00     10830.93
  323.34        2972.00           2456        1845.00      8043.61
  323.37        2972.25           2459        1421.00      6194.42
  323.40        2972.50           2463         920.00      4009.70
  323.43        2972.75           2466         577.00      2514.16
  323.46        2973.00           2470         249.00      1084.17
  323.49        2973.25           2473         104.00       452.06
  323.52        2973.50           2477          72.00       312.56
  323.55        2973.75           2481          69.00       299.48
  323.58        2974.00           2484          60.00       260.25
  323.61        2974.25           2488          66.00       286.40
  323.64        2974.50           2491          59.00       255.89
  323.67        2974.75           2495          65.00       282.04
  323.70        2975.00           2498          61.00       264.61
  323.73        2975.25           2502          59.00       255.89
  323.76        2975.50           2505          63.00       273.32
  323.79        2975.75           2509          60.00       260.25
  323.83        2976.00           2512          62.00       268.97
  323.86        2976.25           2516          60.00       260.25
  323.89        2976.50           2520          66.00       286.40
  323.92        2976.75           2523          61.00       264.61
  323.95        2977.00           2527          57.00       247.17
  323.98        2977.25           2530          54.00       234.09
  324.01        2977.50           2534          59.00       255.89
  324.04        2977.75           2537          65.00       282.04
  324.07        2978.00           2541          53.00       229.73
  324.10        2978.25           2544          66.00       286.40
  324.13        2978.50           2548          49.00       212.29
  324.16        2978.75           2552          57.00       247.17
  324.19        2979.00           2555          54.00       234.09
  324.22        2979.25           2559          56.00       242.81
  324.25        2979.50           2562          61.00       264.61
  324.28        2979.75           2566          57.00       247.17
  324.31        2980.00           2569          56.00       242.81
  324.35        2980.25           2573          54.00       234.09
  324.38        2980.50           2577          49.00       212.29
  324.41        2980.75           2580          52.00       225.37
  324.44        2981.00           2584          58.00       251.53
  324.47        2981.25           2587          54.00       234.09
  324.50        2981.50           2591          55.00       238.45
  324.53        2981.75           2594          49.00       212.29
  324.56        2982.00           2598          62.00       268.97
  324.59        2982.25           2601          45.00       194.86
  324.62        2982.50           2605          51.00       221.01
  324.65        2982.75           2609          50.00       216.65
  324.68        2983.00           2612          60.00       260.25
  324.71        2983.25           2616          59.00       255.89
  324.74        2983.50           2619          54.00       234.09
  324.77        2983.75           2623          53.00       229.73
  324.80        2984.00           2626          56.00       242.81
HS scan finished at 05:25:02
end
************************************************************
  HS Scan of 
************************************************************
Integration time is 0.2294 seconds per sample
dh030117Reading 51.44 .94 2.74pr1000
************************************************************
Dead Time -------------------------  3.4E-08 
Number of Cycles Used -------------  4 
Starting Wavelength (Angstroms) ---  2950 
Final Wavelength (Angstoms) -------  2984 
Wavelength Increment (Angstroms) --  .25 
Filter Wheel #1 Position ---------- (1) Ground quartz diffuser (ND=2.32)
Filter Wheel #2 Position ---------- (1) Neutral Density 0.494



************************************************************
HS scan start time = 17:07:15
Dark Count =  .3 


Time (GMT)  Wavelength (Ang)  Step Number  Raw Counts  Counts/Second

 1028.14        2950.00           2144          25.00       107.67
 1028.34        2950.25           2147          25.00       107.67
 1028.37        2950.50           2151          29.00       125.11
 1028.40        2950.75           2155          27.00       116.39
 1028.43        2951.00           2158          29.00       125.11
 1028.46        2951.25           2162          27.00       116.39
 1028.49        2951.50           2165          26.00       112.03
 1028.52        2951.75           2169          28.00       120.75
 1028.55        2952.00           2172          31.00       133.83
 1028.58        2952.25           2176          26.00       112.03
 1028.61        2952.50           2179          31.00       133.83
 1028.64        2952.75           2183          28.00       120.75
 1028.67        2953.00           2186          27.00       116.39
 1028.70        2953.25           2190          27.00       116.39
 1028.73        2953.50           2193          23.00        98.95
 1028.76        2953.75           2197          23.00        98.95
 1028.79        2954.00           2200          27.00       116.39
 1028.83        2954.25           2204          26.00       112.03
 1028.86        2954.50           2208          28.00       120.75
 1028.89        2954.75           2211          32.00       138.19
 1028.92        2955.00           2215          26.00       112.03
 1028.95        2955.25           2218          29.00       125.11
 1028.98        2955.50           2222          29.00       125.11
 1029.01        2955.75           2225          25.00       107.67
 1029.04        2956.00           2229          34.00       146.91
 1029.07        2956.25           2232          28.00       120.75
 1029.10        2956.50           2236          27.00       116.39
 1029.13        2956.75           2239          26.00       112.03
 1029.16        2957.00           2243          31.00       133.83
 1029.19        2957.25           2246          31.00       133.83
 1029.22        2957.50           2250          26.00       112.03
 1029.25        2957.75           2254          28.00       120.75
 1029.28        2958.00           2257          35.00       151.26
 1029.31        2958.25           2261          31.00       133.83
 1029.35        2958.50           2264          27.00       116.39
 1029.38        2958.75           2268          29.00       125.11
 1029.41        2959.00           2271          29.00       125.11
 1029.44        2959.25           2275          27.00       116.39
 1029.47        2959.50           2278          31.00       133.83
 1029.50        2959.75           2282          33.00       142.55
 1029.53        2960.00           2285          30.00       129.47
 1029.56        2960.25           2289          35.00       151.26
 1029.59        2960.50           2293          33.00       142.55
 1029.62        2960.75           2296          31.00       133.83
 1029.65        2961.00           2300          37.00       159.98
 1029.68        2961.25           2303          39.00       168.70
 1029.71        2961.50           2307          87.00       377.95
 1029.74        2961.75           2310         212.00       922.87
 1029.77        2962.00           2314         462.00      2012.78
 1029.80        2962.25           2317         679.00      2958.89
 1029.83        2962.50           2321         987.00      4301.85
 1029.86        2962.75           2324        1249.00      5444.34
 1029.90        2963.00           2328        1557.00      6787.53
 1029.93        2963.25           2331        1753.00      7642.35
 1029.96        2963.50           2335        2020.00      8806.91
 1029.99        2963.75           2339        2346.00     10228.93
 1030.02        2964.00           2342        2584.00     11267.18
 1030.05        2964.25           2346        2853.00     12440.75
 1030.08        2964.50           2349        3136.00     13675.49
 1030.11        2964.75           2353        3419.00     14910.35
 1030.14        2965.00           2356        3612.00     15752.55
 1030.17        2965.25           2360        3953.00     17240.71
 1030.20        2965.50           2363        4173.00     18200.89
 1030.23        2965.75           2367        4475.00     19519.05
 1030.26        2966.00           2370        4700.00     20501.21
 1030.29        2966.25           2374        5006.00     21837.05
 1030.32        2966.50           2378        5154.00     22483.18
 1030.35        2966.75           2381        5168.00     22544.30
 1030.39        2967.00           2385        5111.00     22295.45
 1030.42        2967.25           2388        5192.00     22649.08
 1030.45        2967.50           2392        5156.00     22491.91
 1030.48        2967.75           2395        5188.00     22631.62
 1030.51        2968.00           2399        5086.00     22186.30
 1030.54        2968.25           2402        4897.00     21361.20
 1030.57        2968.50           2406        4732.00     20640.90
 1030.60        2968.75           2409        4511.00     19676.20
 1030.63        2969.00           2413        4281.00     18672.27
 1030.66        2969.25           2417        3880.00     16922.12
 1030.69        2969.50           2420        3642.00     15883.47
 1030.72        2969.75           2424        3348.00     14600.53
 1030.75        2970.00           2427        3172.00     13832.57
 1030.78        2970.25           2431        2940.00     12820.32
 1030.81        2970.50           2434        2688.00     11720.89
 1030.84        2970.75           2438        2363.00     10303.09
 1030.87        2971.00           2441        2112.00      9208.20
 1030.91        2971.25           2445        1769.00      7712.14
 1030.94        2971.50           2449        1447.00      6307.80
 1030.97        2971.75           2452        1267.00      5522.83
 1031.00        2972.00           2456         961.00      4188.48
 1031.03        2972.25           2459         753.00      3281.53
 1031.06        2972.50           2463         497.00      2165.37
 1031.09        2972.75           2466         303.00      1319.59
 1031.12        2973.00           2470         102.00       443.34
 1031.15        2973.25           2473          47.00       203.58
 1031.18        2973.50           2477          33.00       142.55
 1031.21        2973.75           2481          29.00       125.11
 1031.24        2974.00           2484          32.00       138.19
 1031.27        2974.25           2488          26.00       112.03
 1031.30        2974.50           2491          27.00       116.39
 1031.33        2974.75           2495          26.00       112.03
 1031.36        2975.00           2498          23.00        98.95
 1031.39        2975.25           2502          29.00       125.11
 1031.43        2975.50           2505          25.00       107.67
 1031.46        2975.75           2509          27.00       116.39
 1031.49        2976.00           2512          23.00        98.95
 1031.52        2976.25           2516          23.00        98.95
 1031.55        2976.50           2520          23.00        98.95
 1031.58        2976.75           2523          28.00       120.75
 1031.61        2977.00           2527          29.00       125.11
 1031.64        2977.25           2530          25.00       107.67
 1031.67        2977.50           2534          26.00       112.03
 1031.70        2977.75           2537          25.00       107.67
 1031.73        2978.00           2541          25.00       107.67
 1031.76        2978.25           2544          24.00       103.31
 1031.79        2978.50           2548          29.00       125.11
 1031.82        2978.75           2552          23.00        98.95
 1031.85        2979.00           2555          25.00       107.67
 1031.88        2979.25           2559          24.00       103.31
 1031.91        2979.50           2562          26.00       112.03
 1031.95        2979.75           2566          24.00       103.31
 1031.98        2980.00           2569          24.00       103.31
 1032.01        2980.25           2573          24.00       103.31
 1032.04        2980.50           2577          23.00        98.95
 1032.07        2980.75           2580          24.00       103.31
 1032.10        2981.00           2584          22.00        94.59
 1032.13        2981.25           2587          25.00       107.67
 1032.16        2981.50           2591          26.00       112.03
 1032.19        2981.75           2594          24.00       103.31
 1032.22        2982.00           2598          21.00        90.24
 1032.25        2982.25           2601          23.00        98.95
 1032.28        2982.50           2605          23.00        98.95
