************************************************************
  HS Scan of 
************************************************************
Integration time is 0.2294 seconds per sample
dh040117Reading 51.44 .94 2.64pr1000
************************************************************
Dead Time -------------------------  3.4E-08 
Number of Cycles Used -------------  4 
Starting Wavelength (Angstroms) ---  2950 
Final Wavelength (Angstoms) -------  2984 
Wavelength Increment (Angstroms) --  .25 
Filter Wheel #1 Position ---------- (1) Ground quartz diffuser (ND=2.32)
Filter Wheel #2 Position ---------- (1) Neutral Density 0.494



************************************************************
HS scan start time = 05:16:32
Dark Count =  .3 


Time (GMT)  Wavelength (Ang)  Step Number  Raw Counts  Counts/Second

  317.44        2950.00           2144          38.00       164.34
  317.63        2950.25           2147          39.00       168.70
  317.66        2950.50           2151          34.00       146.91
  317.69        2950.75           2155          43.00       186.14
  317.72        2951.00           2158          33.00       142.55
  317.75        2951.25           2162          38.00       164.34
  317.78        2951.50           2165          35.00       151.26
  317.81        2951.75           2169          34.00       146.91
  317.84        2952.00           2172          35.00       151.26
  317.87        2952.25           2176          35.00       151.26
  317.91        2952.50           2179          36.00       155.62
  317.94        2952.75           2183          35.00       151.26
  317.97        2953.00           2186          44.00       190.50
  318.00        2953.25           2190          37.00       159.98
  318.03        2953.50           2193          43.00       186.14
  318.06        2953.75           2197          41.00       177.42
  318.09        2954.00           2200          35.00       151.26
  318.12        2954.25           2204          34.00       146.91
  318.15        2954.50           2208          38.00       164.34
  318.18        2954.75           2211          43.00       186.14
  318.21        2955.00           2215          42.00       181.78
  318.24        2955.25           2218          39.00       168.70
  318.27        2955.50           2222          42.00       181.78
  318.30        2955.75           2225          38.00       164.34
  318.33        2956.00           2229          34.00       146.91
  318.36        2956.25           2232          43.00       186.14
  318.39        2956.50           2236          36.00       155.62
  318.43        2956.75           2239          39.00       168.70
  318.46        2957.00           2243          44.00       190.50
  318.49        2957.25           2246          42.00       181.78
  318.52        2957.50           2250          41.00       177.42
  318.55        2957.75           2254          42.00       181.78
  318.58        2958.00           2257          41.00       177.42
  318.61        2958.25           2261          37.00       159.98
  318.64        2958.50           2264          45.00       194.86
  318.67        2958.75           2268          45.00       194.86
  318.70        2959.00           2271          43.00       186.14
  318.73        2959.25           2275          44.00       190.50
  318.76        2959.50           2278          42.00       181.78
  318.79        2959.75           2282          42.00       181.78
  318.82        2960.00           2285          44.00       190.50
  318.85        2960.25           2289          44.00       190.50
  318.88        2960.50           2293          42.00       181.78
  318.91        2960.75           2296          41.00       177.42
  318.95        2961.00           2300          45.00       194.86
  318.98        2961.25           2303          60.00       260.25
  319.01        2961.50           2307         165.00       717.98
  319.04        2961.75           2310         351.00      1528.85
  319.07        2962.00           2314         701.00      3054.81
  319.10        2962.25           2317        1001.00      4362.90
  319.13        2962.50           2321        1377.00      6002.53
  319.16        2962.75           2324        1706.00      7437.36
  319.19        2963.00           2328        2201.00      9596.42
  319.22        2963.25           2331        2460.00     10726.23
  319.25        2963.50           2335        2890.00     12602.17
  319.28        2963.75           2339        3325.00     14500.17
  319.31        2964.00           2342        3669.00     16001.29
  319.34        2964.25           2346        4126.00     17995.75
  319.37        2964.50           2349        4468.00     19488.50
  319.40        2964.75           2353        4876.00     21269.52
  319.43        2965.00           2356        5079.00     22155.74
  319.47        2965.25           2360        5520.00     24081.18
  319.50        2965.50           2363        5783.00     25229.57
  319.53        2965.75           2367        6335.00     27640.18
  319.56        2966.00           2370        6473.00     28242.89
  319.59        2966.25           2374        6979.00     30453.05
  319.62        2966.50           2378        7318.00     31933.96
  319.65        2966.75           2381        7342.00     32038.81
  319.68        2967.00           2385        7407.00     32322.78
  319.71        2967.25           2388        7323.00     31955.80
  319.74        2967.50           2392        7362.00     32126.18
  319.77        2967.75           2395        7334.00     32003.86
  319.80        2968.00           2399        7136.00     31138.88
  319.83        2968.25           2402        6910.00     30151.65
  319.86        2968.50           2406        6593.00     28767.01
  319.89        2968.75           2409        6279.00     27395.60
  319.92        2969.00           2413        5912.00     25792.88
  319.95        2969.25           2417        5490.00     23950.19
  319.99        2969.50           2420        5082.00     22168.84
  320.02        2969.75           2424        4674.00     20387.71
  320.05        2970.00           2427        4375.00     19082.56
  320.08        2970.25           2431        3948.00     17218.88
  320.11        2970.50           2434        3659.00     15957.65
  320.14        2970.75           2438        3241.00     14133.64
  320.17        2971.00           2441        2858.00     12462.56
  320.20        2971.25           2445        2466.00     10752.40
  320.23        2971.50           2449        2004.00      8737.12
  320.26        2971.75           2452        1636.00      7132.07
  320.29        2972.00           2456        1227.00      5348.40
  320.32        2972.25           2459         901.00      3926.85
  320.35        2972.50           2463         578.00      2518.52
  320.38        2972.75           2466         341.00      1485.25
  320.41        2973.00           2470         105.00       456.42
  320.44        2973.25           2473          56.00       242.81
  320.47        2973.50           2477          50.00       216.65
  320.51        2973.75           2481          43.00       186.14
  320.54        2974.00           2484          41.00       177.42
  320.57        2974.25           2488          43.00       186.14
  320.60        2974.50           2491          38.00       164.34
  320.63        2974.75           2495          38.00       164.34
  320.66        2975.00           2498          43.00       186.14
  320.69        2975.25           2502          39.00       168.70
  320.72        2975.50           2505          40.00       173.06
  320.75        2975.75           2509          39.00       168.70
  320.78        2976.00           2512          43.00       186.14
  320.81        2976.25           2516          41.00       177.42
  320.84        2976.50           2520          34.00       146.91
  320.87        2976.75           2523          36.00       155.62
  320.90        2977.00           2527          35.00       151.26
  320.93        2977.25           2530          32.00       138.19
  320.96        2977.50           2534          32.00       138.19
  320.99        2977.75           2537          38.00       164.34
  321.02        2978.00           2541          38.00       164.34
  321.06        2978.25           2544          35.00       151.26
  321.09        2978.50           2548          36.00       155.62
  321.12        2978.75           2552          32.00       138.19
  321.15        2979.00           2555          38.00       164.34
  321.18        2979.25           2559          32.00       138.19
  321.21        2979.50           2562          35.00       151.26
  321.24        2979.75           2566          31.00       133.83
  321.27        2980.00           2569          31.00       133.83
  321.30        2980.25           2573          25.00       107.67
  321.33        2980.50           2577          36.00       155.62
  321.36        2980.75           2580          29.00       125.11
  321.39        2981.00           2584          34.00       146.91
  321.42        2981.25           2587          32.00       138.19
  321.45        2981.50           2591          29.00       125.11
  321.48        2981.75           2594          35.00       151.26
  321.51        2982.00           2598          38.00       164.34
  321.54        2982.25           2601          34.00       146.91
  321.58        2982.50           2605          34.00       146.91
  321.61        2982.75           2609          27.00       116.39
  321.64        2983.00           2612          28.00       120.75
  321.67        2983.25           2616          32.00       138.19
  321.70        2983.50           2619          30.00       129.47
  321.73        2983.75           2623          33.00       142.55
  321.76        2984.00           2626          29.00       125.11
HS scan finished at 05:21:59
end
