************************************************************
  HS Scan of (1) Internal mercury lamp
************************************************************
Integration time is 0.2294 seconds per sample
dh130418Reading 51.44 .94 2.94pr1000
************************************************************
Dead Time -------------------------  3.4E-08 
Number of Cycles Used -------------  4 
Starting Wavelength (Angstroms) ---  2950 
Final Wavelength (Angstoms) -------  2984 
Wavelength Increment (Angstroms) --  .25 
Filter Wheel #1 Position ---------- (1) Ground quartz diffuser (ND=2.32)
Filter Wheel #2 Position ---------- (1) Neutral Density 0.494



************************************************************
HS scan start time = 01:09:45
Dark Count =  .6 


Time (GMT)  Wavelength (Ang)  Step Number  Raw Counts  Counts/Second

   70.65        2950.00           2144          70.00       302.53
   70.85        2950.25           2147          68.00       293.81
   70.88        2950.50           2151          66.00       285.09
   70.91        2950.75           2155          65.00       280.74
   70.94        2951.00           2158          74.00       319.97
   70.97        2951.25           2162          66.00       285.09
   71.00        2951.50           2165          71.00       306.89
   71.03        2951.75           2169          66.00       285.09
   71.06        2952.00           2172          75.00       324.33
   71.09        2952.25           2176          65.00       280.74
   71.12        2952.50           2179          79.00       341.77
   71.15        2952.75           2183          69.00       298.17
   71.18        2953.00           2186          66.00       285.09
   71.21        2953.25           2190          69.00       298.17
   71.24        2953.50           2193          60.00       258.94
   71.27        2953.75           2197          74.00       319.97
   71.30        2954.00           2200          75.00       324.33
   71.33        2954.25           2204          82.00       354.84
   71.37        2954.50           2208          70.00       302.53
   71.40        2954.75           2211          75.00       324.33
   71.43        2955.00           2215          73.00       315.61
   71.46        2955.25           2218          70.00       302.53
   71.49        2955.50           2222          71.00       306.89
   71.52        2955.75           2225          77.00       333.05
   71.55        2956.00           2229          85.00       367.92
   71.58        2956.25           2232          76.00       328.69
   71.61        2956.50           2236          67.00       289.45
   71.64        2956.75           2239          84.00       363.56
   71.67        2957.00           2243          90.00       389.72
   71.70        2957.25           2246          73.00       315.61
   71.73        2957.50           2250          85.00       367.92
   71.76        2957.75           2254          71.00       306.89
   71.79        2958.00           2257          83.00       359.20
   71.82        2958.25           2261          84.00       363.56
   71.85        2958.50           2264          88.00       381.00
   71.88        2958.75           2268          85.00       367.92
   71.92        2959.00           2271          86.00       372.28
   71.95        2959.25           2275          83.00       359.20
   71.98        2959.50           2278          87.00       376.64
   72.01        2959.75           2282          95.00       411.51
   72.04        2960.00           2285          94.00       407.15
   72.07        2960.25           2289          95.00       411.51
   72.10        2960.50           2293          99.00       428.95
   72.13        2960.75           2296          94.00       407.15
   72.16        2961.00           2300         163.00       707.95
   72.19        2961.25           2303         306.00      1331.36
   72.22        2961.50           2307         965.00      4204.61
   72.25        2961.75           2310        1707.00      7440.42
   72.28        2962.00           2314        2800.00     12208.21
   72.31        2962.25           2317        3842.00     16754.97
   72.34        2962.50           2321        5109.00     22285.41
   72.37        2962.75           2324        6116.00     26682.44
   72.40        2963.00           2328        7430.00     32421.94
   72.44        2963.25           2331        8473.00     36979.34
   72.47        2963.50           2335       10140.00     44266.23
   72.50        2963.75           2339       11343.00     49527.10
   72.53        2964.00           2342       12320.00     53801.03
   72.56        2964.25           2346       13537.00     59126.60
   72.59        2964.50           2349       14569.00     63644.12
   72.62        2964.75           2353       16253.00     71018.71
   72.65        2965.00           2356       16720.00     73064.46
   72.68        2965.25           2360       17938.00     78401.40
   72.71        2965.50           2363       19087.00     83437.77
   72.74        2965.75           2367       20297.00     88743.39
   72.77        2966.00           2370       21242.00     92888.37
   72.80        2966.25           2374       22185.00     97025.75
   72.83        2966.50           2378       23433.00    102503.10
   72.86        2966.75           2381       23285.00    101853.40
   72.89        2967.00           2385       23443.00    102547.00
   72.92        2967.25           2388       23037.00    100764.90
   72.96        2967.50           2392       23557.00    103047.40
   72.99        2967.75           2395       23183.00    101405.70
   73.02        2968.00           2399       22577.00     98745.97
   73.05        2968.25           2402       21667.00     94752.89
   73.08        2968.50           2406       20483.00     89559.12
   73.11        2968.75           2409       19615.00     85752.71
   73.14        2969.00           2413       18274.00     79873.99
   73.17        2969.25           2417       16746.00     73178.36
   73.20        2969.50           2420       15593.00     68127.99
   73.23        2969.75           2424       14223.00     62129.37
   73.26        2970.00           2427       13277.00     57988.67
   73.29        2970.25           2431       11963.00     52239.18
   73.32        2970.50           2434       10822.00     47248.48
   73.35        2970.75           2438        9877.00     43116.35
   73.38        2971.00           2441        8544.00     37289.62
   73.41        2971.25           2445        7075.00     30871.10
   73.44        2971.50           2449        5679.00     24774.13
   73.48        2971.75           2452        4602.00     20072.11
   73.51        2972.00           2456        3282.00     14311.23
   73.54        2972.25           2459        2360.00     10288.69
   73.57        2972.50           2463        1255.00      5469.20
   73.60        2972.75           2466         590.00      2569.54
   73.63        2973.00           2470         182.00       790.78
   73.66        2973.25           2473         158.00       686.15
   73.69        2973.50           2477         111.00       481.26
   73.72        2973.75           2481         107.00       463.83
   73.75        2974.00           2484         116.00       503.06
   73.78        2974.25           2488          85.00       367.92
   73.81        2974.50           2491          97.00       420.23
   73.84        2974.75           2495          93.00       402.80
   73.87        2975.00           2498          94.00       407.15
   73.90        2975.25           2502          85.00       367.92
   73.93        2975.50           2505          81.00       350.48
   73.96        2975.75           2509          89.00       385.36
   74.00        2976.00           2512          89.00       385.36
   74.03        2976.25           2516          88.00       381.00
   74.06        2976.50           2520          85.00       367.92
   74.09        2976.75           2523          78.00       337.41
   74.12        2977.00           2527          85.00       367.92
   74.15        2977.25           2530          78.00       337.41
   74.18        2977.50           2534          79.00       341.77
   74.21        2977.75           2537          75.00       324.33
   74.24        2978.00           2541          72.00       311.25
   74.27        2978.25           2544          75.00       324.33
   74.30        2978.50           2548          78.00       337.41
   74.33        2978.75           2552          74.00       319.97
   74.36        2979.00           2555          77.00       333.05
   74.39        2979.25           2559          80.00       346.12
   74.42        2979.50           2562          77.00       333.05
   74.45        2979.75           2566          71.00       306.89
   74.48        2980.00           2569          70.00       302.53
   74.52        2980.25           2573          71.00       306.89
   74.55        2980.50           2577          69.00       298.17
   74.58        2980.75           2580          77.00       333.05
   74.61        2981.00           2584          59.00       254.58
   74.64        2981.25           2587          76.00       328.69
   74.67        2981.50           2591          71.00       306.89
   74.70        2981.75           2594          73.00       315.61
   74.73        2982.00           2598          72.00       311.25
   74.76        2982.25           2601          72.00       311.25
   74.79        2982.50           2605          65.00       280.74
   74.82        2982.75           2609          64.00       276.38
   74.85        2983.00           2612          65.00       280.74
   74.88        2983.25           2616          69.00       298.17
   74.91        2983.50           2619          67.00       289.45
   74.94        2983.75           2623          64.00       276.38
   74.97        2984.00           2626          69.00       298.17
HS scan finished at 01:15:12
end
