************************************************************
  HS Scan of 
************************************************************
Integration time is 0.2294 seconds per sample
dh290517El Arenosillo 37.1 6.73 3.8pr1000
************************************************************
Dead Time -------------------------  3.4E-08 
Number of Cycles Used -------------  4 
Starting Wavelength (Angstroms) ---  2950 
Final Wavelength (Angstoms) -------  2984 
Wavelength Increment (Angstroms) --  .25 
Filter Wheel #1 Position ---------- (1) Ground quartz diffuser (ND=2.32)
Filter Wheel #2 Position ---------- (1) Neutral Density 0.494



************************************************************
HS scan start time = 20:06:21
Dark Count =  6.3 


Time (GMT)  Wavelength (Ang)  Step Number  Raw Counts  Counts/Second

 1207.24        2950.00           2144           5.00         2.00
 1207.44        2950.25           2147           5.00         2.00
 1207.47        2950.50           2151           8.00         7.41
 1207.50        2950.75           2155           6.00         2.00
 1207.53        2951.00           2158           7.00         3.05
 1207.56        2951.25           2162           7.00         3.05
 1207.59        2951.50           2165           5.00         2.00
 1207.62        2951.75           2169           7.00         3.05
 1207.65        2952.00           2172           7.00         3.05
 1207.68        2952.25           2176           7.00         3.05
 1207.71        2952.50           2179           9.00        11.77
 1207.74        2952.75           2183           6.00         2.00
 1207.77        2953.00           2186           7.00         3.05
 1207.80        2953.25           2190           5.00         2.00
 1207.83        2953.50           2193           6.00         2.00
 1207.86        2953.75           2197           6.00         2.00
 1207.89        2954.00           2200           6.00         2.00
 1207.93        2954.25           2204           5.00         2.00
 1207.96        2954.50           2208           5.00         2.00
 1207.99        2954.75           2211           6.00         2.00
 1208.02        2955.00           2215           5.00         2.00
 1208.05        2955.25           2218           8.00         7.41
 1208.08        2955.50           2222           5.00         2.00
 1208.11        2955.75           2225           2.00         2.00
 1208.14        2956.00           2229           7.00         3.05
 1208.17        2956.25           2232           5.00         2.00
 1208.20        2956.50           2236           6.00         2.00
 1208.23        2956.75           2239           7.00         3.05
 1208.26        2957.00           2243           6.00         2.00
 1208.29        2957.25           2246           8.00         7.41
 1208.32        2957.50           2250           5.00         2.00
 1208.35        2957.75           2254           5.00         2.00
 1208.38        2958.00           2257           6.00         2.00
 1208.41        2958.25           2261           8.00         7.41
 1208.45        2958.50           2264           6.00         2.00
 1208.48        2958.75           2268           8.00         7.41
 1208.51        2959.00           2271           6.00         2.00
 1208.54        2959.25           2275           5.00         2.00
 1208.57        2959.50           2278           6.00         2.00
 1208.60        2959.75           2282           7.00         3.05
 1208.63        2960.00           2285           6.00         2.00
 1208.66        2960.25           2289           7.00         3.05
 1208.69        2960.50           2293           7.00         3.05
 1208.72        2960.75           2296           6.00         2.00
 1208.75        2961.00           2300           7.00         3.05
 1208.78        2961.25           2303           5.00         2.00
 1208.81        2961.50           2307           7.00         3.05
 1208.84        2961.75           2310           6.00         2.00
 1208.87        2962.00           2314           6.00         2.00
 1208.90        2962.25           2317           8.00         7.41
 1208.93        2962.50           2321           5.00         2.00
 1208.97        2962.75           2324           6.00         2.00
 1209.00        2963.00           2328           6.00         2.00
 1209.03        2963.25           2331           7.00         3.05
 1209.06        2963.50           2335           5.00         2.00
 1209.09        2963.75           2339           8.00         7.41
 1209.12        2964.00           2342           5.00         2.00
 1209.15        2964.25           2346           6.00         2.00
 1209.18        2964.50           2349           6.00         2.00
 1209.21        2964.75           2353           7.00         3.05
 1209.24        2965.00           2356           4.00         2.00
 1209.27        2965.25           2360           5.00         2.00
 1209.30        2965.50           2363           7.00         3.05
 1209.33        2965.75           2367           3.00         2.00
 1209.36        2966.00           2370           7.00         3.05
 1209.39        2966.25           2374           6.00         2.00
 1209.42        2966.50           2378           5.00         2.00
 1209.45        2966.75           2381           4.00         2.00
 1209.48        2967.00           2385           7.00         3.05
 1209.52        2967.25           2388           6.00         2.00
 1209.55        2967.50           2392          11.00        20.49
 1209.58        2967.75           2395           6.00         2.00
 1209.61        2968.00           2399           4.00         2.00
 1209.64        2968.25           2402           6.00         2.00
 1209.67        2968.50           2406           5.00         2.00
 1209.70        2968.75           2409           6.00         2.00
 1209.73        2969.00           2413           8.00         7.41
 1209.76        2969.25           2417           9.00        11.77
 1209.79        2969.50           2420           7.00         3.05
 1209.82        2969.75           2424           3.00         2.00
 1209.85        2970.00           2427           5.00         2.00
 1209.88        2970.25           2431           5.00         2.00
 1209.91        2970.50           2434           6.00         2.00
 1209.94        2970.75           2438           6.00         2.00
 1209.97        2971.00           2441           4.00         2.00
 1210.00        2971.25           2445           6.00         2.00
 1210.04        2971.50           2449           6.00         2.00
 1210.07        2971.75           2452           6.00         2.00
 1210.10        2972.00           2456           4.00         2.00
 1210.13        2972.25           2459           7.00         3.05
 1210.16        2972.50           2463           6.00         2.00
 1210.19        2972.75           2466           7.00         3.05
 1210.22        2973.00           2470           8.00         7.41
 1210.25        2973.25           2473           6.00         2.00
 1210.28        2973.50           2477           7.00         3.05
 1210.31        2973.75           2481           6.00         2.00
 1210.34        2974.00           2484           6.00         2.00
 1210.37        2974.25           2488           5.00         2.00
 1210.40        2974.50           2491           7.00         3.05
 1210.43        2974.75           2495           7.00         3.05
 1210.46        2975.00           2498           6.00         2.00
 1210.49        2975.25           2502           5.00         2.00
 1210.52        2975.50           2505           6.00         2.00
 1210.56        2975.75           2509           6.00         2.00
 1210.59        2976.00           2512           6.00         2.00
 1210.62        2976.25           2516           4.00         2.00
 1210.65        2976.50           2520           7.00         3.05
 1210.68        2976.75           2523           6.00         2.00
 1210.71        2977.00           2527           4.00         2.00
 1210.74        2977.25           2530           6.00         2.00
 1210.77        2977.50           2534           6.00         2.00
 1210.80        2977.75           2537           4.00         2.00
 1210.83        2978.00           2541           7.00         3.05
 1210.86        2978.25           2544           4.00         2.00
 1210.89        2978.50           2548           5.00         2.00
 1210.92        2978.75           2552           3.00         2.00
 1210.95        2979.00           2555           6.00         2.00
 1210.98        2979.25           2559           7.00         3.05
 1211.01        2979.50           2562          10.00        16.13
 1211.04        2979.75           2566           5.00         2.00
 1211.08        2980.00           2569           6.00         2.00
 1211.11        2980.25           2573           7.00         3.05
 1211.14        2980.50           2577           5.00         2.00
 1211.17        2980.75           2580           7.00         3.05
 1211.20        2981.00           2584           6.00         2.00
 1211.23        2981.25           2587           6.00         2.00
 1211.26        2981.50           2591           5.00         2.00
 1211.29        2981.75           2594           5.00         2.00
 1211.32        2982.00           2598           5.00         2.00
 1211.35        2982.25           2601           5.00         2.00
 1211.38        2982.50           2605           6.00         2.00
 1211.41        2982.75           2609           9.00        11.77
 1211.44        2983.00           2612           5.00         2.00
 1211.47        2983.25           2616           6.00         2.00
 1211.50        2983.50           2619           7.00         3.05
 1211.53        2983.75           2623           9.00        11.77
 1211.56        2984.00           2626           6.00         2.00
HS scan finished at 20:11:47
end
