************************************************************
  HS Scan of 
************************************************************
Integration time is 0.2294 seconds per sample
dh310517El Arenosillo 37.1 6.73 3.72pr1000
************************************************************
Dead Time -------------------------  3.4E-08 
Number of Cycles Used -------------  4 
Starting Wavelength (Angstroms) ---  2950 
Final Wavelength (Angstoms) -------  2984 
Wavelength Increment (Angstroms) --  .25 
Filter Wheel #1 Position ---------- (1) Ground quartz diffuser (ND=2.32)
Filter Wheel #2 Position ---------- (1) Neutral Density 0.494



************************************************************
HS scan start time = 01:58:40
Dark Count =  3.7 


Time (GMT)  Wavelength (Ang)  Step Number  Raw Counts  Counts/Second

  119.57        2950.00           2144           3.00         2.00
  119.76        2950.25           2147           4.00         2.00
  119.79        2950.50           2151           3.00         2.00
  119.82        2950.75           2155           5.00         5.67
  119.86        2951.00           2158           5.00         5.67
  119.89        2951.25           2162           5.00         5.67
  119.92        2951.50           2165           4.00         2.00
  119.95        2951.75           2169           4.00         2.00
  119.98        2952.00           2172           6.00        10.03
  120.01        2952.25           2176           5.00         5.67
  120.04        2952.50           2179           6.00        10.03
  120.07        2952.75           2183           6.00        10.03
  120.10        2953.00           2186           6.00        10.03
  120.13        2953.25           2190           5.00         5.67
  120.16        2953.50           2193           4.00         2.00
  120.19        2953.75           2197           4.00         2.00
  120.22        2954.00           2200           6.00        10.03
  120.25        2954.25           2204           7.00        14.39
  120.28        2954.50           2208           4.00         2.00
  120.31        2954.75           2211           4.00         2.00
  120.34        2955.00           2215           7.00        14.39
  120.38        2955.25           2218           4.00         2.00
  120.41        2955.50           2222           6.00        10.03
  120.44        2955.75           2225           6.00        10.03
  120.47        2956.00           2229           4.00         2.00
  120.50        2956.25           2232           4.00         2.00
  120.53        2956.50           2236           5.00         5.67
  120.56        2956.75           2239           5.00         5.67
  120.59        2957.00           2243           6.00        10.03
  120.62        2957.25           2246           4.00         2.00
  120.65        2957.50           2250           7.00        14.39
  120.68        2957.75           2254           3.00         2.00
  120.71        2958.00           2257           4.00         2.00
  120.74        2958.25           2261           3.00         2.00
  120.77        2958.50           2264           4.00         2.00
  120.80        2958.75           2268           5.00         5.67
  120.83        2959.00           2271           6.00        10.03
  120.86        2959.25           2275           4.00         2.00
  120.90        2959.50           2278           4.00         2.00
  120.93        2959.75           2282           4.00         2.00
  120.96        2960.00           2285           5.00         5.67
  120.99        2960.25           2289           5.00         5.67
  121.02        2960.50           2293           3.00         2.00
  121.05        2960.75           2296           4.00         2.00
  121.08        2961.00           2300           6.00        10.03
  121.11        2961.25           2303           4.00         2.00
  121.14        2961.50           2307           6.00        10.03
  121.17        2961.75           2310           3.00         2.00
  121.20        2962.00           2314           4.00         2.00
  121.23        2962.25           2317           3.00         2.00
  121.26        2962.50           2321           6.00        10.03
  121.29        2962.75           2324           5.00         5.67
  121.32        2963.00           2328           5.00         5.67
  121.35        2963.25           2331           4.00         2.00
  121.38        2963.50           2335           4.00         2.00
  121.42        2963.75           2339           4.00         2.00
  121.45        2964.00           2342           4.00         2.00
  121.48        2964.25           2346           6.00        10.03
  121.51        2964.50           2349           7.00        14.39
  121.54        2964.75           2353           4.00         2.00
  121.57        2965.00           2356           4.00         2.00
  121.60        2965.25           2360           4.00         2.00
  121.63        2965.50           2363           7.00        14.39
  121.66        2965.75           2367           5.00         5.67
  121.69        2966.00           2370           3.00         2.00
  121.72        2966.25           2374           4.00         2.00
  121.75        2966.50           2378           5.00         5.67
  121.78        2966.75           2381           5.00         5.67
  121.81        2967.00           2385           4.00         2.00
  121.84        2967.25           2388           6.00        10.03
  121.87        2967.50           2392           4.00         2.00
  121.90        2967.75           2395           4.00         2.00
  121.94        2968.00           2399           5.00         5.67
  121.97        2968.25           2402           3.00         2.00
  122.00        2968.50           2406           4.00         2.00
  122.03        2968.75           2409           5.00         5.67
  122.06        2969.00           2413           6.00        10.03
  122.09        2969.25           2417           4.00         2.00
  122.12        2969.50           2420           6.00        10.03
  122.15        2969.75           2424           4.00         2.00
  122.18        2970.00           2427           5.00         5.67
  122.21        2970.25           2431           6.00        10.03
  122.24        2970.50           2434           5.00         5.67
  122.27        2970.75           2438           4.00         2.00
  122.30        2971.00           2441           4.00         2.00
  122.33        2971.25           2445           4.00         2.00
  122.36        2971.50           2449           5.00         5.67
  122.39        2971.75           2452           5.00         5.67
  122.42        2972.00           2456           5.00         5.67
  122.45        2972.25           2459           4.00         2.00
  122.49        2972.50           2463           5.00         5.67
  122.52        2972.75           2466           6.00        10.03
  122.55        2973.00           2470           6.00        10.03
  122.58        2973.25           2473           4.00         2.00
  122.61        2973.50           2477           3.00         2.00
  122.64        2973.75           2481           3.00         2.00
  122.67        2974.00           2484           3.00         2.00
  122.70        2974.25           2488           5.00         5.67
  122.73        2974.50           2491           3.00         2.00
  122.76        2974.75           2495           4.00         2.00
  122.79        2975.00           2498           8.00        18.74
  122.82        2975.25           2502           5.00         5.67
  122.85        2975.50           2505           5.00         5.67
  122.88        2975.75           2509           5.00         5.67
  122.91        2976.00           2512           5.00         5.67
  122.94        2976.25           2516           4.00         2.00
  122.97        2976.50           2520           4.00         2.00
  123.01        2976.75           2523           4.00         2.00
  123.04        2977.00           2527           5.00         5.67
  123.07        2977.25           2530           5.00         5.67
  123.10        2977.50           2534           4.00         2.00
  123.13        2977.75           2537           6.00        10.03
  123.16        2978.00           2541           5.00         5.67
  123.19        2978.25           2544           4.00         2.00
  123.22        2978.50           2548           5.00         5.67
  123.25        2978.75           2552           4.00         2.00
  123.28        2979.00           2555           3.00         2.00
  123.31        2979.25           2559           4.00         2.00
  123.34        2979.50           2562           5.00         5.67
  123.37        2979.75           2566           5.00         5.67
  123.40        2980.00           2569           5.00         5.67
  123.43        2980.25           2573           8.00        18.74
  123.46        2980.50           2577           6.00        10.03
  123.49        2980.75           2580           4.00         2.00
  123.53        2981.00           2584           3.00         2.00
  123.56        2981.25           2587           5.00         5.67
  123.59        2981.50           2591           5.00         5.67
  123.62        2981.75           2594           6.00        10.03
  123.65        2982.00           2598           4.00         2.00
  123.68        2982.25           2601           4.00         2.00
  123.71        2982.50           2605           3.00         2.00
  123.74        2982.75           2609           5.00         5.67
  123.77        2983.00           2612           5.00         5.67
  123.80        2983.25           2616           6.00        10.03
  123.83        2983.50           2619           5.00         5.67
  123.86        2983.75           2623           5.00         5.67
  123.89        2984.00           2626           4.00         2.00
HS scan finished at 02:04:07
end
************************************************************
  HS Scan of 
************************************************************
Integration time is 0.2294 seconds per sample
dh310517El Arenosillo 37.1 6.73 3.78pr1000
************************************************************
Dead Time -------------------------  3.4E-08 
Number of Cycles Used -------------  4 
Starting Wavelength (Angstroms) ---  2950 
Final Wavelength (Angstoms) -------  2984 
Wavelength Increment (Angstroms) --  .25 
Filter Wheel #1 Position ---------- (1) Ground quartz diffuser (ND=2.32)
Filter Wheel #2 Position ---------- (1) Neutral Density 0.494



************************************************************
HS scan start time = 21:24:27
Dark Count =  5.3 


Time (GMT)  Wavelength (Ang)  Step Number  Raw Counts  Counts/Second

 1285.36        2950.00           2144           6.00         3.05
 1285.55        2950.25           2147           6.00         3.05
 1285.58        2950.50           2151           5.00         2.00
 1285.61        2950.75           2155           6.00         3.05
 1285.64        2951.00           2158           6.00         3.05
 1285.67        2951.25           2162           4.00         2.00
 1285.70        2951.50           2165           5.00         2.00
 1285.73        2951.75           2169           7.00         7.41
 1285.76        2952.00           2172           6.00         3.05
 1285.79        2952.25           2176           6.00         3.05
 1285.82        2952.50           2179           5.00         2.00
 1285.86        2952.75           2183           8.00        11.77
 1285.89        2953.00           2186           6.00         3.05
 1285.92        2953.25           2190           5.00         2.00
 1285.95        2953.50           2193           6.00         3.05
 1285.98        2953.75           2197           4.00         2.00
 1286.01        2954.00           2200           6.00         3.05
 1286.04        2954.25           2204           6.00         3.05
 1286.07        2954.50           2208           5.00         2.00
 1286.10        2954.75           2211           5.00         2.00
 1286.13        2955.00           2215           3.00         2.00
 1286.16        2955.25           2218           5.00         2.00
 1286.19        2955.50           2222           6.00         3.05
 1286.22        2955.75           2225           5.00         2.00
 1286.25        2956.00           2229           5.00         2.00
 1286.28        2956.25           2232           7.00         7.41
 1286.31        2956.50           2236           5.00         2.00
 1286.34        2956.75           2239           8.00        11.77
 1286.38        2957.00           2243           5.00         2.00
 1286.41        2957.25           2246           6.00         3.05
 1286.44        2957.50           2250           7.00         7.41
 1286.47        2957.75           2254           7.00         7.41
 1286.50        2958.00           2257           5.00         2.00
 1286.53        2958.25           2261           6.00         3.05
 1286.56        2958.50           2264           4.00         2.00
 1286.59        2958.75           2268           9.00        16.13
 1286.62        2959.00           2271           5.00         2.00
 1286.65        2959.25           2275           6.00         3.05
 1286.68        2959.50           2278           8.00        11.77
 1286.71        2959.75           2282           6.00         3.05
 1286.74        2960.00           2285           4.00         2.00
 1286.77        2960.25           2289           5.00         2.00
 1286.80        2960.50           2293           8.00        11.77
 1286.83        2960.75           2296           5.00         2.00
 1286.86        2961.00           2300           5.00         2.00
 1286.90        2961.25           2303           5.00         2.00
 1286.93        2961.50           2307           5.00         2.00
 1286.96        2961.75           2310           5.00         2.00
 1286.99        2962.00           2314           5.00         2.00
 1287.02        2962.25           2317           9.00        16.13
 1287.05        2962.50           2321           5.00         2.00
 1287.08        2962.75           2324           6.00         3.05
 1287.11        2963.00           2328           6.00         3.05
 1287.14        2963.25           2331           5.00         2.00
 1287.17        2963.50           2335           7.00         7.41
 1287.20        2963.75           2339           5.00         2.00
 1287.23        2964.00           2342           4.00         2.00
 1287.26        2964.25           2346           4.00         2.00
 1287.29        2964.50           2349           4.00         2.00
 1287.32        2964.75           2353           5.00         2.00
 1287.35        2965.00           2356           4.00         2.00
 1287.38        2965.25           2360           6.00         3.05
 1287.42        2965.50           2363           5.00         2.00
 1287.45        2965.75           2367           4.00         2.00
 1287.48        2966.00           2370           5.00         2.00
 1287.51        2966.25           2374           5.00         2.00
 1287.54        2966.50           2378           6.00         3.05
 1287.57        2966.75           2381           5.00         2.00
 1287.60        2967.00           2385           6.00         3.05
 1287.63        2967.25           2388           3.00         2.00
 1287.66        2967.50           2392           2.00         2.00
 1287.69        2967.75           2395           6.00         3.05
 1287.72        2968.00           2399           5.00         2.00
 1287.75        2968.25           2402           5.00         2.00
 1287.78        2968.50           2406           5.00         2.00
 1287.81        2968.75           2409           6.00         3.05
 1287.84        2969.00           2413           4.00         2.00
 1287.87        2969.25           2417           6.00         3.05
 1287.90        2969.50           2420           3.00         2.00
 1287.94        2969.75           2424           6.00         3.05
 1287.97        2970.00           2427           4.00         2.00
 1288.00        2970.25           2431           8.00        11.77
 1288.03        2970.50           2434           4.00         2.00
 1288.06        2970.75           2438           6.00         3.05
 1288.09        2971.00           2441           3.00         2.00
 1288.12        2971.25           2445           5.00         2.00
 1288.15        2971.50           2449           5.00         2.00
 1288.18        2971.75           2452           7.00         7.41
 1288.21        2972.00           2456           6.00         3.05
 1288.24        2972.25           2459           3.00         2.00
 1288.27        2972.50           2463           6.00         3.05
 1288.30        2972.75           2466           6.00         3.05
 1288.33        2973.00           2470           5.00         2.00
 1288.36        2973.25           2473           5.00         2.00
 1288.39        2973.50           2477           6.00         3.05
 1288.42        2973.75           2481           5.00         2.00
 1288.46        2974.00           2484           7.00         7.41
 1288.49        2974.25           2488           5.00         2.00
 1288.52        2974.50           2491           6.00         3.05
 1288.55        2974.75           2495           4.00         2.00
 1288.58        2975.00           2498           5.00         2.00
 1288.61        2975.25           2502           6.00         3.05
 1288.64        2975.50           2505           6.00         3.05
 1288.67        2975.75           2509           5.00         2.00
 1288.70        2976.00           2512           4.00         2.00
 1288.73        2976.25           2516           6.00         3.05
 1288.76        2976.50           2520           5.00         2.00
 1288.79        2976.75           2523           4.00         2.00
 1288.82        2977.00           2527           6.00         3.05
 1288.85        2977.25           2530           6.00         3.05
 1288.88        2977.50           2534           7.00         7.41
 1288.91        2977.75           2537           6.00         3.05
 1288.94        2978.00           2541           7.00         7.41
 1288.97        2978.25           2544           6.00         3.05
 1289.01        2978.50           2548           6.00         3.05
 1289.04        2978.75           2552           6.00         3.05
 1289.07        2979.00           2555           5.00         2.00
 1289.10        2979.25           2559           6.00         3.05
 1289.13        2979.50           2562           6.00         3.05
 1289.16        2979.75           2566           5.00         2.00
 1289.19        2980.00           2569           5.00         2.00
 1289.22        2980.25           2573           6.00         3.05
 1289.25        2980.50           2577           7.00         7.41
 1289.28        2980.75           2580           7.00         7.41
 1289.31        2981.00           2584           5.00         2.00
 1289.34        2981.25           2587           6.00         3.05
 1289.37        2981.50           2591           6.00         3.05
 1289.40        2981.75           2594           4.00         2.00
 1289.43        2982.00           2598           5.00         2.00
 1289.46        2982.25           2601           6.00         3.05
 1289.49        2982.50           2605           4.00         2.00
