************************************************************
  HS Scan of 
************************************************************
Integration time is 0.2294 seconds per sample
dh010617El Arenosillo 37.1 6.73 3.72pr1000
************************************************************
Dead Time -------------------------  3.4E-08 
Number of Cycles Used -------------  4 
Starting Wavelength (Angstroms) ---  2950 
Final Wavelength (Angstoms) -------  2984 
Wavelength Increment (Angstroms) --  .25 
Filter Wheel #1 Position ---------- (1) Ground quartz diffuser (ND=2.32)
Filter Wheel #2 Position ---------- (1) Neutral Density 0.494



************************************************************
HS scan start time = 01:50:50
Dark Count =  4.4 


Time (GMT)  Wavelength (Ang)  Step Number  Raw Counts  Counts/Second

  111.73        2950.00           2144           5.00         2.62
  111.92        2950.25           2147           4.00         2.00
  111.96        2950.50           2151           4.00         2.00
  111.99        2950.75           2155           4.00         2.00
  112.02        2951.00           2158           5.00         2.62
  112.05        2951.25           2162           5.00         2.62
  112.08        2951.50           2165           5.00         2.62
  112.11        2951.75           2169           4.00         2.00
  112.14        2952.00           2172           2.00         2.00
  112.17        2952.25           2176           5.00         2.62
  112.20        2952.50           2179           4.00         2.00
  112.23        2952.75           2183           4.00         2.00
  112.26        2953.00           2186           3.00         2.00
  112.29        2953.25           2190           4.00         2.00
  112.32        2953.50           2193           5.00         2.62
  112.35        2953.75           2197           2.00         2.00
  112.38        2954.00           2200           3.00         2.00
  112.41        2954.25           2204           5.00         2.62
  112.44        2954.50           2208           2.00         2.00
  112.48        2954.75           2211           6.00         6.97
  112.51        2955.00           2215           4.00         2.00
  112.54        2955.25           2218           3.00         2.00
  112.57        2955.50           2222           5.00         2.62
  112.60        2955.75           2225           3.00         2.00
  112.63        2956.00           2229           6.00         6.97
  112.66        2956.25           2232           5.00         2.62
  112.69        2956.50           2236           5.00         2.62
  112.72        2956.75           2239           5.00         2.62
  112.75        2957.00           2243           3.00         2.00
  112.78        2957.25           2246           3.00         2.00
  112.81        2957.50           2250           4.00         2.00
  112.84        2957.75           2254           3.00         2.00
  112.87        2958.00           2257           4.00         2.00
  112.90        2958.25           2261           4.00         2.00
  112.93        2958.50           2264           5.00         2.62
  112.96        2958.75           2268           4.00         2.00
  113.00        2959.00           2271           4.00         2.00
  113.03        2959.25           2275           5.00         2.62
  113.06        2959.50           2278           3.00         2.00
  113.09        2959.75           2282           4.00         2.00
  113.12        2960.00           2285           4.00         2.00
  113.15        2960.25           2289           4.00         2.00
  113.18        2960.50           2293           2.00         2.00
  113.21        2960.75           2296           4.00         2.00
  113.24        2961.00           2300           3.00         2.00
  113.27        2961.25           2303           6.00         6.97
  113.30        2961.50           2307           4.00         2.00
  113.33        2961.75           2310           1.00         2.00
  113.36        2962.00           2314           4.00         2.00
  113.39        2962.25           2317           4.00         2.00
  113.42        2962.50           2321           4.00         2.00
  113.45        2962.75           2324           4.00         2.00
  113.48        2963.00           2328           3.00         2.00
  113.52        2963.25           2331           5.00         2.62
  113.55        2963.50           2335           4.00         2.00
  113.58        2963.75           2339           5.00         2.62
  113.61        2964.00           2342           4.00         2.00
  113.64        2964.25           2346           5.00         2.62
  113.67        2964.50           2349           6.00         6.97
  113.70        2964.75           2353           5.00         2.62
  113.73        2965.00           2356           4.00         2.00
  113.76        2965.25           2360           4.00         2.00
  113.79        2965.50           2363           3.00         2.00
  113.82        2965.75           2367           4.00         2.00
  113.85        2966.00           2370           3.00         2.00
  113.88        2966.25           2374           6.00         6.97
  113.91        2966.50           2378           5.00         2.62
  113.94        2966.75           2381           4.00         2.00
  113.97        2967.00           2385           6.00         6.97
  114.00        2967.25           2388           6.00         6.97
  114.03        2967.50           2392           4.00         2.00
  114.07        2967.75           2395           4.00         2.00
  114.10        2968.00           2399           5.00         2.62
  114.13        2968.25           2402           4.00         2.00
  114.16        2968.50           2406           5.00         2.62
  114.19        2968.75           2409           4.00         2.00
  114.22        2969.00           2413           3.00         2.00
  114.25        2969.25           2417           6.00         6.97
  114.28        2969.50           2420           4.00         2.00
  114.31        2969.75           2424           4.00         2.00
  114.34        2970.00           2427           5.00         2.62
  114.37        2970.25           2431           5.00         2.62
  114.40        2970.50           2434           5.00         2.62
  114.43        2970.75           2438           4.00         2.00
  114.46        2971.00           2441           5.00         2.62
  114.49        2971.25           2445           5.00         2.62
  114.52        2971.50           2449           5.00         2.62
  114.55        2971.75           2452           3.00         2.00
  114.59        2972.00           2456           5.00         2.62
  114.62        2972.25           2459           7.00        11.33
  114.65        2972.50           2463           7.00        11.33
  114.68        2972.75           2466           5.00         2.62
  114.71        2973.00           2470           5.00         2.62
  114.74        2973.25           2473           5.00         2.62
  114.77        2973.50           2477           4.00         2.00
  114.80        2973.75           2481           5.00         2.62
  114.83        2974.00           2484           4.00         2.00
  114.86        2974.25           2488           4.00         2.00
  114.89        2974.50           2491           5.00         2.62
  114.92        2974.75           2495           6.00         6.97
  114.95        2975.00           2498           5.00         2.62
  114.98        2975.25           2502           3.00         2.00
  115.01        2975.50           2505           2.00         2.00
  115.04        2975.75           2509           4.00         2.00
  115.07        2976.00           2512           4.00         2.00
  115.11        2976.25           2516           4.00         2.00
  115.14        2976.50           2520           4.00         2.00
  115.17        2976.75           2523           6.00         6.97
  115.20        2977.00           2527           4.00         2.00
  115.23        2977.25           2530           3.00         2.00
  115.26        2977.50           2534           5.00         2.62
  115.29        2977.75           2537           3.00         2.00
  115.32        2978.00           2541           4.00         2.00
  115.35        2978.25           2544           4.00         2.00
  115.38        2978.50           2548           8.00        15.69
  115.41        2978.75           2552           4.00         2.00
  115.44        2979.00           2555           4.00         2.00
  115.47        2979.25           2559           5.00         2.62
  115.50        2979.50           2562           4.00         2.00
  115.53        2979.75           2566           5.00         2.62
  115.56        2980.00           2569           4.00         2.00
  115.59        2980.25           2573           4.00         2.00
  115.63        2980.50           2577           5.00         2.62
  115.66        2980.75           2580           4.00         2.00
  115.69        2981.00           2584           7.00        11.33
  115.72        2981.25           2587           7.00        11.33
  115.75        2981.50           2591           3.00         2.00
  115.78        2981.75           2594           6.00         6.97
  115.81        2982.00           2598           4.00         2.00
  115.84        2982.25           2601           3.00         2.00
  115.87        2982.50           2605           5.00         2.62
  115.90        2982.75           2609           4.00         2.00
  115.93        2983.00           2612           6.00         6.97
  115.96        2983.25           2616           6.00         6.97
  115.99        2983.50           2619           3.00         2.00
  116.02        2983.75           2623           3.00         2.00
  116.05        2984.00           2626           5.00         2.62
HS scan finished at 01:56:17
end
************************************************************
  HS Scan of 
************************************************************
Integration time is 0.2294 seconds per sample
dh010617El Arenosillo 37.1 6.73 3.86pr1000
************************************************************
Dead Time -------------------------  3.4E-08 
Number of Cycles Used -------------  4 
Starting Wavelength (Angstroms) ---  2950 
Final Wavelength (Angstoms) -------  2984 
Wavelength Increment (Angstroms) --  .25 
Filter Wheel #1 Position ---------- (1) Ground quartz diffuser (ND=2.32)
Filter Wheel #2 Position ---------- (1) Neutral Density 0.494



************************************************************
HS scan start time = 21:25:45
Dark Count =  6.7 


Time (GMT)  Wavelength (Ang)  Step Number  Raw Counts  Counts/Second

 1286.66        2950.00           2144           6.00         2.00
 1286.85        2950.25           2147           7.00         2.00
 1286.88        2950.50           2151           7.00         2.00
 1286.91        2950.75           2155           6.00         2.00
 1286.94        2951.00           2158           5.00         2.00
 1286.97        2951.25           2162           6.00         2.00
 1287.00        2951.50           2165           6.00         2.00
 1287.03        2951.75           2169           7.00         2.00
 1287.06        2952.00           2172           8.00         5.67
 1287.09        2952.25           2176           8.00         5.67
 1287.12        2952.50           2179           8.00         5.67
 1287.16        2952.75           2183           7.00         2.00
 1287.19        2953.00           2186           6.00         2.00
 1287.22        2953.25           2190           7.00         2.00
 1287.25        2953.50           2193           6.00         2.00
 1287.28        2953.75           2197           7.00         2.00
 1287.31        2954.00           2200           7.00         2.00
 1287.34        2954.25           2204           7.00         2.00
 1287.37        2954.50           2208           6.00         2.00
 1287.40        2954.75           2211           7.00         2.00
 1287.43        2955.00           2215           7.00         2.00
 1287.46        2955.25           2218           4.00         2.00
 1287.49        2955.50           2222           7.00         2.00
 1287.52        2955.75           2225           4.00         2.00
 1287.55        2956.00           2229           6.00         2.00
 1287.58        2956.25           2232           9.00        10.03
 1287.61        2956.50           2236           6.00         2.00
 1287.64        2956.75           2239           6.00         2.00
 1287.68        2957.00           2243           5.00         2.00
 1287.71        2957.25           2246           7.00         2.00
 1287.74        2957.50           2250           5.00         2.00
 1287.77        2957.75           2254           6.00         2.00
 1287.80        2958.00           2257           8.00         5.67
 1287.83        2958.25           2261           7.00         2.00
 1287.87        2958.50           2264           7.00         2.00
 1287.90        2958.75           2268           7.00         2.00
 1287.93        2959.00           2271           3.00         2.00
 1287.96        2959.25           2275           7.00         2.00
 1287.99        2959.50           2278           7.00         2.00
 1288.02        2959.75           2282           7.00         2.00
 1288.05        2960.00           2285           7.00         2.00
 1288.08        2960.25           2289           6.00         2.00
 1288.11        2960.50           2293           5.00         2.00
 1288.14        2960.75           2296           6.00         2.00
 1288.17        2961.00           2300           5.00         2.00
 1288.20        2961.25           2303           5.00         2.00
 1288.23        2961.50           2307          11.00        18.74
 1288.26        2961.75           2310           7.00         2.00
 1288.29        2962.00           2314           7.00         2.00
 1288.32        2962.25           2317           5.00         2.00
 1288.35        2962.50           2321           8.00         5.67
 1288.38        2962.75           2324           5.00         2.00
 1288.42        2963.00           2328           7.00         2.00
 1288.45        2963.25           2331           6.00         2.00
 1288.48        2963.50           2335           8.00         5.67
 1288.51        2963.75           2339           6.00         2.00
 1288.54        2964.00           2342           6.00         2.00
 1288.57        2964.25           2346           7.00         2.00
 1288.60        2964.50           2349           8.00         5.67
 1288.63        2964.75           2353           6.00         2.00
 1288.66        2965.00           2356           7.00         2.00
 1288.69        2965.25           2360           5.00         2.00
 1288.72        2965.50           2363           8.00         5.67
 1288.75        2965.75           2367           7.00         2.00
 1288.78        2966.00           2370           9.00        10.03
 1288.81        2966.25           2374           6.00         2.00
 1288.84        2966.50           2378           9.00        10.03
 1288.87        2966.75           2381          11.00        18.74
 1288.91        2967.00           2385           8.00         5.67
 1288.94        2967.25           2388           5.00         2.00
 1288.97        2967.50           2392           7.00         2.00
 1289.00        2967.75           2395           6.00         2.00
 1289.03        2968.00           2399           9.00        10.03
 1289.06        2968.25           2402           9.00        10.03
 1289.09        2968.50           2406           5.00         2.00
 1289.12        2968.75           2409           5.00         2.00
 1289.15        2969.00           2413           9.00        10.03
 1289.18        2969.25           2417           6.00         2.00
 1289.21        2969.50           2420           7.00         2.00
 1289.24        2969.75           2424           7.00         2.00
 1289.27        2970.00           2427           5.00         2.00
 1289.30        2970.25           2431           7.00         2.00
 1289.33        2970.50           2434           6.00         2.00
 1289.36        2970.75           2438           6.00         2.00
 1289.39        2971.00           2441           6.00         2.00
 1289.42        2971.25           2445           7.00         2.00
 1289.46        2971.50           2449           5.00         2.00
 1289.49        2971.75           2452           5.00         2.00
 1289.52        2972.00           2456           5.00         2.00
 1289.55        2972.25           2459           5.00         2.00
 1289.58        2972.50           2463           7.00         2.00
 1289.61        2972.75           2466           6.00         2.00
 1289.64        2973.00           2470           4.00         2.00
 1289.67        2973.25           2473           5.00         2.00
 1289.70        2973.50           2477           5.00         2.00
 1289.73        2973.75           2481           6.00         2.00
 1289.76        2974.00           2484           5.00         2.00
 1289.79        2974.25           2488           7.00         2.00
 1289.82        2974.50           2491           5.00         2.00
 1289.85        2974.75           2495           6.00         2.00
 1289.88        2975.00           2498           8.00         5.67
 1289.91        2975.25           2502           6.00         2.00
 1289.94        2975.50           2505           8.00         5.67
 1289.98        2975.75           2509           6.00         2.00
 1290.01        2976.00           2512           9.00        10.03
 1290.04        2976.25           2516           7.00         2.00
 1290.07        2976.50           2520           6.00         2.00
 1290.10        2976.75           2523           6.00         2.00
 1290.13        2977.00           2527           9.00        10.03
 1290.16        2977.25           2530           8.00         5.67
 1290.19        2977.50           2534           5.00         2.00
 1290.22        2977.75           2537           6.00         2.00
 1290.25        2978.00           2541           7.00         2.00
 1290.28        2978.25           2544           9.00        10.03
 1290.31        2978.50           2548           8.00         5.67
 1290.34        2978.75           2552           5.00         2.00
 1290.37        2979.00           2555           6.00         2.00
 1290.40        2979.25           2559           7.00         2.00
 1290.43        2979.50           2562           9.00        10.03
 1290.46        2979.75           2566           9.00        10.03
 1290.50        2980.00           2569           6.00         2.00
 1290.53        2980.25           2573           8.00         5.67
 1290.56        2980.50           2577           5.00         2.00
 1290.59        2980.75           2580           8.00         5.67
 1290.62        2981.00           2584           5.00         2.00
 1290.65        2981.25           2587           7.00         2.00
 1290.68        2981.50           2591           7.00         2.00
 1290.71        2981.75           2594           5.00         2.00
 1290.74        2982.00           2598          11.00        18.74
 1290.77        2982.25           2601           7.00         2.00
 1290.80        2982.50           2605           8.00         5.67
