************************************************************
  HS Scan of 
************************************************************
Integration time is 0.2294 seconds per sample
dh060617El Arenosillo 37.1 6.73 3.68pr1000
************************************************************
Dead Time -------------------------  3.4E-08 
Number of Cycles Used -------------  4 
Starting Wavelength (Angstroms) ---  2950 
Final Wavelength (Angstoms) -------  2984 
Wavelength Increment (Angstroms) --  .25 
Filter Wheel #1 Position ---------- (1) Ground quartz diffuser (ND=2.32)
Filter Wheel #2 Position ---------- (1) Neutral Density 0.494



************************************************************
HS scan start time = 03:03:08
Dark Count =  4.6 


Time (GMT)  Wavelength (Ang)  Step Number  Raw Counts  Counts/Second

  184.04        2950.00           2144           3.00         2.00
  184.23        2950.25           2147           4.00         2.00
  184.26        2950.50           2151           5.00         2.00
  184.29        2950.75           2155           4.00         2.00
  184.32        2951.00           2158           6.00         6.10
  184.35        2951.25           2162           4.00         2.00
  184.38        2951.50           2165           3.00         2.00
  184.41        2951.75           2169           3.00         2.00
  184.44        2952.00           2172           4.00         2.00
  184.47        2952.25           2176           4.00         2.00
  184.51        2952.50           2179           5.00         2.00
  184.54        2952.75           2183           5.00         2.00
  184.57        2953.00           2186           5.00         2.00
  184.60        2953.25           2190           5.00         2.00
  184.63        2953.50           2193           4.00         2.00
  184.66        2953.75           2197           4.00         2.00
  184.69        2954.00           2200           3.00         2.00
  184.72        2954.25           2204           3.00         2.00
  184.75        2954.50           2208           3.00         2.00
  184.78        2954.75           2211           3.00         2.00
  184.81        2955.00           2215           4.00         2.00
  184.84        2955.25           2218           4.00         2.00
  184.87        2955.50           2222           4.00         2.00
  184.90        2955.75           2225           3.00         2.00
  184.93        2956.00           2229           4.00         2.00
  184.96        2956.25           2232           5.00         2.00
  184.99        2956.50           2236           4.00         2.00
  185.03        2956.75           2239           3.00         2.00
  185.06        2957.00           2243           4.00         2.00
  185.09        2957.25           2246           3.00         2.00
  185.12        2957.50           2250           4.00         2.00
  185.15        2957.75           2254           3.00         2.00
  185.18        2958.00           2257           3.00         2.00
  185.21        2958.25           2261           5.00         2.00
  185.24        2958.50           2264           5.00         2.00
  185.27        2958.75           2268           2.00         2.00
  185.30        2959.00           2271           3.00         2.00
  185.33        2959.25           2275           5.00         2.00
  185.36        2959.50           2278           5.00         2.00
  185.39        2959.75           2282           2.00         2.00
  185.42        2960.00           2285           2.00         2.00
  185.45        2960.25           2289           4.00         2.00
  185.48        2960.50           2293           4.00         2.00
  185.51        2960.75           2296           3.00         2.00
  185.55        2961.00           2300           3.00         2.00
  185.58        2961.25           2303           3.00         2.00
  185.61        2961.50           2307           4.00         2.00
  185.64        2961.75           2310           5.00         2.00
  185.67        2962.00           2314           4.00         2.00
  185.70        2962.25           2317           3.00         2.00
  185.73        2962.50           2321           4.00         2.00
  185.76        2962.75           2324           4.00         2.00
  185.79        2963.00           2328           4.00         2.00
  185.82        2963.25           2331           3.00         2.00
  185.85        2963.50           2335           4.00         2.00
  185.88        2963.75           2339           5.00         2.00
  185.91        2964.00           2342           6.00         6.10
  185.94        2964.25           2346           4.00         2.00
  185.97        2964.50           2349           2.00         2.00
  186.00        2964.75           2353           5.00         2.00
  186.03        2965.00           2356           3.00         2.00
  186.07        2965.25           2360           5.00         2.00
  186.10        2965.50           2363           4.00         2.00
  186.13        2965.75           2367           5.00         2.00
  186.16        2966.00           2370           4.00         2.00
  186.19        2966.25           2374           3.00         2.00
  186.22        2966.50           2378           3.00         2.00
  186.25        2966.75           2381           4.00         2.00
  186.29        2967.00           2385           4.00         2.00
  186.32        2967.25           2388           3.00         2.00
  186.35        2967.50           2392           5.00         2.00
  186.38        2967.75           2395           1.00         2.00
  186.41        2968.00           2399           5.00         2.00
  186.44        2968.25           2402           4.00         2.00
  186.47        2968.50           2406           3.00         2.00
  186.50        2968.75           2409           3.00         2.00
  186.53        2969.00           2413           5.00         2.00
  186.56        2969.25           2417           3.00         2.00
  186.59        2969.50           2420           3.00         2.00
  186.62        2969.75           2424           2.00         2.00
  186.65        2970.00           2427           4.00         2.00
  186.68        2970.25           2431           3.00         2.00
  186.71        2970.50           2434           4.00         2.00
  186.74        2970.75           2438           5.00         2.00
  186.78        2971.00           2441           3.00         2.00
  186.81        2971.25           2445           5.00         2.00
  186.84        2971.50           2449           6.00         6.10
  186.87        2971.75           2452           5.00         2.00
  186.90        2972.00           2456           4.00         2.00
  186.93        2972.25           2459           3.00         2.00
  186.96        2972.50           2463           4.00         2.00
  186.99        2972.75           2466           4.00         2.00
  187.02        2973.00           2470           4.00         2.00
  187.05        2973.25           2473           4.00         2.00
  187.08        2973.50           2477           5.00         2.00
  187.11        2973.75           2481           5.00         2.00
  187.14        2974.00           2484           4.00         2.00
  187.17        2974.25           2488           7.00        10.46
  187.20        2974.50           2491           3.00         2.00
  187.23        2974.75           2495           4.00         2.00
  187.26        2975.00           2498           4.00         2.00
  187.29        2975.25           2502           2.00         2.00
  187.33        2975.50           2505           2.00         2.00
  187.36        2975.75           2509           4.00         2.00
  187.39        2976.00           2512           5.00         2.00
  187.42        2976.25           2516           5.00         2.00
  187.45        2976.50           2520           5.00         2.00
  187.48        2976.75           2523           5.00         2.00
  187.51        2977.00           2527           4.00         2.00
  187.54        2977.25           2530           4.00         2.00
  187.57        2977.50           2534           5.00         2.00
  187.60        2977.75           2537           5.00         2.00
  187.63        2978.00           2541           5.00         2.00
  187.66        2978.25           2544           3.00         2.00
  187.69        2978.50           2548           2.00         2.00
  187.72        2978.75           2552           4.00         2.00
  187.75        2979.00           2555           4.00         2.00
  187.78        2979.25           2559           3.00         2.00
  187.81        2979.50           2562           3.00         2.00
  187.85        2979.75           2566           6.00         6.10
  187.88        2980.00           2569           3.00         2.00
  187.91        2980.25           2573           5.00         2.00
  187.94        2980.50           2577           4.00         2.00
  187.97        2980.75           2580           2.00         2.00
  188.00        2981.00           2584           5.00         2.00
  188.03        2981.25           2587           4.00         2.00
  188.07        2981.50           2591           4.00         2.00
  188.11        2981.75           2594           4.00         2.00
  188.15        2982.00           2598           5.00         2.00
  188.18        2982.25           2601           4.00         2.00
  188.21        2982.50           2605           6.00         6.10
  188.24        2982.75           2609           5.00         2.00
  188.28        2983.00           2612           4.00         2.00
  188.31        2983.25           2616           4.00         2.00
  188.34        2983.50           2619           3.00         2.00
  188.37        2983.75           2623           3.00         2.00
  188.40        2984.00           2626           4.00         2.00
HS scan finished at 03:08:38
end
************************************************************
  HS Scan of (1) Internal mercury lamp
************************************************************
Integration time is 0.2294 seconds per sample
dh060617El Arenosillo 37.1 6.73 3.82pr1000
************************************************************
Dead Time -------------------------  3.4E-08 
Number of Cycles Used -------------  4 
Starting Wavelength (Angstroms) ---  2950 
Final Wavelength (Angstoms) -------  2984 
Wavelength Increment (Angstroms) --  .25 
Filter Wheel #1 Position ---------- (1) Ground quartz diffuser (ND=2.32)
Filter Wheel #2 Position ---------- (1) Neutral Density 0.494



************************************************************
HS scan start time = 20:34:19
Dark Count =  6.9 


Time (GMT)  Wavelength (Ang)  Step Number  Raw Counts  Counts/Second

 1235.21        2950.00           2144         309.00      1316.97
 1235.40        2950.25           2147         308.00      1312.61
 1235.43        2950.50           2151         312.00      1330.05
 1235.46        2950.75           2155         320.00      1364.93
 1235.49        2951.00           2158         325.00      1386.73
 1235.52        2951.25           2162         320.00      1364.93
 1235.55        2951.50           2165         312.00      1330.05
 1235.58        2951.75           2169         316.00      1347.49
 1235.61        2952.00           2172         312.00      1330.05
 1235.65        2952.25           2176         338.00      1443.40
 1235.68        2952.50           2179         303.00      1290.82
 1235.71        2952.75           2183         313.00      1334.41
 1235.74        2953.00           2186         325.00      1386.73
 1235.77        2953.25           2190         335.00      1430.32
 1235.80        2953.50           2193         350.00      1495.72
 1235.83        2953.75           2197         344.00      1469.56
 1235.86        2954.00           2200         336.00      1434.68
 1235.89        2954.25           2204         368.00      1574.19
 1235.92        2954.50           2208         344.00      1469.56
 1235.95        2954.75           2211         346.00      1478.28
 1235.98        2955.00           2215         365.00      1561.11
 1236.01        2955.25           2218         357.00      1526.23
 1236.04        2955.50           2222         364.00      1556.75
 1236.07        2955.75           2225         356.00      1521.87
 1236.10        2956.00           2229         362.00      1548.03
 1236.13        2956.25           2232         366.00      1565.47
 1236.17        2956.50           2236         389.00      1665.74
 1236.20        2956.75           2239         379.00      1622.15
 1236.23        2957.00           2243         388.00      1661.38
 1236.26        2957.25           2246         389.00      1665.74
 1236.29        2957.50           2250         379.00      1622.15
 1236.32        2957.75           2254         387.00      1657.02
 1236.35        2958.00           2257         405.00      1735.50
 1236.38        2958.25           2261         432.00      1853.21
 1236.41        2958.50           2264         394.00      1687.54
 1236.44        2958.75           2268         387.00      1657.02
 1236.47        2959.00           2271         416.00      1783.46
 1236.50        2959.25           2275         460.00      1975.29
 1236.53        2959.50           2278         423.00      1813.97
 1236.56        2959.75           2282         439.00      1883.73
 1236.59        2960.00           2285         438.00      1879.37
 1236.62        2960.25           2289         463.00      1988.36
 1236.65        2960.50           2293         491.00      2110.44
 1236.69        2960.75           2296         497.00      2136.60
 1236.72        2961.00           2300         569.00      2450.51
 1236.75        2961.25           2303         964.00      4172.78
 1236.78        2961.50           2307        3794.00     16517.99
 1236.81        2961.75           2310        8045.00     35081.49
 1236.84        2962.00           2314       14363.00     62714.67
 1236.87        2962.25           2317       19270.00     84212.44
 1236.90        2962.50           2321       26115.00    114253.40
 1236.93        2962.75           2324       31732.00    138950.90
 1236.96        2963.00           2328       39672.00    173933.60
 1236.99        2963.25           2331       45806.00    201016.50
 1237.02        2963.50           2335       52248.00    229513.30
 1237.05        2963.75           2339       59786.00    262929.00
 1237.08        2964.00           2342       65809.00    289683.60
 1237.11        2964.25           2346       73583.00    324288.70
 1237.14        2964.50           2349       79840.00    352200.70
 1237.17        2964.75           2353       87205.00    385123.80
 1237.20        2965.00           2356       92130.00    407181.10
 1237.24        2965.25           2360       98158.00    434223.70
 1237.27        2965.50           2363      104118.00    461010.70
 1237.30        2965.75           2367      110949.00    491772.80
 1237.33        2966.00           2370      116325.00    516028.40
 1237.36        2966.25           2374      122793.00    545264.50
 1237.39        2966.50           2378      126867.00    563709.60
 1237.42        2966.75           2381      128263.00    570035.40
 1237.45        2967.00           2385      128356.00    570456.90
 1237.48        2967.25           2388      128410.00    570701.60
 1237.51        2967.50           2392      128403.00    570670.00
 1237.54        2967.75           2395      128163.00    569582.10
 1237.57        2968.00           2399      125938.00    559501.50
 1237.60        2968.25           2402      121794.00    540745.00
 1237.63        2968.50           2406      114994.00    510019.30
 1237.66        2968.75           2409      110225.00    488509.40
 1237.69        2969.00           2413      103235.00    457038.90
 1237.73        2969.25           2417       96767.00    427979.00
 1237.76        2969.50           2420       91011.00    402166.60
 1237.79        2969.75           2424       82846.00    365629.20
 1237.82        2970.00           2427       77305.00    340885.90
 1237.85        2970.25           2431       69359.00    305475.90
 1237.88        2970.50           2434       64055.00    281887.10
 1237.91        2970.75           2438       55820.00    245338.30
 1237.94        2971.00           2441       50046.00    219766.40
 1237.97        2971.25           2445       41960.00    184029.80
 1238.00        2971.50           2449       34019.00    149018.60
 1238.03        2971.75           2452       27904.00    122114.90
 1238.06        2972.00           2456       20316.00     88799.09
 1238.09        2972.25           2459       14868.00     64925.64
 1238.12        2972.50           2463        8537.00     37231.50
 1238.15        2972.75           2466        4849.00     21122.84
 1238.18        2973.00           2470        1606.00      6972.45
 1238.21        2973.25           2473         732.00      3161.19
 1238.25        2973.50           2477         532.00      2289.19
 1238.28        2973.75           2481         511.00      2197.64
 1238.31        2974.00           2484         515.00      2215.08
 1238.34        2974.25           2488         504.00      2167.12
 1238.37        2974.50           2491         473.00      2031.96
 1238.40        2974.75           2495         450.00      1931.69
 1238.43        2975.00           2498         460.00      1975.29
 1238.46        2975.25           2502         429.00      1840.13
 1238.49        2975.50           2505         469.00      2014.52
 1238.52        2975.75           2509         452.00      1940.41
 1238.55        2976.00           2512         423.00      1813.97
 1238.58        2976.25           2516         431.00      1848.85
 1238.61        2976.50           2520         415.00      1779.10
 1238.64        2976.75           2523         407.00      1744.22
 1238.67        2977.00           2527         400.00      1713.70
 1238.70        2977.25           2530         403.00      1726.78
 1238.73        2977.50           2534         393.00      1683.18
 1238.77        2977.75           2537         389.00      1665.74
 1238.80        2978.00           2541         395.00      1691.90
 1238.83        2978.25           2544         396.00      1696.26
 1238.86        2978.50           2548         383.00      1639.59
 1238.89        2978.75           2552         374.00      1600.35
 1238.92        2979.00           2555         377.00      1613.43
 1238.95        2979.25           2559         392.00      1678.82
 1238.98        2979.50           2562         367.00      1569.83
 1239.01        2979.75           2566         379.00      1622.15
 1239.04        2980.00           2569         353.00      1508.80
 1239.07        2980.25           2573         369.00      1578.55
 1239.10        2980.50           2577         335.00      1430.32
 1239.13        2980.75           2580         339.00      1447.76
 1239.16        2981.00           2584         332.00      1417.24
 1239.19        2981.25           2587         342.00      1460.84
 1239.22        2981.50           2591         347.00      1482.64
 1239.25        2981.75           2594         330.00      1408.52
 1239.29        2982.00           2598         347.00      1482.64
 1239.32        2982.25           2601         334.00      1425.96
 1239.35        2982.50           2605         339.00      1447.76
