************************************************************
  HS Scan of 
************************************************************
Integration time is 0.2294 seconds per sample
dh050617El Arenosillo 37.1 6.73 3.5pr1000
************************************************************
Dead Time -------------------------  3.4E-08 
Number of Cycles Used -------------  4 
Starting Wavelength (Angstroms) ---  2950 
Final Wavelength (Angstoms) -------  2984 
Wavelength Increment (Angstroms) --  .25 
Filter Wheel #1 Position ---------- (1) Ground quartz diffuser (ND=2.32)
Filter Wheel #2 Position ---------- (1) Neutral Density 0.494



************************************************************
HS scan start time = 01:42:04
Dark Count =  2.6 


Time (GMT)  Wavelength (Ang)  Step Number  Raw Counts  Counts/Second

  102.96        2950.00           2144           5.00        10.46
  103.16        2950.25           2147           4.00         6.10
  103.19        2950.50           2151           4.00         6.10
  103.22        2950.75           2155           3.00         2.00
  103.25        2951.00           2158           3.00         2.00
  103.28        2951.25           2162           2.00         2.00
  103.31        2951.50           2165           3.00         2.00
  103.34        2951.75           2169           4.00         6.10
  103.37        2952.00           2172           2.00         2.00
  103.40        2952.25           2176           2.00         2.00
  103.43        2952.50           2179           2.00         2.00
  103.46        2952.75           2183           2.00         2.00
  103.49        2953.00           2186           2.00         2.00
  103.52        2953.25           2190           2.00         2.00
  103.55        2953.50           2193           3.00         2.00
  103.58        2953.75           2197           4.00         6.10
  103.61        2954.00           2200           1.00         2.00
  103.65        2954.25           2204           2.00         2.00
  103.68        2954.50           2208           4.00         6.10
  103.71        2954.75           2211           4.00         6.10
  103.74        2955.00           2215           2.00         2.00
  103.77        2955.25           2218           4.00         6.10
  103.80        2955.50           2222           3.00         2.00
  103.83        2955.75           2225           3.00         2.00
  103.86        2956.00           2229           5.00        10.46
  103.89        2956.25           2232           3.00         2.00
  103.92        2956.50           2236           2.00         2.00
  103.95        2956.75           2239           3.00         2.00
  103.98        2957.00           2243           3.00         2.00
  104.01        2957.25           2246           5.00        10.46
  104.04        2957.50           2250           3.00         2.00
  104.07        2957.75           2254           3.00         2.00
  104.10        2958.00           2257           3.00         2.00
  104.13        2958.25           2261           4.00         6.10
  104.17        2958.50           2264           1.00         2.00
  104.20        2958.75           2268           3.00         2.00
  104.23        2959.00           2271           3.00         2.00
  104.26        2959.25           2275           4.00         6.10
  104.29        2959.50           2278           3.00         2.00
  104.32        2959.75           2282           2.00         2.00
  104.35        2960.00           2285           3.00         2.00
  104.38        2960.25           2289           3.00         2.00
  104.41        2960.50           2293           2.00         2.00
  104.44        2960.75           2296           3.00         2.00
  104.47        2961.00           2300           4.00         6.10
  104.50        2961.25           2303           2.00         2.00
  104.53        2961.50           2307           4.00         6.10
  104.56        2961.75           2310           2.00         2.00
  104.59        2962.00           2314           2.00         2.00
  104.62        2962.25           2317           3.00         2.00
  104.65        2962.50           2321           1.00         2.00
  104.69        2962.75           2324           3.00         2.00
  104.72        2963.00           2328           5.00        10.46
  104.75        2963.25           2331           3.00         2.00
  104.78        2963.50           2335           3.00         2.00
  104.81        2963.75           2339           3.00         2.00
  104.84        2964.00           2342           3.00         2.00
  104.87        2964.25           2346           3.00         2.00
  104.90        2964.50           2349           4.00         6.10
  104.93        2964.75           2353           5.00        10.46
  104.96        2965.00           2356           3.00         2.00
  104.99        2965.25           2360           1.00         2.00
  105.02        2965.50           2363           3.00         2.00
  105.05        2965.75           2367           3.00         2.00
  105.08        2966.00           2370           5.00        10.46
  105.11        2966.25           2374           5.00        10.46
  105.14        2966.50           2378           3.00         2.00
  105.17        2966.75           2381           3.00         2.00
  105.21        2967.00           2385           3.00         2.00
  105.24        2967.25           2388           2.00         2.00
  105.27        2967.50           2392           4.00         6.10
  105.30        2967.75           2395           2.00         2.00
  105.33        2968.00           2399           3.00         2.00
  105.36        2968.25           2402           2.00         2.00
  105.39        2968.50           2406           1.00         2.00
  105.42        2968.75           2409           2.00         2.00
  105.45        2969.00           2413           3.00         2.00
  105.48        2969.25           2417           3.00         2.00
  105.51        2969.50           2420           3.00         2.00
  105.54        2969.75           2424           4.00         6.10
  105.57        2970.00           2427           3.00         2.00
  105.60        2970.25           2431           3.00         2.00
  105.63        2970.50           2434           3.00         2.00
  105.66        2970.75           2438           3.00         2.00
  105.69        2971.00           2441           4.00         6.10
  105.72        2971.25           2445           2.00         2.00
  105.76        2971.50           2449           3.00         2.00
  105.79        2971.75           2452           3.00         2.00
  105.82        2972.00           2456           3.00         2.00
  105.85        2972.25           2459           3.00         2.00
  105.88        2972.50           2463           3.00         2.00
  105.91        2972.75           2466           3.00         2.00
  105.94        2973.00           2470           4.00         6.10
  105.97        2973.25           2473           3.00         2.00
  106.00        2973.50           2477           3.00         2.00
  106.03        2973.75           2481           4.00         6.10
  106.06        2974.00           2484           4.00         6.10
  106.09        2974.25           2488           3.00         2.00
  106.12        2974.50           2491           3.00         2.00
  106.15        2974.75           2495           3.00         2.00
  106.18        2975.00           2498           2.00         2.00
  106.21        2975.25           2502           3.00         2.00
  106.25        2975.50           2505           3.00         2.00
  106.28        2975.75           2509           4.00         6.10
  106.31        2976.00           2512           2.00         2.00
  106.34        2976.25           2516           3.00         2.00
  106.37        2976.50           2520           2.00         2.00
  106.40        2976.75           2523           4.00         6.10
  106.43        2977.00           2527           2.00         2.00
  106.46        2977.25           2530           2.00         2.00
  106.49        2977.50           2534           3.00         2.00
  106.52        2977.75           2537           3.00         2.00
  106.55        2978.00           2541           1.00         2.00
  106.58        2978.25           2544           6.00        14.82
  106.61        2978.50           2548           3.00         2.00
  106.64        2978.75           2552           3.00         2.00
  106.67        2979.00           2555           4.00         6.10
  106.70        2979.25           2559           3.00         2.00
  106.73        2979.50           2562           3.00         2.00
  106.77        2979.75           2566           4.00         6.10
  106.80        2980.00           2569           3.00         2.00
  106.83        2980.25           2573           2.00         2.00
  106.86        2980.50           2577           4.00         6.10
  106.89        2980.75           2580           4.00         6.10
  106.92        2981.00           2584           2.00         2.00
  106.95        2981.25           2587           3.00         2.00
  106.98        2981.50           2591           2.00         2.00
  107.01        2981.75           2594           3.00         2.00
  107.04        2982.00           2598           2.00         2.00
  107.07        2982.25           2601           3.00         2.00
  107.10        2982.50           2605           4.00         6.10
  107.13        2982.75           2609           2.00         2.00
  107.16        2983.00           2612           2.00         2.00
  107.19        2983.25           2616           3.00         2.00
  107.22        2983.50           2619           2.00         2.00
  107.25        2983.75           2623           4.00         6.10
  107.28        2984.00           2626           3.00         2.00
HS scan finished at 01:47:30
end
************************************************************
  HS Scan of 
************************************************************
Integration time is 0.2294 seconds per sample
dh050617El Arenosillo 37.1 6.73 3.84pr1000
************************************************************
Dead Time -------------------------  3.4E-08 
Number of Cycles Used -------------  4 
Starting Wavelength (Angstroms) ---  2950 
Final Wavelength (Angstoms) -------  2984 
Wavelength Increment (Angstroms) --  .25 
Filter Wheel #1 Position ---------- (1) Ground quartz diffuser (ND=2.32)
Filter Wheel #2 Position ---------- (1) Neutral Density 0.494



************************************************************
HS scan start time = 20:30:01
Dark Count =  6.9 


Time (GMT)  Wavelength (Ang)  Step Number  Raw Counts  Counts/Second

 1230.92        2950.00           2144           7.00         2.00
 1231.11        2950.25           2147           5.00         2.00
 1231.14        2950.50           2151           5.00         2.00
 1231.17        2950.75           2155           6.00         2.00
 1231.20        2951.00           2158           7.00         2.00
 1231.23        2951.25           2162           6.00         2.00
 1231.26        2951.50           2165           6.00         2.00
 1231.29        2951.75           2169           6.00         2.00
 1231.32        2952.00           2172           6.00         2.00
 1231.35        2952.25           2176           6.00         2.00
 1231.38        2952.50           2179           5.00         2.00
 1231.41        2952.75           2183           6.00         2.00
 1231.44        2953.00           2186           4.00         2.00
 1231.48        2953.25           2190           8.00         4.80
 1231.51        2953.50           2193           6.00         2.00
 1231.54        2953.75           2197           6.00         2.00
 1231.57        2954.00           2200           6.00         2.00
 1231.60        2954.25           2204           6.00         2.00
 1231.63        2954.50           2208           8.00         4.80
 1231.66        2954.75           2211           8.00         4.80
 1231.69        2955.00           2215           7.00         2.00
 1231.72        2955.25           2218           6.00         2.00
 1231.75        2955.50           2222           7.00         2.00
 1231.78        2955.75           2225           7.00         2.00
 1231.81        2956.00           2229           7.00         2.00
 1231.84        2956.25           2232           7.00         2.00
 1231.87        2956.50           2236           7.00         2.00
 1231.90        2956.75           2239           5.00         2.00
 1231.93        2957.00           2243           7.00         2.00
 1231.96        2957.25           2246           7.00         2.00
 1232.00        2957.50           2250           6.00         2.00
 1232.03        2957.75           2254           6.00         2.00
 1232.06        2958.00           2257           8.00         4.80
 1232.09        2958.25           2261           5.00         2.00
 1232.12        2958.50           2264           7.00         2.00
 1232.15        2958.75           2268           7.00         2.00
 1232.18        2959.00           2271           8.00         4.80
 1232.21        2959.25           2275           5.00         2.00
 1232.24        2959.50           2278           7.00         2.00
 1232.27        2959.75           2282           5.00         2.00
 1232.30        2960.00           2285           7.00         2.00
 1232.33        2960.25           2289           8.00         4.80
 1232.36        2960.50           2293           7.00         2.00
 1232.39        2960.75           2296           7.00         2.00
 1232.42        2961.00           2300           7.00         2.00
 1232.45        2961.25           2303           7.00         2.00
 1232.48        2961.50           2307           5.00         2.00
 1232.52        2961.75           2310           7.00         2.00
 1232.55        2962.00           2314           5.00         2.00
 1232.58        2962.25           2317           6.00         2.00
 1232.61        2962.50           2321           8.00         4.80
 1232.64        2962.75           2324           7.00         2.00
 1232.67        2963.00           2328           6.00         2.00
 1232.70        2963.25           2331           8.00         4.80
 1232.73        2963.50           2335           8.00         4.80
 1232.76        2963.75           2339           8.00         4.80
 1232.79        2964.00           2342           9.00         9.15
 1232.82        2964.25           2346           7.00         2.00
 1232.85        2964.50           2349           5.00         2.00
 1232.88        2964.75           2353           7.00         2.00
 1232.91        2965.00           2356           6.00         2.00
 1232.94        2965.25           2360           7.00         2.00
 1232.97        2965.50           2363           8.00         4.80
 1233.00        2965.75           2367           7.00         2.00
 1233.04        2966.00           2370           7.00         2.00
 1233.07        2966.25           2374           6.00         2.00
 1233.10        2966.50           2378           5.00         2.00
 1233.13        2966.75           2381           7.00         2.00
 1233.16        2967.00           2385           5.00         2.00
 1233.19        2967.25           2388           7.00         2.00
 1233.22        2967.50           2392           6.00         2.00
 1233.25        2967.75           2395           7.00         2.00
 1233.28        2968.00           2399           5.00         2.00
 1233.31        2968.25           2402           7.00         2.00
 1233.34        2968.50           2406           7.00         2.00
 1233.37        2968.75           2409           7.00         2.00
 1233.40        2969.00           2413           9.00         9.15
 1233.43        2969.25           2417           5.00         2.00
 1233.46        2969.50           2420           5.00         2.00
 1233.49        2969.75           2424           9.00         9.15
 1233.52        2970.00           2427           8.00         4.80
 1233.56        2970.25           2431           4.00         2.00
 1233.59        2970.50           2434           9.00         9.15
 1233.62        2970.75           2438           4.00         2.00
 1233.65        2971.00           2441           7.00         2.00
 1233.68        2971.25           2445           6.00         2.00
 1233.71        2971.50           2449           6.00         2.00
 1233.74        2971.75           2452           6.00         2.00
 1233.77        2972.00           2456           6.00         2.00
 1233.80        2972.25           2459           6.00         2.00
 1233.83        2972.50           2463           7.00         2.00
 1233.86        2972.75           2466           5.00         2.00
 1233.89        2973.00           2470           9.00         9.15
 1233.92        2973.25           2473           8.00         4.80
 1233.95        2973.50           2477           8.00         4.80
 1233.98        2973.75           2481           6.00         2.00
 1234.01        2974.00           2484           5.00         2.00
 1234.04        2974.25           2488           9.00         9.15
 1234.08        2974.50           2491           8.00         4.80
 1234.11        2974.75           2495           7.00         2.00
 1234.14        2975.00           2498           9.00         9.15
 1234.17        2975.25           2502           9.00         9.15
 1234.20        2975.50           2505           7.00         2.00
 1234.23        2975.75           2509           5.00         2.00
 1234.26        2976.00           2512           6.00         2.00
 1234.29        2976.25           2516           7.00         2.00
 1234.33        2976.50           2520           7.00         2.00
 1234.36        2976.75           2523           6.00         2.00
 1234.39        2977.00           2527           6.00         2.00
 1234.42        2977.25           2530           6.00         2.00
 1234.45        2977.50           2534           6.00         2.00
 1234.48        2977.75           2537           6.00         2.00
 1234.51        2978.00           2541           6.00         2.00
 1234.54        2978.25           2544           8.00         4.80
 1234.57        2978.50           2548           7.00         2.00
 1234.60        2978.75           2552           6.00         2.00
 1234.63        2979.00           2555           6.00         2.00
 1234.66        2979.25           2559           4.00         2.00
 1234.69        2979.50           2562           4.00         2.00
 1234.72        2979.75           2566           7.00         2.00
 1234.75        2980.00           2569           7.00         2.00
 1234.79        2980.25           2573           8.00         4.80
 1234.82        2980.50           2577           6.00         2.00
 1234.85        2980.75           2580           4.00         2.00
 1234.88        2981.00           2584           8.00         4.80
 1234.91        2981.25           2587           7.00         2.00
 1234.94        2981.50           2591           8.00         4.80
 1234.97        2981.75           2594           7.00         2.00
 1235.00        2982.00           2598           8.00         4.80
 1235.03        2982.25           2601           8.00         4.80
 1235.06        2982.50           2605           6.00         2.00
