************************************************************
  HS Scan of 
************************************************************
Integration time is 0.2294 seconds per sample
dh300517El Arenosillo 37.1 6.73 3.6pr1000
************************************************************
Dead Time -------------------------  3.4E-08 
Number of Cycles Used -------------  4 
Starting Wavelength (Angstroms) ---  2950 
Final Wavelength (Angstoms) -------  2984 
Wavelength Increment (Angstroms) --  .25 
Filter Wheel #1 Position ---------- (1) Ground quartz diffuser (ND=2.32)
Filter Wheel #2 Position ---------- (1) Neutral Density 0.494



************************************************************
HS scan start time = 03:04:11
Dark Count =  3.7 


Time (GMT)  Wavelength (Ang)  Step Number  Raw Counts  Counts/Second

  185.09        2950.00           2144           3.00         2.00
  185.28        2950.25           2147           4.00         2.00
  185.31        2950.50           2151           4.00         2.00
  185.34        2950.75           2155           5.00         5.67
  185.37        2951.00           2158           5.00         5.67
  185.40        2951.25           2162           4.00         2.00
  185.43        2951.50           2165           1.00         2.00
  185.47        2951.75           2169           3.00         2.00
  185.50        2952.00           2172           2.00         2.00
  185.53        2952.25           2176           5.00         5.67
  185.56        2952.50           2179           3.00         2.00
  185.59        2952.75           2183           2.00         2.00
  185.62        2953.00           2186           4.00         2.00
  185.65        2953.25           2190           4.00         2.00
  185.68        2953.50           2193           3.00         2.00
  185.71        2953.75           2197           5.00         5.67
  185.74        2954.00           2200           5.00         5.67
  185.77        2954.25           2204           3.00         2.00
  185.80        2954.50           2208           2.00         2.00
  185.83        2954.75           2211           5.00         5.67
  185.86        2955.00           2215           3.00         2.00
  185.89        2955.25           2218           4.00         2.00
  185.92        2955.50           2222           4.00         2.00
  185.95        2955.75           2225           2.00         2.00
  185.99        2956.00           2229           2.00         2.00
  186.02        2956.25           2232           3.00         2.00
  186.05        2956.50           2236           3.00         2.00
  186.08        2956.75           2239           4.00         2.00
  186.11        2957.00           2243           4.00         2.00
  186.14        2957.25           2246           4.00         2.00
  186.17        2957.50           2250           5.00         5.67
  186.20        2957.75           2254           3.00         2.00
  186.23        2958.00           2257           4.00         2.00
  186.26        2958.25           2261           5.00         5.67
  186.29        2958.50           2264           3.00         2.00
  186.32        2958.75           2268           5.00         5.67
  186.35        2959.00           2271           2.00         2.00
  186.38        2959.25           2275           7.00        14.39
  186.41        2959.50           2278           3.00         2.00
  186.44        2959.75           2282           4.00         2.00
  186.48        2960.00           2285           1.00         2.00
  186.51        2960.25           2289           3.00         2.00
  186.54        2960.50           2293           2.00         2.00
  186.57        2960.75           2296           3.00         2.00
  186.60        2961.00           2300           5.00         5.67
  186.63        2961.25           2303           3.00         2.00
  186.66        2961.50           2307           4.00         2.00
  186.69        2961.75           2310           5.00         5.67
  186.72        2962.00           2314           5.00         5.67
  186.75        2962.25           2317           3.00         2.00
  186.78        2962.50           2321           3.00         2.00
  186.81        2962.75           2324           5.00         5.67
  186.84        2963.00           2328           4.00         2.00
  186.87        2963.25           2331           4.00         2.00
  186.90        2963.50           2335           2.00         2.00
  186.93        2963.75           2339           1.00         2.00
  186.96        2964.00           2342           4.00         2.00
  187.00        2964.25           2346           3.00         2.00
  187.03        2964.50           2349           3.00         2.00
  187.06        2964.75           2353           3.00         2.00
  187.09        2965.00           2356           2.00         2.00
  187.12        2965.25           2360           4.00         2.00
  187.15        2965.50           2363           4.00         2.00
  187.18        2965.75           2367           3.00         2.00
  187.21        2966.00           2370           3.00         2.00
  187.24        2966.25           2374           3.00         2.00
  187.27        2966.50           2378           5.00         5.67
  187.30        2966.75           2381           4.00         2.00
  187.33        2967.00           2385           3.00         2.00
  187.36        2967.25           2388           3.00         2.00
  187.39        2967.50           2392           3.00         2.00
  187.42        2967.75           2395           4.00         2.00
  187.45        2968.00           2399           3.00         2.00
  187.48        2968.25           2402           4.00         2.00
  187.52        2968.50           2406           2.00         2.00
  187.55        2968.75           2409           3.00         2.00
  187.58        2969.00           2413           2.00         2.00
  187.61        2969.25           2417           2.00         2.00
  187.64        2969.50           2420           4.00         2.00
  187.67        2969.75           2424           4.00         2.00
  187.70        2970.00           2427           3.00         2.00
  187.73        2970.25           2431           4.00         2.00
  187.76        2970.50           2434           2.00         2.00
  187.79        2970.75           2438           4.00         2.00
  187.82        2971.00           2441           4.00         2.00
  187.85        2971.25           2445           4.00         2.00
  187.88        2971.50           2449           3.00         2.00
  187.91        2971.75           2452           3.00         2.00
  187.94        2972.00           2456           4.00         2.00
  187.97        2972.25           2459           2.00         2.00
  188.00        2972.50           2463           3.00         2.00
  188.04        2972.75           2466           4.00         2.00
  188.07        2973.00           2470           4.00         2.00
  188.10        2973.25           2473           5.00         5.67
  188.13        2973.50           2477           4.00         2.00
  188.16        2973.75           2481           5.00         5.67
  188.19        2974.00           2484           5.00         5.67
  188.22        2974.25           2488           3.00         2.00
  188.25        2974.50           2491           2.00         2.00
  188.28        2974.75           2495           3.00         2.00
  188.31        2975.00           2498           2.00         2.00
  188.34        2975.25           2502           5.00         5.67
  188.37        2975.50           2505           4.00         2.00
  188.40        2975.75           2509           5.00         5.67
  188.43        2976.00           2512           4.00         2.00
  188.46        2976.25           2516           4.00         2.00
  188.49        2976.50           2520           4.00         2.00
  188.52        2976.75           2523           4.00         2.00
  188.55        2977.00           2527           4.00         2.00
  188.59        2977.25           2530           3.00         2.00
  188.62        2977.50           2534           3.00         2.00
  188.65        2977.75           2537           4.00         2.00
  188.68        2978.00           2541           4.00         2.00
  188.71        2978.25           2544           4.00         2.00
  188.74        2978.50           2548           2.00         2.00
  188.77        2978.75           2552           2.00         2.00
  188.80        2979.00           2555           2.00         2.00
  188.83        2979.25           2559           2.00         2.00
  188.86        2979.50           2562           3.00         2.00
  188.89        2979.75           2566           3.00         2.00
  188.92        2980.00           2569           4.00         2.00
  188.95        2980.25           2573           2.00         2.00
  188.98        2980.50           2577           3.00         2.00
  189.01        2980.75           2580           3.00         2.00
  189.04        2981.00           2584           5.00         5.67
  189.07        2981.25           2587           3.00         2.00
  189.11        2981.50           2591           3.00         2.00
  189.14        2981.75           2594           5.00         5.67
  189.17        2982.00           2598           2.00         2.00
  189.20        2982.25           2601           2.00         2.00
  189.23        2982.50           2605           1.00         2.00
  189.26        2982.75           2609           3.00         2.00
  189.29        2983.00           2612           3.00         2.00
  189.32        2983.25           2616           4.00         2.00
  189.35        2983.50           2619           4.00         2.00
  189.38        2983.75           2623           3.00         2.00
  189.41        2984.00           2626           3.00         2.00
HS scan finished at 03:09:38
end
************************************************************
  HS Scan of 
************************************************************
Integration time is 0.2294 seconds per sample
dh300517El Arenosillo 37.1 6.73 3.76pr1000
************************************************************
Dead Time -------------------------  3.4E-08 
Number of Cycles Used -------------  4 
Starting Wavelength (Angstroms) ---  2950 
Final Wavelength (Angstoms) -------  2984 
Wavelength Increment (Angstroms) --  .25 
Filter Wheel #1 Position ---------- (1) Ground quartz diffuser (ND=2.32)
Filter Wheel #2 Position ---------- (1) Neutral Density 0.494



************************************************************
HS scan start time = 21:38:25
Dark Count =  4.6 


Time (GMT)  Wavelength (Ang)  Step Number  Raw Counts  Counts/Second

 1299.32        2950.00           2144           4.00         2.00
 1299.51        2950.25           2147           4.00         2.00
 1299.54        2950.50           2151           7.00        10.46
 1299.57        2950.75           2155           5.00         2.00
 1299.60        2951.00           2158           4.00         2.00
 1299.63        2951.25           2162           5.00         2.00
 1299.66        2951.50           2165           6.00         6.10
 1299.70        2951.75           2169           6.00         6.10
 1299.73        2952.00           2172           5.00         2.00
 1299.76        2952.25           2176           5.00         2.00
 1299.79        2952.50           2179           4.00         2.00
 1299.82        2952.75           2183           5.00         2.00
 1299.85        2953.00           2186           4.00         2.00
 1299.88        2953.25           2190           6.00         6.10
 1299.91        2953.50           2193           6.00         6.10
 1299.94        2953.75           2197           6.00         6.10
 1299.97        2954.00           2200           5.00         2.00
 1300.00        2954.25           2204           6.00         6.10
 1300.03        2954.50           2208           4.00         2.00
 1300.06        2954.75           2211           6.00         6.10
 1300.09        2955.00           2215           7.00        10.46
 1300.12        2955.25           2218           5.00         2.00
 1300.15        2955.50           2222           4.00         2.00
 1300.18        2955.75           2225           5.00         2.00
 1300.22        2956.00           2229           5.00         2.00
 1300.25        2956.25           2232           7.00        10.46
 1300.28        2956.50           2236           7.00        10.46
 1300.31        2956.75           2239           3.00         2.00
 1300.34        2957.00           2243           7.00        10.46
 1300.37        2957.25           2246           5.00         2.00
 1300.40        2957.50           2250           8.00        14.82
 1300.43        2957.75           2254           5.00         2.00
 1300.46        2958.00           2257           5.00         2.00
 1300.49        2958.25           2261           6.00         6.10
 1300.52        2958.50           2264           4.00         2.00
 1300.55        2958.75           2268           4.00         2.00
 1300.58        2959.00           2271           5.00         2.00
 1300.61        2959.25           2275           5.00         2.00
 1300.64        2959.50           2278           3.00         2.00
 1300.67        2959.75           2282           8.00        14.82
 1300.70        2960.00           2285           5.00         2.00
 1300.74        2960.25           2289           5.00         2.00
 1300.77        2960.50           2293           5.00         2.00
 1300.80        2960.75           2296           6.00         6.10
 1300.83        2961.00           2300           5.00         2.00
 1300.86        2961.25           2303           5.00         2.00
 1300.89        2961.50           2307           6.00         6.10
 1300.92        2961.75           2310           5.00         2.00
 1300.95        2962.00           2314           6.00         6.10
 1300.98        2962.25           2317           7.00        10.46
 1301.01        2962.50           2321           6.00         6.10
 1301.04        2962.75           2324           2.00         2.00
 1301.07        2963.00           2328           5.00         2.00
 1301.10        2963.25           2331           4.00         2.00
 1301.13        2963.50           2335           6.00         6.10
 1301.16        2963.75           2339           6.00         6.10
 1301.19        2964.00           2342           5.00         2.00
 1301.22        2964.25           2346           4.00         2.00
 1301.26        2964.50           2349           4.00         2.00
 1301.29        2964.75           2353           6.00         6.10
 1301.32        2965.00           2356           3.00         2.00
 1301.35        2965.25           2360           6.00         6.10
 1301.38        2965.50           2363           4.00         2.00
 1301.41        2965.75           2367           4.00         2.00
 1301.44        2966.00           2370           3.00         2.00
 1301.47        2966.25           2374           6.00         6.10
 1301.50        2966.50           2378           5.00         2.00
 1301.53        2966.75           2381           4.00         2.00
 1301.56        2967.00           2385           4.00         2.00
 1301.59        2967.25           2388           5.00         2.00
 1301.62        2967.50           2392           6.00         6.10
 1301.65        2967.75           2395           6.00         6.10
 1301.68        2968.00           2399           6.00         6.10
 1301.71        2968.25           2402           4.00         2.00
 1301.74        2968.50           2406           7.00        10.46
 1301.78        2968.75           2409           6.00         6.10
 1301.81        2969.00           2413           5.00         2.00
 1301.84        2969.25           2417           5.00         2.00
 1301.87        2969.50           2420           4.00         2.00
 1301.90        2969.75           2424           5.00         2.00
 1301.93        2970.00           2427           4.00         2.00
 1301.96        2970.25           2431           7.00        10.46
 1301.99        2970.50           2434           6.00         6.10
 1302.02        2970.75           2438           5.00         2.00
 1302.05        2971.00           2441           5.00         2.00
 1302.08        2971.25           2445           7.00        10.46
 1302.11        2971.50           2449           5.00         2.00
 1302.14        2971.75           2452           4.00         2.00
 1302.17        2972.00           2456           6.00         6.10
 1302.20        2972.25           2459           4.00         2.00
 1302.23        2972.50           2463           4.00         2.00
 1302.26        2972.75           2466           5.00         2.00
 1302.30        2973.00           2470           6.00         6.10
 1302.33        2973.25           2473           7.00        10.46
 1302.36        2973.50           2477           4.00         2.00
 1302.39        2973.75           2481           4.00         2.00
 1302.42        2974.00           2484           6.00         6.10
 1302.45        2974.25           2488           5.00         2.00
 1302.48        2974.50           2491           4.00         2.00
 1302.51        2974.75           2495           4.00         2.00
 1302.54        2975.00           2498           5.00         2.00
 1302.57        2975.25           2502           4.00         2.00
 1302.60        2975.50           2505           4.00         2.00
 1302.63        2975.75           2509           6.00         6.10
 1302.66        2976.00           2512           6.00         6.10
 1302.69        2976.25           2516           5.00         2.00
 1302.72        2976.50           2520           5.00         2.00
 1302.75        2976.75           2523           6.00         6.10
 1302.78        2977.00           2527           5.00         2.00
 1302.82        2977.25           2530           4.00         2.00
 1302.85        2977.50           2534           5.00         2.00
 1302.88        2977.75           2537           7.00        10.46
 1302.91        2978.00           2541           3.00         2.00
 1302.94        2978.25           2544           6.00         6.10
 1302.97        2978.50           2548           7.00        10.46
 1303.00        2978.75           2552           6.00         6.10
 1303.03        2979.00           2555           4.00         2.00
 1303.06        2979.25           2559           5.00         2.00
 1303.09        2979.50           2562           6.00         6.10
 1303.12        2979.75           2566           3.00         2.00
 1303.15        2980.00           2569           7.00        10.46
 1303.18        2980.25           2573           5.00         2.00
 1303.21        2980.50           2577           6.00         6.10
 1303.24        2980.75           2580           5.00         2.00
 1303.27        2981.00           2584           5.00         2.00
 1303.30        2981.25           2587           5.00         2.00
 1303.34        2981.50           2591           3.00         2.00
 1303.37        2981.75           2594           6.00         6.10
 1303.40        2982.00           2598           5.00         2.00
 1303.43        2982.25           2601           6.00         6.10
 1303.46        2982.50           2605           5.00         2.00
