************************************************************
  HS Scan of 
************************************************************
Integration time is 0.2294 seconds per sample
dh030617El Arenosillo 37.1 6.73 3.9pr1000
************************************************************
Dead Time -------------------------  3.4E-08 
Number of Cycles Used -------------  4 
Starting Wavelength (Angstroms) ---  2950 
Final Wavelength (Angstoms) -------  2984 
Wavelength Increment (Angstroms) --  .25 
Filter Wheel #1 Position ---------- (1) Ground quartz diffuser (ND=2.32)
Filter Wheel #2 Position ---------- (1) Neutral Density 0.494



************************************************************
HS scan start time = 20:30:02
Dark Count =  7 


Time (GMT)  Wavelength (Ang)  Step Number  Raw Counts  Counts/Second

 1230.94        2950.00           2144           8.00         4.36
 1231.13        2950.25           2147           8.00         4.36
 1231.16        2950.50           2151           7.00         2.00
 1231.19        2950.75           2155           5.00         2.00
 1231.22        2951.00           2158           5.00         2.00
 1231.25        2951.25           2162           7.00         2.00
 1231.28        2951.50           2165           8.00         4.36
 1231.31        2951.75           2169           5.00         2.00
 1231.35        2952.00           2172           8.00         4.36
 1231.38        2952.25           2176           8.00         4.36
 1231.41        2952.50           2179           8.00         4.36
 1231.44        2952.75           2183           5.00         2.00
 1231.47        2953.00           2186           9.00         8.72
 1231.50        2953.25           2190           6.00         2.00
 1231.53        2953.50           2193           6.00         2.00
 1231.56        2953.75           2197           6.00         2.00
 1231.60        2954.00           2200           6.00         2.00
 1231.63        2954.25           2204           6.00         2.00
 1231.66        2954.50           2208           7.00         2.00
 1231.69        2954.75           2211           9.00         8.72
 1231.72        2955.00           2215           5.00         2.00
 1231.75        2955.25           2218           7.00         2.00
 1231.78        2955.50           2222           9.00         8.72
 1231.81        2955.75           2225           8.00         4.36
 1231.84        2956.00           2229           6.00         2.00
 1231.87        2956.25           2232           6.00         2.00
 1231.90        2956.50           2236           7.00         2.00
 1231.93        2956.75           2239           7.00         2.00
 1231.96        2957.00           2243           8.00         4.36
 1231.99        2957.25           2246           6.00         2.00
 1232.02        2957.50           2250           7.00         2.00
 1232.06        2957.75           2254           7.00         2.00
 1232.09        2958.00           2257           5.00         2.00
 1232.12        2958.25           2261           4.00         2.00
 1232.15        2958.50           2264           8.00         4.36
 1232.18        2958.75           2268           8.00         4.36
 1232.21        2959.00           2271           6.00         2.00
 1232.24        2959.25           2275           8.00         4.36
 1232.27        2959.50           2278           7.00         2.00
 1232.30        2959.75           2282           7.00         2.00
 1232.33        2960.00           2285           9.00         8.72
 1232.36        2960.25           2289           7.00         2.00
 1232.39        2960.50           2293           3.00         2.00
 1232.42        2960.75           2296           6.00         2.00
 1232.45        2961.00           2300           5.00         2.00
 1232.48        2961.25           2303           5.00         2.00
 1232.51        2961.50           2307           7.00         2.00
 1232.54        2961.75           2310           7.00         2.00
 1232.57        2962.00           2314           8.00         4.36
 1232.61        2962.25           2317           7.00         2.00
 1232.64        2962.50           2321           7.00         2.00
 1232.67        2962.75           2324           9.00         8.72
 1232.70        2963.00           2328           8.00         4.36
 1232.73        2963.25           2331           5.00         2.00
 1232.76        2963.50           2335           5.00         2.00
 1232.79        2963.75           2339           6.00         2.00
 1232.82        2964.00           2342           7.00         2.00
 1232.85        2964.25           2346           8.00         4.36
 1232.88        2964.50           2349           7.00         2.00
 1232.91        2964.75           2353           4.00         2.00
 1232.94        2965.00           2356          11.00        17.44
 1232.97        2965.25           2360           6.00         2.00
 1233.00        2965.50           2363           7.00         2.00
 1233.03        2965.75           2367           8.00         4.36
 1233.06        2966.00           2370           5.00         2.00
 1233.10        2966.25           2374           8.00         4.36
 1233.13        2966.50           2378           6.00         2.00
 1233.16        2966.75           2381           6.00         2.00
 1233.19        2967.00           2385           7.00         2.00
 1233.22        2967.25           2388           8.00         4.36
 1233.25        2967.50           2392           6.00         2.00
 1233.28        2967.75           2395           6.00         2.00
 1233.31        2968.00           2399           8.00         4.36
 1233.34        2968.25           2402           8.00         4.36
 1233.37        2968.50           2406           7.00         2.00
 1233.40        2968.75           2409           7.00         2.00
 1233.43        2969.00           2413           6.00         2.00
 1233.46        2969.25           2417           8.00         4.36
 1233.49        2969.50           2420           8.00         4.36
 1233.52        2969.75           2424           6.00         2.00
 1233.55        2970.00           2427           6.00         2.00
 1233.58        2970.25           2431           6.00         2.00
 1233.62        2970.50           2434           7.00         2.00
 1233.65        2970.75           2438           7.00         2.00
 1233.68        2971.00           2441           6.00         2.00
 1233.71        2971.25           2445           9.00         8.72
 1233.74        2971.50           2449           5.00         2.00
 1233.77        2971.75           2452           4.00         2.00
 1233.80        2972.00           2456           6.00         2.00
 1233.83        2972.25           2459           7.00         2.00
 1233.86        2972.50           2463           6.00         2.00
 1233.89        2972.75           2466           6.00         2.00
 1233.92        2973.00           2470           7.00         2.00
 1233.95        2973.25           2473           8.00         4.36
 1233.98        2973.50           2477           6.00         2.00
 1234.01        2973.75           2481           9.00         8.72
 1234.04        2974.00           2484           7.00         2.00
 1234.07        2974.25           2488           8.00         4.36
 1234.10        2974.50           2491           6.00         2.00
 1234.14        2974.75           2495           6.00         2.00
 1234.17        2975.00           2498           4.00         2.00
 1234.20        2975.25           2502           7.00         2.00
 1234.23        2975.50           2505           7.00         2.00
 1234.26        2975.75           2509           8.00         4.36
 1234.29        2976.00           2512           8.00         4.36
 1234.32        2976.25           2516           5.00         2.00
 1234.35        2976.50           2520           4.00         2.00
 1234.38        2976.75           2523          10.00        13.08
 1234.41        2977.00           2527           6.00         2.00
 1234.44        2977.25           2530           5.00         2.00
 1234.47        2977.50           2534           9.00         8.72
 1234.50        2977.75           2537           6.00         2.00
 1234.53        2978.00           2541           7.00         2.00
 1234.56        2978.25           2544           8.00         4.36
 1234.59        2978.50           2548           6.00         2.00
 1234.62        2978.75           2552           6.00         2.00
 1234.66        2979.00           2555           9.00         8.72
 1234.69        2979.25           2559           5.00         2.00
 1234.72        2979.50           2562           6.00         2.00
 1234.75        2979.75           2566           7.00         2.00
 1234.78        2980.00           2569           7.00         2.00
 1234.81        2980.25           2573           7.00         2.00
 1234.84        2980.50           2577           6.00         2.00
 1234.87        2980.75           2580           7.00         2.00
 1234.90        2981.00           2584           7.00         2.00
 1234.93        2981.25           2587           5.00         2.00
 1234.96        2981.50           2591           9.00         8.72
 1234.99        2981.75           2594           9.00         8.72
 1235.02        2982.00           2598           6.00         2.00
 1235.05        2982.25           2601          11.00        17.44
 1235.08        2982.50           2605           8.00         4.36
 1235.11        2982.75           2609           8.00         4.36
 1235.14        2983.00           2612           8.00         4.36
 1235.17        2983.25           2616           7.00         2.00
 1235.21        2983.50           2619           8.00         4.36
 1235.24        2983.75           2623           9.00         8.72
 1235.27        2984.00           2626           7.00         2.00
HS scan finished at 20:35:29
end
