************************************************************
  HS Scan of 
************************************************************
Integration time is 0.2294 seconds per sample
dh020617El Arenosillo 37.1 6.73 3.86pr1000
************************************************************
Dead Time -------------------------  3.4E-08 
Number of Cycles Used -------------  4 
Starting Wavelength (Angstroms) ---  2950 
Final Wavelength (Angstoms) -------  2984 
Wavelength Increment (Angstroms) --  .25 
Filter Wheel #1 Position ---------- (1) Ground quartz diffuser (ND=2.32)
Filter Wheel #2 Position ---------- (1) Neutral Density 0.494



************************************************************
HS scan start time = 21:24:26
Dark Count =  6.5 


Time (GMT)  Wavelength (Ang)  Step Number  Raw Counts  Counts/Second

 1285.33        2950.00           2144           7.00         2.18
 1285.52        2950.25           2147           6.00         2.00
 1285.55        2950.50           2151           6.00         2.00
 1285.58        2950.75           2155           5.00         2.00
 1285.62        2951.00           2158           8.00         6.54
 1285.65        2951.25           2162           6.00         2.00
 1285.68        2951.50           2165           8.00         6.54
 1285.71        2951.75           2169           5.00         2.00
 1285.74        2952.00           2172           9.00        10.90
 1285.77        2952.25           2176           6.00         2.00
 1285.80        2952.50           2179           7.00         2.18
 1285.83        2952.75           2183           7.00         2.18
 1285.86        2953.00           2186           7.00         2.18
 1285.89        2953.25           2190           6.00         2.00
 1285.92        2953.50           2193           6.00         2.00
 1285.95        2953.75           2197           9.00        10.90
 1285.98        2954.00           2200           6.00         2.00
 1286.01        2954.25           2204           7.00         2.18
 1286.04        2954.50           2208           6.00         2.00
 1286.07        2954.75           2211           5.00         2.00
 1286.10        2955.00           2215           8.00         6.54
 1286.14        2955.25           2218           4.00         2.00
 1286.17        2955.50           2222           9.00        10.90
 1286.20        2955.75           2225           9.00        10.90
 1286.23        2956.00           2229           5.00         2.00
 1286.26        2956.25           2232           5.00         2.00
 1286.29        2956.50           2236           7.00         2.18
 1286.32        2956.75           2239           7.00         2.18
 1286.35        2957.00           2243           7.00         2.18
 1286.38        2957.25           2246           5.00         2.00
 1286.41        2957.50           2250           6.00         2.00
 1286.44        2957.75           2254           6.00         2.00
 1286.47        2958.00           2257           5.00         2.00
 1286.50        2958.25           2261           7.00         2.18
 1286.53        2958.50           2264           7.00         2.18
 1286.56        2958.75           2268           6.00         2.00
 1286.59        2959.00           2271           7.00         2.18
 1286.62        2959.25           2275           7.00         2.18
 1286.65        2959.50           2278           6.00         2.00
 1286.69        2959.75           2282           5.00         2.00
 1286.72        2960.00           2285           7.00         2.18
 1286.75        2960.25           2289           8.00         6.54
 1286.78        2960.50           2293           8.00         6.54
 1286.81        2960.75           2296           6.00         2.00
 1286.84        2961.00           2300           8.00         6.54
 1286.87        2961.25           2303           8.00         6.54
 1286.90        2961.50           2307           9.00        10.90
 1286.93        2961.75           2310           6.00         2.00
 1286.96        2962.00           2314           8.00         6.54
 1286.99        2962.25           2317           6.00         2.00
 1287.02        2962.50           2321           8.00         6.54
 1287.05        2962.75           2324           7.00         2.18
 1287.08        2963.00           2328           6.00         2.00
 1287.11        2963.25           2331           6.00         2.00
 1287.14        2963.50           2335          10.00        15.26
 1287.17        2963.75           2339           9.00        10.90
 1287.21        2964.00           2342           7.00         2.18
 1287.24        2964.25           2346           9.00        10.90
 1287.27        2964.50           2349           7.00         2.18
 1287.30        2964.75           2353           8.00         6.54
 1287.33        2965.00           2356           6.00         2.00
 1287.36        2965.25           2360          10.00        15.26
 1287.39        2965.50           2363           7.00         2.18
 1287.42        2965.75           2367           8.00         6.54
 1287.45        2966.00           2370           5.00         2.00
 1287.48        2966.25           2374           7.00         2.18
 1287.51        2966.50           2378           7.00         2.18
 1287.54        2966.75           2381           7.00         2.18
 1287.57        2967.00           2385           5.00         2.00
 1287.60        2967.25           2388           6.00         2.00
 1287.63        2967.50           2392           3.00         2.00
 1287.66        2967.75           2395           7.00         2.18
 1287.69        2968.00           2399           8.00         6.54
 1287.73        2968.25           2402           9.00        10.90
 1287.76        2968.50           2406           4.00         2.00
 1287.79        2968.75           2409           9.00        10.90
 1287.82        2969.00           2413           7.00         2.18
 1287.85        2969.25           2417           6.00         2.00
 1287.88        2969.50           2420           8.00         6.54
 1287.91        2969.75           2424           5.00         2.00
 1287.94        2970.00           2427           6.00         2.00
 1287.97        2970.25           2431           8.00         6.54
 1288.00        2970.50           2434           8.00         6.54
 1288.03        2970.75           2438           6.00         2.00
 1288.06        2971.00           2441           5.00         2.00
 1288.09        2971.25           2445           8.00         6.54
 1288.12        2971.50           2449           7.00         2.18
 1288.15        2971.75           2452           5.00         2.00
 1288.18        2972.00           2456           6.00         2.00
 1288.21        2972.25           2459           9.00        10.90
 1288.25        2972.50           2463           8.00         6.54
 1288.28        2972.75           2466           6.00         2.00
 1288.31        2973.00           2470           6.00         2.00
 1288.34        2973.25           2473           6.00         2.00
 1288.37        2973.50           2477           8.00         6.54
 1288.40        2973.75           2481           9.00        10.90
 1288.43        2974.00           2484           7.00         2.18
 1288.46        2974.25           2488           6.00         2.00
 1288.49        2974.50           2491           5.00         2.00
 1288.52        2974.75           2495           7.00         2.18
 1288.55        2975.00           2498           9.00        10.90
 1288.58        2975.25           2502           4.00         2.00
 1288.61        2975.50           2505           7.00         2.18
 1288.64        2975.75           2509           5.00         2.00
 1288.67        2976.00           2512           7.00         2.18
 1288.70        2976.25           2516           7.00         2.18
 1288.73        2976.50           2520           5.00         2.00
 1288.77        2976.75           2523           7.00         2.18
 1288.80        2977.00           2527           6.00         2.00
 1288.83        2977.25           2530           9.00        10.90
 1288.86        2977.50           2534           8.00         6.54
 1288.89        2977.75           2537           6.00         2.00
 1288.92        2978.00           2541           7.00         2.18
 1288.95        2978.25           2544           7.00         2.18
 1288.98        2978.50           2548           8.00         6.54
 1289.01        2978.75           2552           6.00         2.00
 1289.04        2979.00           2555           7.00         2.18
 1289.07        2979.25           2559           9.00        10.90
 1289.10        2979.50           2562           6.00         2.00
 1289.13        2979.75           2566           5.00         2.00
 1289.16        2980.00           2569           9.00        10.90
 1289.19        2980.25           2573           8.00         6.54
 1289.22        2980.50           2577           7.00         2.18
 1289.25        2980.75           2580           6.00         2.00
 1289.29        2981.00           2584           7.00         2.18
 1289.32        2981.25           2587           7.00         2.18
 1289.35        2981.50           2591           5.00         2.00
 1289.38        2981.75           2594           5.00         2.00
 1289.41        2982.00           2598           8.00         6.54
 1289.44        2982.25           2601           8.00         6.54
 1289.47        2982.50           2605           6.00         2.00
 1289.50        2982.75           2609           6.00         2.00
 1289.53        2983.00           2612           7.00         2.18
 1289.56        2983.25           2616           7.00         2.18
 1289.59        2983.50           2619           8.00         6.54
 1289.62        2983.75           2623           6.00         2.00
 1289.65        2984.00           2626           8.00         6.54
HS scan finished at 21:29:52
end
