************************************************************
  HS Scan of 
************************************************************
Integration time is 0.2294 seconds per sample
dh040617El Arenosillo 37.1 6.73 3.56pr1000
************************************************************
Dead Time -------------------------  3.4E-08 
Number of Cycles Used -------------  4 
Starting Wavelength (Angstroms) ---  2950 
Final Wavelength (Angstoms) -------  2984 
Wavelength Increment (Angstroms) --  .25 
Filter Wheel #1 Position ---------- (1) Ground quartz diffuser (ND=2.32)
Filter Wheel #2 Position ---------- (1) Neutral Density 0.494



************************************************************
HS scan start time = 01:42:08
Dark Count =  2.7 


Time (GMT)  Wavelength (Ang)  Step Number  Raw Counts  Counts/Second

  103.03        2950.00           2144           3.00         2.00
  103.23        2950.25           2147           4.00         5.67
  103.26        2950.50           2151           3.00         2.00
  103.29        2950.75           2155           4.00         5.67
  103.32        2951.00           2158           3.00         2.00
  103.35        2951.25           2162           3.00         2.00
  103.38        2951.50           2165           3.00         2.00
  103.41        2951.75           2169           3.00         2.00
  103.45        2952.00           2172           3.00         2.00
  103.48        2952.25           2176           5.00        10.03
  103.51        2952.50           2179           4.00         5.67
  103.54        2952.75           2183           3.00         2.00
  103.57        2953.00           2186           3.00         2.00
  103.60        2953.25           2190           5.00        10.03
  103.63        2953.50           2193           3.00         2.00
  103.66        2953.75           2197           4.00         5.67
  103.69        2954.00           2200           4.00         5.67
  103.72        2954.25           2204           3.00         2.00
  103.75        2954.50           2208           3.00         2.00
  103.78        2954.75           2211           1.00         2.00
  103.81        2955.00           2215           4.00         5.67
  103.85        2955.25           2218           4.00         5.67
  103.88        2955.50           2222           3.00         2.00
  103.91        2955.75           2225           3.00         2.00
  103.94        2956.00           2229           2.00         2.00
  103.97        2956.25           2232           2.00         2.00
  104.00        2956.50           2236           5.00        10.03
  104.03        2956.75           2239           3.00         2.00
  104.06        2957.00           2243           2.00         2.00
  104.09        2957.25           2246           4.00         5.67
  104.12        2957.50           2250           3.00         2.00
  104.15        2957.75           2254           3.00         2.00
  104.18        2958.00           2257           4.00         5.67
  104.21        2958.25           2261           3.00         2.00
  104.24        2958.50           2264           4.00         5.67
  104.27        2958.75           2268           3.00         2.00
  104.30        2959.00           2271           3.00         2.00
  104.34        2959.25           2275           3.00         2.00
  104.37        2959.50           2278           5.00        10.03
  104.40        2959.75           2282           3.00         2.00
  104.43        2960.00           2285           3.00         2.00
  104.46        2960.25           2289           2.00         2.00
  104.49        2960.50           2293           3.00         2.00
  104.52        2960.75           2296           3.00         2.00
  104.55        2961.00           2300           3.00         2.00
  104.58        2961.25           2303           2.00         2.00
  104.61        2961.50           2307           5.00        10.03
  104.64        2961.75           2310           4.00         5.67
  104.67        2962.00           2314           1.00         2.00
  104.70        2962.25           2317           3.00         2.00
  104.73        2962.50           2321           3.00         2.00
  104.76        2962.75           2324           4.00         5.67
  104.79        2963.00           2328           3.00         2.00
  104.82        2963.25           2331           5.00        10.03
  104.85        2963.50           2335           3.00         2.00
  104.89        2963.75           2339           4.00         5.67
  104.92        2964.00           2342           4.00         5.67
  104.95        2964.25           2346           3.00         2.00
  104.98        2964.50           2349           3.00         2.00
  105.01        2964.75           2353           4.00         5.67
  105.04        2965.00           2356           2.00         2.00
  105.07        2965.25           2360           3.00         2.00
  105.10        2965.50           2363           3.00         2.00
  105.13        2965.75           2367           3.00         2.00
  105.16        2966.00           2370           5.00        10.03
  105.19        2966.25           2374           3.00         2.00
  105.22        2966.50           2378           4.00         5.67
  105.25        2966.75           2381           3.00         2.00
  105.28        2967.00           2385           3.00         2.00
  105.31        2967.25           2388           3.00         2.00
  105.34        2967.50           2392           4.00         5.67
  105.37        2967.75           2395           4.00         5.67
  105.41        2968.00           2399           5.00        10.03
  105.44        2968.25           2402           3.00         2.00
  105.47        2968.50           2406           4.00         5.67
  105.50        2968.75           2409           2.00         2.00
  105.53        2969.00           2413           5.00        10.03
  105.56        2969.25           2417           3.00         2.00
  105.59        2969.50           2420           4.00         5.67
  105.62        2969.75           2424           1.00         2.00
  105.65        2970.00           2427           3.00         2.00
  105.68        2970.25           2431           2.00         2.00
  105.71        2970.50           2434           4.00         5.67
  105.74        2970.75           2438           4.00         5.67
  105.77        2971.00           2441           3.00         2.00
  105.80        2971.25           2445           4.00         5.67
  105.83        2971.50           2449           3.00         2.00
  105.86        2971.75           2452           4.00         5.67
  105.89        2972.00           2456           2.00         2.00
  105.93        2972.25           2459           2.00         2.00
  105.96        2972.50           2463           4.00         5.67
  105.99        2972.75           2466           4.00         5.67
  106.02        2973.00           2470           3.00         2.00
  106.05        2973.25           2473           4.00         5.67
  106.08        2973.50           2477           2.00         2.00
  106.11        2973.75           2481           4.00         5.67
  106.14        2974.00           2484           4.00         5.67
  106.17        2974.25           2488           3.00         2.00
  106.20        2974.50           2491           4.00         5.67
  106.23        2974.75           2495           3.00         2.00
  106.26        2975.00           2498           3.00         2.00
  106.29        2975.25           2502           3.00         2.00
  106.32        2975.50           2505           4.00         5.67
  106.35        2975.75           2509           4.00         5.67
  106.38        2976.00           2512           4.00         5.67
  106.41        2976.25           2516           3.00         2.00
  106.45        2976.50           2520           2.00         2.00
  106.48        2976.75           2523           3.00         2.00
  106.51        2977.00           2527           3.00         2.00
  106.54        2977.25           2530           2.00         2.00
  106.57        2977.50           2534           5.00        10.03
  106.60        2977.75           2537           3.00         2.00
  106.63        2978.00           2541           4.00         5.67
  106.66        2978.25           2544           2.00         2.00
  106.69        2978.50           2548           4.00         5.67
  106.72        2978.75           2552           3.00         2.00
  106.75        2979.00           2555           3.00         2.00
  106.78        2979.25           2559           2.00         2.00
  106.81        2979.50           2562           4.00         5.67
  106.84        2979.75           2566           3.00         2.00
  106.87        2980.00           2569           3.00         2.00
  106.90        2980.25           2573           4.00         5.67
  106.93        2980.50           2577           3.00         2.00
  106.97        2980.75           2580           3.00         2.00
  107.00        2981.00           2584           4.00         5.67
  107.03        2981.25           2587           5.00        10.03
  107.06        2981.50           2591           3.00         2.00
  107.09        2981.75           2594           2.00         2.00
  107.12        2982.00           2598           3.00         2.00
  107.15        2982.25           2601           3.00         2.00
  107.18        2982.50           2605           2.00         2.00
  107.21        2982.75           2609           2.00         2.00
  107.24        2983.00           2612           2.00         2.00
  107.27        2983.25           2616           3.00         2.00
  107.30        2983.50           2619           3.00         2.00
  107.33        2983.75           2623           2.00         2.00
  107.36        2984.00           2626           3.00         2.00
HS scan finished at 01:47:35
end
************************************************************
  HS Scan of 
************************************************************
Integration time is 0.2294 seconds per sample
dh040617El Arenosillo 37.1 6.73 3.98pr1000
************************************************************
Dead Time -------------------------  3.4E-08 
Number of Cycles Used -------------  4 
Starting Wavelength (Angstroms) ---  2950 
Final Wavelength (Angstoms) -------  2984 
Wavelength Increment (Angstroms) --  .25 
Filter Wheel #1 Position ---------- (1) Ground quartz diffuser (ND=2.32)
Filter Wheel #2 Position ---------- (1) Neutral Density 0.494



************************************************************
HS scan start time = 20:30:01
Dark Count =  7.8 


Time (GMT)  Wavelength (Ang)  Step Number  Raw Counts  Counts/Second

 1230.91        2950.00           2144           7.00         2.00
 1231.11        2950.25           2147           8.00         2.00
 1231.14        2950.50           2151           8.00         2.00
 1231.17        2950.75           2155           8.00         2.00
 1231.20        2951.00           2158           7.00         2.00
 1231.23        2951.25           2162           8.00         2.00
 1231.26        2951.50           2165           7.00         2.00
 1231.29        2951.75           2169           9.00         5.23
 1231.32        2952.00           2172           7.00         2.00
 1231.35        2952.25           2176           6.00         2.00
 1231.38        2952.50           2179           7.00         2.00
 1231.41        2952.75           2183          10.00         9.59
 1231.44        2953.00           2186          13.00        22.67
 1231.47        2953.25           2190          10.00         9.59
 1231.51        2953.50           2193           8.00         2.00
 1231.54        2953.75           2197           7.00         2.00
 1231.57        2954.00           2200           9.00         5.23
 1231.60        2954.25           2204           8.00         2.00
 1231.63        2954.50           2208           9.00         5.23
 1231.66        2954.75           2211           8.00         2.00
 1231.69        2955.00           2215           8.00         2.00
 1231.72        2955.25           2218           9.00         5.23
 1231.75        2955.50           2222          10.00         9.59
 1231.78        2955.75           2225           7.00         2.00
 1231.81        2956.00           2229          11.00        13.95
 1231.84        2956.25           2232           8.00         2.00
 1231.87        2956.50           2236           6.00         2.00
 1231.90        2956.75           2239          10.00         9.59
 1231.93        2957.00           2243           7.00         2.00
 1231.96        2957.25           2246          10.00         9.59
 1232.00        2957.50           2250           8.00         2.00
 1232.03        2957.75           2254           8.00         2.00
 1232.06        2958.00           2257           9.00         5.23
 1232.09        2958.25           2261           8.00         2.00
 1232.12        2958.50           2264           6.00         2.00
 1232.15        2958.75           2268           8.00         2.00
 1232.18        2959.00           2271          11.00        13.95
 1232.21        2959.25           2275           7.00         2.00
 1232.24        2959.50           2278           7.00         2.00
 1232.27        2959.75           2282           9.00         5.23
 1232.30        2960.00           2285           9.00         5.23
 1232.33        2960.25           2289           5.00         2.00
 1232.36        2960.50           2293          11.00        13.95
 1232.39        2960.75           2296          11.00        13.95
 1232.42        2961.00           2300           8.00         2.00
 1232.45        2961.25           2303           8.00         2.00
 1232.48        2961.50           2307           7.00         2.00
 1232.51        2961.75           2310           9.00         5.23
 1232.55        2962.00           2314           9.00         5.23
 1232.58        2962.25           2317          10.00         9.59
 1232.61        2962.50           2321           8.00         2.00
 1232.64        2962.75           2324           6.00         2.00
 1232.67        2963.00           2328          12.00        18.31
 1232.70        2963.25           2331           9.00         5.23
 1232.73        2963.50           2335           9.00         5.23
 1232.76        2963.75           2339           7.00         2.00
 1232.79        2964.00           2342           9.00         5.23
 1232.82        2964.25           2346          11.00        13.95
 1232.85        2964.50           2349           8.00         2.00
 1232.88        2964.75           2353           7.00         2.00
 1232.91        2965.00           2356           9.00         5.23
 1232.94        2965.25           2360           6.00         2.00
 1232.97        2965.50           2363           9.00         5.23
 1233.00        2965.75           2367          10.00         9.59
 1233.03        2966.00           2370          11.00        13.95
 1233.07        2966.25           2374          12.00        18.31
 1233.10        2966.50           2378           8.00         2.00
 1233.13        2966.75           2381          10.00         9.59
 1233.16        2967.00           2385           9.00         5.23
 1233.19        2967.25           2388           8.00         2.00
 1233.22        2967.50           2392          10.00         9.59
 1233.25        2967.75           2395          10.00         9.59
 1233.28        2968.00           2399           7.00         2.00
 1233.31        2968.25           2402           9.00         5.23
 1233.34        2968.50           2406           9.00         5.23
 1233.37        2968.75           2409           8.00         2.00
 1233.40        2969.00           2413           8.00         2.00
 1233.43        2969.25           2417           9.00         5.23
 1233.46        2969.50           2420           7.00         2.00
 1233.49        2969.75           2424           9.00         5.23
 1233.52        2970.00           2427           8.00         2.00
 1233.55        2970.25           2431           8.00         2.00
 1233.59        2970.50           2434           8.00         2.00
 1233.62        2970.75           2438          10.00         9.59
 1233.65        2971.00           2441           8.00         2.00
 1233.68        2971.25           2445          11.00        13.95
 1233.71        2971.50           2449           9.00         5.23
 1233.74        2971.75           2452           9.00         5.23
 1233.77        2972.00           2456           7.00         2.00
 1233.80        2972.25           2459           8.00         2.00
 1233.83        2972.50           2463           6.00         2.00
 1233.86        2972.75           2466          10.00         9.59
 1233.89        2973.00           2470           8.00         2.00
 1233.92        2973.25           2473           7.00         2.00
 1233.95        2973.50           2477          11.00        13.95
 1233.98        2973.75           2481           8.00         2.00
 1234.01        2974.00           2484          11.00        13.95
 1234.04        2974.25           2488           8.00         2.00
 1234.07        2974.50           2491           7.00         2.00
 1234.11        2974.75           2495           7.00         2.00
 1234.14        2975.00           2498           8.00         2.00
 1234.17        2975.25           2502           7.00         2.00
 1234.20        2975.50           2505           9.00         5.23
 1234.23        2975.75           2509          10.00         9.59
 1234.26        2976.00           2512           8.00         2.00
 1234.29        2976.25           2516           9.00         5.23
 1234.32        2976.50           2520           7.00         2.00
 1234.35        2976.75           2523           6.00         2.00
 1234.38        2977.00           2527           8.00         2.00
 1234.41        2977.25           2530           8.00         2.00
 1234.44        2977.50           2534          11.00        13.95
 1234.47        2977.75           2537           6.00         2.00
 1234.50        2978.00           2541           9.00         5.23
 1234.53        2978.25           2544           8.00         2.00
 1234.56        2978.50           2548           8.00         2.00
 1234.59        2978.75           2552           9.00         5.23
 1234.63        2979.00           2555           8.00         2.00
 1234.66        2979.25           2559           9.00         5.23
 1234.69        2979.50           2562           9.00         5.23
 1234.72        2979.75           2566           8.00         2.00
 1234.75        2980.00           2569           7.00         2.00
 1234.78        2980.25           2573          11.00        13.95
 1234.81        2980.50           2577          11.00        13.95
 1234.84        2980.75           2580          10.00         9.59
 1234.87        2981.00           2584           9.00         5.23
 1234.90        2981.25           2587          10.00         9.59
 1234.93        2981.50           2591           9.00         5.23
 1234.96        2981.75           2594          10.00         9.59
 1234.99        2982.00           2598          10.00         9.59
 1235.02        2982.25           2601          10.00         9.59
 1235.05        2982.50           2605           7.00         2.00
