************************************************************
  HS Scan of (1) Internal mercury lamp
************************************************************
Integration time is 0.2294 seconds per sample
dh220718Reading 51.44 .94 3.66pr1000
************************************************************
Dead Time -------------------------  3.4E-08 
Number of Cycles Used -------------  4 
Starting Wavelength (Angstroms) ---  2950 
Final Wavelength (Angstoms) -------  2984 
Wavelength Increment (Angstroms) --  .25 
Filter Wheel #1 Position ---------- (1) Ground quartz diffuser (ND=2.32)
Filter Wheel #2 Position ---------- (1) Neutral Density 0.494



************************************************************
HS scan start time = 01:18:55
Dark Count =  3.3 


Time (GMT)  Wavelength (Ang)  Step Number  Raw Counts  Counts/Second

   79.81        2950.00           2144          66.00       273.32
   80.00        2950.25           2147          62.00       255.89
   80.03        2950.50           2151          71.00       295.12
   80.06        2950.75           2155          71.00       295.12
   80.09        2951.00           2158          65.00       268.96
   80.13        2951.25           2162          70.00       290.76
   80.16        2951.50           2165          68.00       282.04
   80.19        2951.75           2169          70.00       290.76
   80.22        2952.00           2172          65.00       268.96
   80.25        2952.25           2176          63.00       260.25
   80.28        2952.50           2179          66.00       273.32
   80.31        2952.75           2183          65.00       268.96
   80.34        2953.00           2186          76.00       316.92
   80.37        2953.25           2190          67.00       277.68
   80.40        2953.50           2193          69.00       286.40
   80.43        2953.75           2197          73.00       303.84
   80.46        2954.00           2200          76.00       316.92
   80.49        2954.25           2204          70.00       290.76
   80.52        2954.50           2208          71.00       295.12
   80.55        2954.75           2211          72.00       299.48
   80.58        2955.00           2215          73.00       303.84
   80.61        2955.25           2218          77.00       321.28
   80.65        2955.50           2222          80.00       334.35
   80.68        2955.75           2225          77.00       321.28
   80.71        2956.00           2229          84.00       351.79
   80.74        2956.25           2232          79.00       329.99
   80.77        2956.50           2236          75.00       312.56
   80.80        2956.75           2239          89.00       373.59
   80.83        2957.00           2243          82.00       343.07
   80.86        2957.25           2246          83.00       347.43
   80.89        2957.50           2250          78.00       325.64
   80.92        2957.75           2254          78.00       325.64
   80.95        2958.00           2257          84.00       351.79
   80.98        2958.25           2261          87.00       364.87
   81.01        2958.50           2264          88.00       369.23
   81.04        2958.75           2268          91.00       382.31
   81.07        2959.00           2271          86.00       360.51
   81.10        2959.25           2275          88.00       369.23
   81.13        2959.50           2278          94.00       395.38
   81.17        2959.75           2282          99.00       417.18
   81.20        2960.00           2285          94.00       395.38
   81.23        2960.25           2289         105.00       443.34
   81.26        2960.50           2293          93.00       391.03
   81.29        2960.75           2296         147.00       626.43
   81.32        2961.00           2300         131.00       556.68
   81.35        2961.25           2303         275.00      1184.44
   81.38        2961.50           2307         947.00      4114.35
   81.41        2961.75           2310        1836.00      7991.27
   81.44        2962.00           2314        3411.00     14862.35
   81.47        2962.25           2317        4627.00     20169.45
   81.50        2962.50           2321        6306.00     27500.42
   81.53        2962.75           2324        7418.00     32357.73
   81.56        2963.00           2328        8987.00     39213.98
   81.59        2963.25           2331       10210.00     44560.49
   81.62        2963.50           2335       12023.00     52489.85
   81.65        2963.75           2339       13959.00     60961.89
   81.68        2964.00           2342       15055.00     65760.21
   81.72        2964.25           2346       16682.00     72886.15
   81.75        2964.50           2349       18063.00     78937.38
   81.78        2964.75           2353       19421.00     84890.26
   81.81        2965.00           2356       20687.00     90442.03
   81.84        2965.25           2360       22339.00     97689.68
   81.87        2965.50           2363       23645.00    103421.90
   81.90        2965.75           2367       25268.00    110548.60
   81.93        2966.00           2370       26513.00    116017.80
   81.96        2966.25           2374       27540.00    120530.90
   81.99        2966.50           2378       28163.00    123269.30
   82.02        2966.75           2381       28369.00    124174.90
   82.05        2967.00           2385       28543.00    124939.80
   82.08        2967.25           2388       29059.00    127208.60
   82.11        2967.50           2392       28873.00    126390.70
   82.14        2967.75           2395       28455.00    124552.90
   82.17        2968.00           2399       27621.00    120886.90
   82.20        2968.25           2402       26495.00    115938.70
   82.24        2968.50           2406       25357.00    110939.50
   82.27        2968.75           2409       23918.00    104620.40
   82.30        2969.00           2413       22305.00     97540.47
   82.33        2969.25           2417       20656.00     90306.06
   82.36        2969.50           2420       19471.00     85109.48
   82.39        2969.75           2424       17781.00     77701.52
   82.42        2970.00           2427       16427.00     71769.06
   82.45        2970.25           2431       15073.00     65839.03
   82.48        2970.50           2434       13821.00     60357.83
   82.51        2970.75           2438       11921.00     52043.63
   82.54        2971.00           2441       10671.00     46576.32
   82.57        2971.25           2445        8892.00     38798.76
   82.60        2971.50           2449        7128.00     31090.83
   82.63        2971.75           2452        6117.00     26675.01
   82.66        2972.00           2456        4530.00     19746.04
   82.69        2972.25           2459        3356.00     14622.35
   82.72        2972.50           2463        1901.00      8274.78
   82.76        2972.75           2466         954.00      4144.87
   82.79        2973.00           2470         289.00      1245.48
   82.82        2973.25           2473         156.00       665.66
   82.85        2973.50           2477         109.00       460.77
   82.88        2973.75           2481         131.00       556.68
   82.91        2974.00           2484         111.00       469.49
   82.94        2974.25           2488         110.00       465.13
   82.97        2974.50           2491         102.00       430.26
   83.00        2974.75           2495         102.00       430.26
   83.03        2975.00           2498         138.00       587.20
   83.06        2975.25           2502         102.00       430.26
   83.09        2975.50           2505          97.00       408.46
   83.12        2975.75           2509          88.00       369.23
   83.15        2976.00           2512          86.00       360.51
   83.18        2976.25           2516          94.00       395.38
   83.21        2976.50           2520          78.00       325.64
   83.25        2976.75           2523          86.00       360.51
   83.28        2977.00           2527          87.00       364.87
   83.31        2977.25           2530          83.00       347.43
   83.34        2977.50           2534          82.00       343.07
   83.37        2977.75           2537          85.00       356.15
   83.40        2978.00           2541          83.00       347.43
   83.43        2978.25           2544          81.00       338.71
   83.46        2978.50           2548          86.00       360.51
   83.49        2978.75           2552          83.00       347.43
   83.52        2979.00           2555          85.00       356.15
   83.55        2979.25           2559          78.00       325.64
   83.58        2979.50           2562          72.00       299.48
   83.61        2979.75           2566          74.00       308.20
   83.64        2980.00           2569          75.00       312.56
   83.67        2980.25           2573          75.00       312.56
   83.70        2980.50           2577          79.00       329.99
   83.73        2980.75           2580          76.00       316.92
   83.77        2981.00           2584          70.00       290.76
   83.80        2981.25           2587          78.00       325.64
   83.83        2981.50           2591          73.00       303.84
   83.86        2981.75           2594          76.00       316.92
   83.89        2982.00           2598          72.00       299.48
   83.92        2982.25           2601          65.00       268.96
   83.95        2982.50           2605          74.00       308.20
   83.98        2982.75           2609          70.00       290.76
   84.01        2983.00           2612          70.00       290.76
   84.04        2983.25           2616          71.00       295.12
   84.07        2983.50           2619          70.00       290.76
   84.10        2983.75           2623          71.00       295.12
   84.13        2984.00           2626          70.00       290.76
HS scan finished at 01:24:21
end
