************************************************************
  HS Scan of (1) Internal mercury lamp
************************************************************
Integration time is 0.2294 seconds per sample
dh290718Reading 51.44 .94 3.37pr1000
************************************************************
Dead Time -------------------------  3.4E-08 
Number of Cycles Used -------------  4 
Starting Wavelength (Angstroms) ---  2950 
Final Wavelength (Angstoms) -------  2984 
Wavelength Increment (Angstroms) --  .25 
Filter Wheel #1 Position ---------- (1) Ground quartz diffuser (ND=2.32)
Filter Wheel #2 Position ---------- (1) Neutral Density 0.494



************************************************************
HS scan start time = 01:19:10
Dark Count =  1.7 


Time (GMT)  Wavelength (Ang)  Step Number  Raw Counts  Counts/Second

   80.06        2950.00           2144          77.00       328.25
   80.26        2950.25           2147          67.00       284.66
   80.29        2950.50           2151          74.00       315.17
   80.32        2950.75           2155          72.00       306.45
   80.35        2951.00           2158          74.00       315.17
   80.38        2951.25           2162          76.00       323.89
   80.41        2951.50           2165          79.00       336.97
   80.44        2951.75           2169          70.00       297.74
   80.47        2952.00           2172          84.00       358.77
   80.50        2952.25           2176          76.00       323.89
   80.53        2952.50           2179          74.00       315.17
   80.56        2952.75           2183          77.00       328.25
   80.59        2953.00           2186          73.00       310.81
   80.62        2953.25           2190          82.00       350.05
   80.65        2953.50           2193          77.00       328.25
   80.68        2953.75           2197          78.00       332.61
   80.71        2954.00           2200          74.00       315.17
   80.74        2954.25           2204          78.00       332.61
   80.78        2954.50           2208          76.00       323.89
   80.81        2954.75           2211          81.00       345.69
   80.84        2955.00           2215          76.00       323.89
   80.87        2955.25           2218          83.00       354.41
   80.90        2955.50           2222          76.00       323.89
   80.93        2955.75           2225          82.00       350.05
   80.96        2956.00           2229          85.00       363.13
   80.99        2956.25           2232          85.00       363.13
   81.02        2956.50           2236          83.00       354.41
   81.05        2956.75           2239          85.00       363.13
   81.08        2957.00           2243          88.00       376.20
   81.11        2957.25           2246          84.00       358.77
   81.14        2957.50           2250          98.00       419.80
   81.17        2957.75           2254          83.00       354.41
   81.20        2958.00           2257          91.00       389.28
   81.23        2958.25           2261          86.00       367.49
   81.26        2958.50           2264          92.00       393.64
   81.30        2958.75           2268          91.00       389.28
   81.33        2959.00           2271          99.00       424.16
   81.36        2959.25           2275          89.00       380.56
   81.39        2959.50           2278         112.00       480.83
   81.42        2959.75           2282          94.00       402.36
   81.45        2960.00           2285         135.00       581.09
   81.48        2960.25           2289         125.00       537.50
   81.51        2960.50           2293         124.00       533.14
   81.54        2960.75           2296         111.00       476.47
   81.57        2961.00           2300         158.00       681.36
   81.60        2961.25           2303         377.00      1636.10
   81.63        2961.50           2307        1237.00      5385.90
   81.66        2961.75           2310        2222.00      9681.91
   81.69        2962.00           2314        3711.00     16178.47
   81.72        2962.25           2317        5101.00     22245.68
   81.75        2962.50           2321        6721.00     29319.97
   81.78        2962.75           2324        7992.00     34872.63
   81.82        2963.00           2328        9618.00     41979.23
   81.85        2963.25           2331       10980.00     47934.64
   81.88        2963.50           2335       12909.00     56373.43
   81.91        2963.75           2339       14657.00     64024.58
   81.94        2964.00           2342       16148.00     70553.97
   81.97        2964.25           2346       17736.00     77511.33
   82.00        2964.50           2349       18843.00     82363.28
   82.03        2964.75           2353       20369.00     89054.33
   82.06        2965.00           2356       21639.00     94625.22
   82.09        2965.25           2360       23705.00    103692.30
   82.12        2965.50           2363       25183.00    110182.30
   82.15        2965.75           2367       26804.00    117303.50
   82.18        2966.00           2370       27593.00    120770.80
   82.21        2966.25           2374       28806.00    126103.20
   82.24        2966.50           2378       29761.00    130302.70
   82.27        2966.75           2381       29626.00    129709.00
   82.30        2967.00           2385       29767.00    130329.10
   82.33        2967.25           2388       29569.00    129458.30
   82.37        2967.50           2392       29278.00    128178.60
   82.40        2967.75           2395       29065.00    127242.00
   82.43        2968.00           2399       27984.00    122489.50
   82.46        2968.25           2402       27282.00    119404.00
   82.49        2968.50           2406       25579.00    111921.60
   82.52        2968.75           2409       24300.00    106304.60
   82.55        2969.00           2413       22707.00     99311.68
   82.58        2969.25           2417       20931.00     91519.30
   82.61        2969.50           2420       19992.00     87401.02
   82.64        2969.75           2424       18153.00     79338.85
   82.67        2970.00           2427       16938.00     74014.72
   82.70        2970.25           2431       15219.00     66485.35
   82.73        2970.50           2434       13911.00     60758.78
   82.76        2970.75           2438       11786.00     51460.06
   82.79        2971.00           2441       10571.00     46146.02
   82.82        2971.25           2445        8955.00     39081.10
   82.86        2971.50           2449        7329.00     31975.90
   82.89        2971.75           2452        6318.00     27559.82
   82.92        2972.00           2456        4698.00     20486.37
   82.95        2972.25           2459        3356.00     14629.33
   82.98        2972.50           2463        1781.00      7758.37
   83.01        2972.75           2466         772.00      3358.27
   83.04        2973.00           2470         194.00       838.30
   83.07        2973.25           2473         140.00       602.89
   83.10        2973.50           2477         165.00       711.87
   83.13        2973.75           2481         126.00       541.86
   83.16        2974.00           2484         126.00       541.86
   83.19        2974.25           2488         105.00       450.31
   83.22        2974.50           2491          97.00       415.44
   83.25        2974.75           2495         109.00       467.75
   83.28        2975.00           2498         107.00       459.03
   83.31        2975.25           2502         104.00       445.95
   83.34        2975.50           2505         120.00       515.70
   83.37        2975.75           2509          95.00       406.72
   83.41        2976.00           2512          94.00       402.36
   83.44        2976.25           2516         118.00       506.98
   83.47        2976.50           2520          89.00       380.56
   83.50        2976.75           2523          86.00       367.49
   83.53        2977.00           2527         100.00       428.52
   83.56        2977.25           2530          87.00       371.84
   83.59        2977.50           2534         105.00       450.31
   83.62        2977.75           2537          81.00       345.69
   83.65        2978.00           2541          80.00       341.33
   83.68        2978.25           2544          75.00       319.53
   83.71        2978.50           2548          84.00       358.77
   83.74        2978.75           2552          80.00       341.33
   83.77        2979.00           2555          80.00       341.33
   83.80        2979.25           2559          80.00       341.33
   83.83        2979.50           2562          73.00       310.81
   83.86        2979.75           2566          70.00       297.74
   83.89        2980.00           2569          78.00       332.61
   83.93        2980.25           2573          99.00       424.16
   83.96        2980.50           2577          76.00       323.89
   83.99        2980.75           2580          74.00       315.17
   84.02        2981.00           2584          76.00       323.89
   84.05        2981.25           2587          68.00       289.02
   84.08        2981.50           2591          69.00       293.38
   84.11        2981.75           2594          78.00       332.61
   84.14        2982.00           2598          69.00       293.38
   84.17        2982.25           2601          76.00       323.89
   84.20        2982.50           2605          80.00       341.33
   84.23        2982.75           2609          71.00       302.10
   84.26        2983.00           2612          72.00       306.45
   84.29        2983.25           2616          75.00       319.53
   84.32        2983.50           2619          73.00       310.81
   84.35        2983.75           2623          73.00       310.81
   84.38        2984.00           2626          73.00       310.81
HS scan finished at 01:24:36
end
************************************************************
  HS Scan of (1) Internal mercury lamp
************************************************************
Integration time is 0.2294 seconds per sample
dh290718Reading 51.44 .94 3.64pr1000
************************************************************
Dead Time -------------------------  3.4E-08 
Number of Cycles Used -------------  4 
Starting Wavelength (Angstroms) ---  2950 
Final Wavelength (Angstoms) -------  2984 
Wavelength Increment (Angstroms) --  .25 
Filter Wheel #1 Position ---------- (1) Ground quartz diffuser (ND=2.32)
Filter Wheel #2 Position ---------- (1) Neutral Density 0.494



************************************************************
HS scan start time = 20:37:25
Dark Count =  3.2 


Time (GMT)  Wavelength (Ang)  Step Number  Raw Counts  Counts/Second

 1238.32        2950.00           2144          58.00       238.89
 1238.51        2950.25           2147          69.00       286.84
 1238.54        2950.50           2151          66.00       273.76
 1238.57        2950.75           2155          67.00       278.12
 1238.60        2951.00           2158          69.00       286.84
 1238.63        2951.25           2162          69.00       286.84
 1238.66        2951.50           2165          76.00       317.35
 1238.69        2951.75           2169          65.00       269.40
 1238.72        2952.00           2172          65.00       269.40
 1238.75        2952.25           2176          72.00       299.92
 1238.78        2952.50           2179          73.00       304.28
 1238.82        2952.75           2183          77.00       321.71
 1238.85        2953.00           2186          77.00       321.71
 1238.88        2953.25           2190          76.00       317.35
 1238.91        2953.50           2193          74.00       308.63
 1238.94        2953.75           2197          72.00       299.92
 1238.97        2954.00           2200          75.00       312.99
 1239.00        2954.25           2204          73.00       304.28
 1239.03        2954.50           2208          77.00       321.71
 1239.06        2954.75           2211          80.00       334.79
 1239.09        2955.00           2215          72.00       299.92
 1239.12        2955.25           2218          78.00       326.07
 1239.15        2955.50           2222          75.00       312.99
 1239.18        2955.75           2225          80.00       334.79
 1239.21        2956.00           2229          74.00       308.63
 1239.24        2956.25           2232          78.00       326.07
 1239.27        2956.50           2236          83.00       347.87
 1239.30        2956.75           2239          80.00       334.79
 1239.34        2957.00           2243          88.00       369.66
 1239.37        2957.25           2246          81.00       339.15
 1239.40        2957.50           2250         118.00       500.44
 1239.43        2957.75           2254          89.00       374.02
 1239.46        2958.00           2257          86.00       360.95
 1239.49        2958.25           2261          92.00       387.10
 1239.52        2958.50           2264          80.00       334.79
 1239.55        2958.75           2268         101.00       426.34
 1239.58        2959.00           2271         102.00       430.70
 1239.61        2959.25           2275         117.00       496.09
 1239.64        2959.50           2278         105.00       443.77
 1239.67        2959.75           2282          93.00       391.46
 1239.70        2960.00           2285         121.00       513.52
 1239.73        2960.25           2289         142.00       605.07
 1239.76        2960.50           2293         117.00       496.09
 1239.79        2960.75           2296         106.00       448.13
 1239.82        2961.00           2300         173.00       740.21
 1239.86        2961.25           2303         428.00      1851.90
 1239.89        2961.50           2307        1501.00      6530.66
 1239.92        2961.75           2310        2549.00     11101.84
 1239.95        2962.00           2314        4297.00     18729.45
 1239.98        2962.25           2317        5786.00     25230.00
 1240.01        2962.50           2321        7623.00     33253.79
 1240.04        2962.75           2324        9111.00     39756.41
 1240.07        2963.00           2328       11229.00     49017.11
 1240.10        2963.25           2331       12997.00     56751.95
 1240.13        2963.50           2335       15139.00     66128.46
 1240.16        2963.75           2339       17032.00     74419.98
 1240.19        2964.00           2342       18717.00     81804.38
 1240.22        2964.25           2346       20886.00     91315.34
 1240.25        2964.50           2349       22502.00     98405.41
 1240.28        2964.75           2353       25243.00    110439.20
 1240.31        2965.00           2356       26910.00    117762.60
 1240.34        2965.25           2360       28894.00    126483.50
 1240.37        2965.50           2363       30521.00    133639.00
 1240.41        2965.75           2367       32895.00    144086.00
 1240.44        2966.00           2370       34824.00    152580.30
 1240.47        2966.25           2374       36735.00    161000.10
 1240.50        2966.50           2378       37934.00    166285.40
 1240.53        2966.75           2381       38389.00    168291.50
 1240.56        2967.00           2385       38889.00    170496.40
 1240.59        2967.25           2388       39363.00    172586.90
 1240.62        2967.50           2392       39426.00    172864.80
 1240.65        2967.75           2395       39568.00    173491.20
 1240.68        2968.00           2399       39269.00    172172.40
 1240.71        2968.25           2402       38603.00    169235.20
 1240.74        2968.50           2406       37277.00    163389.00
 1240.77        2968.75           2409       35688.00    156386.40
 1240.80        2969.00           2413       33657.00    147440.90
 1240.83        2969.25           2417       31450.00    137726.30
 1240.86        2969.50           2420       29755.00    130269.70
 1240.90        2969.75           2424       27113.00    118654.70
 1240.93        2970.00           2427       25208.00    110285.50
 1240.96        2970.25           2431       22630.00     98967.16
 1240.99        2970.50           2434       20612.00     90113.52
 1241.02        2970.75           2438       18102.00     79108.75
 1241.05        2971.00           2441       16103.00     70350.29
 1241.08        2971.25           2445       13238.00     57806.62
 1241.11        2971.50           2449       10453.00     45623.46
 1241.14        2971.75           2452        8489.00     37037.89
 1241.17        2972.00           2456        6007.00     26195.07
 1241.20        2972.25           2459        4223.00     18406.46
 1241.23        2972.50           2463        1952.00      8497.66
 1241.26        2972.75           2466         894.00      3883.69
 1241.29        2973.00           2470         310.00      1337.46
 1241.32        2973.25           2473         195.00       836.12
 1241.35        2973.50           2477         161.00       687.90
 1241.38        2973.75           2481         160.00       683.54
 1241.41        2974.00           2484         148.00       631.23
 1241.45        2974.25           2488         146.00       622.51
 1241.48        2974.50           2491         152.00       648.66
 1241.51        2974.75           2495         151.00       644.30
 1241.54        2975.00           2498         166.00       709.69
 1241.57        2975.25           2502         176.00       753.29
 1241.60        2975.50           2505         145.00       618.15
 1241.63        2975.75           2509         128.00       544.04
 1241.66        2976.00           2512         144.00       613.79
 1241.69        2976.25           2516         156.00       666.10
 1241.72        2976.50           2520         140.00       596.35
 1241.75        2976.75           2523         120.00       509.16
 1241.78        2977.00           2527         120.00       509.16
 1241.81        2977.25           2530         118.00       500.44
 1241.84        2977.50           2534         132.00       561.48
 1241.87        2977.75           2537         148.00       631.23
 1241.90        2978.00           2541         122.00       517.88
 1241.93        2978.25           2544         113.00       478.65
 1241.97        2978.50           2548         108.00       456.85
 1242.00        2978.75           2552         125.00       530.96
 1242.03        2979.00           2555         147.00       626.87
 1242.06        2979.25           2559         110.00       465.57
 1242.09        2979.50           2562         103.00       435.05
 1242.12        2979.75           2566         113.00       478.65
 1242.15        2980.00           2569          95.00       400.18
 1242.18        2980.25           2573         121.00       513.52
 1242.21        2980.50           2577         110.00       465.57
 1242.24        2980.75           2580          99.00       417.62
 1242.27        2981.00           2584         105.00       443.77
 1242.30        2981.25           2587          94.00       395.82
 1242.33        2981.50           2591          97.00       408.90
 1242.36        2981.75           2594         125.00       530.96
 1242.39        2982.00           2598          91.00       382.74
 1242.42        2982.25           2601         113.00       478.65
