************************************************************
  HS Scan of (1) Internal mercury lamp
************************************************************
Integration time is 0.2294 seconds per sample
dh051018Reading 51.44 .94 3.35pr1000
************************************************************
Dead Time -------------------------  3.4E-08 
Number of Cycles Used -------------  4 
Starting Wavelength (Angstroms) ---  2950 
Final Wavelength (Angstoms) -------  2984 
Wavelength Increment (Angstroms) --  .25 
Filter Wheel #1 Position ---------- (1) Ground quartz diffuser (ND=2.32)
Filter Wheel #2 Position ---------- (1) Neutral Density 0.494



************************************************************
HS scan start time = 03:22:32
Dark Count =  1.9 


Time (GMT)  Wavelength (Ang)  Step Number  Raw Counts  Counts/Second

  203.42        2950.00           2144          62.00       261.99
  203.62        2950.25           2147          58.00       244.55
  203.65        2950.50           2151          53.00       222.76
  203.68        2950.75           2155          88.00       375.33
  203.71        2951.00           2158          61.00       257.63
  203.74        2951.25           2162          60.00       253.27
  203.77        2951.50           2165          62.00       261.99
  203.80        2951.75           2169          58.00       244.55
  203.83        2952.00           2172          56.00       235.83
  203.86        2952.25           2176          63.00       266.35
  203.89        2952.50           2179          64.00       270.71
  203.92        2952.75           2183          59.00       248.91
  203.95        2953.00           2186          57.00       240.19
  203.99        2953.25           2190          57.00       240.19
  204.02        2953.50           2193          55.00       231.48
  204.05        2953.75           2197          62.00       261.99
  204.08        2954.00           2200          60.00       253.27
  204.11        2954.25           2204          60.00       253.27
  204.14        2954.50           2208          58.00       244.55
  204.17        2954.75           2211          67.00       283.79
  204.20        2955.00           2215          61.00       257.63
  204.23        2955.25           2218          63.00       266.35
  204.26        2955.50           2222          67.00       283.79
  204.29        2955.75           2225          65.00       275.07
  204.32        2956.00           2229          69.00       292.51
  204.35        2956.25           2232          67.00       283.79
  204.38        2956.50           2236          71.00       301.22
  204.41        2956.75           2239          60.00       253.27
  204.44        2957.00           2243          69.00       292.51
  204.47        2957.25           2246          72.00       305.58
  204.50        2957.50           2250          69.00       292.51
  204.54        2957.75           2254          68.00       288.15
  204.57        2958.00           2257          66.00       279.43
  204.60        2958.25           2261          73.00       309.94
  204.63        2958.50           2264          60.00       253.27
  204.66        2958.75           2268          69.00       292.51
  204.69        2959.00           2271          72.00       305.58
  204.72        2959.25           2275          76.00       323.02
  204.75        2959.50           2278          79.00       336.10
  204.78        2959.75           2282          74.00       314.30
  204.81        2960.00           2285          71.00       301.22
  204.84        2960.25           2289          74.00       314.30
  204.87        2960.50           2293          74.00       314.30
  204.90        2960.75           2296          85.00       362.25
  204.93        2961.00           2300         117.00       501.75
  204.96        2961.25           2303         174.00       750.24
  204.99        2961.50           2307         635.00      2760.07
  205.03        2961.75           2310        1211.00      5271.65
  205.06        2962.00           2314        2050.00      8930.79
  205.09        2962.25           2317        2846.00     12403.23
  205.12        2962.50           2321        4006.00     17465.04
  205.15        2962.75           2324        4838.00     21096.65
  205.18        2963.00           2328        6093.00     26576.31
  205.21        2963.25           2331        6965.00     30384.91
  205.24        2963.50           2335        8173.00     35662.67
  205.27        2963.75           2339        9465.00     41309.50
  205.30        2964.00           2342       10365.00     45244.35
  205.33        2964.25           2346       11629.00     50772.40
  205.36        2964.50           2349       12318.00     53786.59
  205.39        2964.75           2353       13439.00     58691.98
  205.42        2965.00           2356       14187.00     61966.07
  205.45        2965.25           2360       15407.00     67307.74
  205.48        2965.50           2363       16277.00     71118.15
  205.51        2965.75           2367       17219.00     75245.00
  205.54        2966.00           2370       18149.00     79320.43
  205.58        2966.25           2374       18842.00     82358.02
  205.61        2966.50           2378       19681.00     86036.41
  205.64        2966.75           2381       24565.00    107467.40
  205.67        2967.00           2385       21139.00     92430.83
  205.70        2967.25           2388       20926.00     91496.49
  205.73        2967.50           2392       20444.00     89382.39
  205.76        2967.75           2395       20303.00     88764.00
  205.79        2968.00           2399       19514.00     85304.16
  205.82        2968.25           2402       18737.00     81897.74
  205.85        2968.50           2406       17615.00     76980.21
  205.88        2968.75           2409       16995.00     74263.57
  205.91        2969.00           2413       15744.00     68783.60
  205.94        2969.25           2417       14665.00     64058.73
  205.97        2969.50           2420       13763.00     60110.09
  206.00        2969.75           2424       12600.00     55020.44
  206.03        2970.00           2427       11815.00     51586.04
  206.07        2970.25           2431       10501.00     45839.04
  206.10        2970.50           2434        9613.00     41956.50
  206.13        2970.75           2438        8322.00     36313.77
  206.16        2971.00           2441        7584.00     33089.08
  206.19        2971.25           2445        6325.00     27589.51
  206.22        2971.50           2449        5219.00     22759.98
  206.26        2971.75           2452        4445.00     19381.12
  206.29        2972.00           2456        3281.00     14301.20
  206.33        2972.25           2459        2317.00     10095.44
  206.36        2972.50           2463        1192.00      5188.80
  206.39        2972.75           2466         614.00      2668.51
  206.42        2973.00           2470         228.00       985.65
  206.45        2973.25           2473         131.00       562.78
  206.48        2973.50           2477          93.00       397.13
  206.51        2973.75           2481          84.00       357.89
  206.54        2974.00           2484          80.00       340.46
  206.57        2974.25           2488          81.00       344.82
  206.60        2974.50           2491          87.00       370.97
  206.63        2974.75           2495          84.00       357.89
  206.66        2975.00           2498          77.00       327.38
  206.69        2975.25           2502          75.00       318.66
  206.72        2975.50           2505          75.00       318.66
  206.75        2975.75           2509          70.00       296.86
  206.78        2976.00           2512          70.00       296.86
  206.83        2976.25           2516          74.00       314.30
  206.86        2976.50           2520          72.00       305.58
  206.89        2976.75           2523          72.00       305.58
  206.92        2977.00           2527          80.00       340.46
  206.95        2977.25           2530          72.00       305.58
  206.98        2977.50           2534          69.00       292.51
  207.01        2977.75           2537          69.00       292.51
  207.04        2978.00           2541          69.00       292.51
  207.07        2978.25           2544          68.00       288.15
  207.10        2978.50           2548          64.00       270.71
  207.14        2978.75           2552          66.00       279.43
  207.17        2979.00           2555          61.00       257.63
  207.20        2979.25           2559          66.00       279.43
  207.23        2979.50           2562          65.00       275.07
  207.26        2979.75           2566          67.00       283.79
  207.29        2980.00           2569          66.00       279.43
  207.32        2980.25           2573          61.00       257.63
  207.35        2980.50           2577          57.00       240.19
  207.38        2980.75           2580          61.00       257.63
  207.41        2981.00           2584          66.00       279.43
  207.44        2981.25           2587          57.00       240.19
  207.47        2981.50           2591          55.00       231.48
  207.50        2981.75           2594          58.00       244.55
  207.53        2982.00           2598          66.00       279.43
  207.56        2982.25           2601          54.00       227.12
  207.59        2982.50           2605          57.00       240.19
  207.63        2982.75           2609          55.00       231.48
  207.66        2983.00           2612          61.00       257.63
  207.69        2983.25           2616          52.00       218.40
  207.72        2983.50           2619          59.00       248.91
  207.75        2983.75           2623          56.00       235.83
  207.78        2984.00           2626          60.00       253.27
HS scan finished at 03:28:00
end
************************************************************
  HS Scan of (1) Internal mercury lamp
************************************************************
Integration time is 0.2294 seconds per sample
dh051018Reading 51.44 .94 3.98pr1000
************************************************************
Dead Time -------------------------  3.4E-08 
Number of Cycles Used -------------  4 
Starting Wavelength (Angstroms) ---  2950 
Final Wavelength (Angstoms) -------  2984 
Wavelength Increment (Angstroms) --  .25 
Filter Wheel #1 Position ---------- (1) Ground quartz diffuser (ND=2.32)
Filter Wheel #2 Position ---------- (1) Neutral Density 0.494



************************************************************
HS scan start time = 16:06:06
Dark Count =  8.600001 


Time (GMT)  Wavelength (Ang)  Step Number  Raw Counts  Counts/Second

  967.00        2950.00           2144          57.00       210.99
  967.19        2950.25           2147          49.00       176.11
  967.23        2950.50           2151          54.00       197.91
  967.26        2950.75           2155          51.00       184.83
  967.29        2951.00           2158          53.00       193.55
  967.32        2951.25           2162          45.00       158.68
  967.35        2951.50           2165          47.00       167.39
  967.38        2951.75           2169          56.00       206.63
  967.41        2952.00           2172          58.00       215.35
  967.44        2952.25           2176          52.00       189.19
  967.47        2952.50           2179          46.00       163.03
  967.50        2952.75           2183          55.00       202.27
  967.53        2953.00           2186          57.00       210.99
  967.56        2953.25           2190          50.00       180.47
  967.59        2953.50           2193          64.00       241.50
  967.62        2953.75           2197          50.00       180.47
  967.65        2954.00           2200          53.00       193.55
  967.68        2954.25           2204          57.00       210.99
  967.71        2954.50           2208          54.00       197.91
  967.75        2954.75           2211          51.00       184.83
  967.78        2955.00           2215          50.00       180.47
  967.81        2955.25           2218          58.00       215.35
  967.84        2955.50           2222          55.00       202.27
  967.87        2955.75           2225          56.00       206.63
  967.90        2956.00           2229          64.00       241.50
  967.93        2956.25           2232          53.00       193.55
  967.96        2956.50           2236          57.00       210.99
  967.99        2956.75           2239          60.00       224.06
  968.02        2957.00           2243          59.00       219.71
  968.05        2957.25           2246          61.00       228.42
  968.08        2957.50           2250          52.00       189.19
  968.11        2957.75           2254          58.00       215.35
  968.14        2958.00           2257          57.00       210.99
  968.17        2958.25           2261          66.00       250.22
  968.20        2958.50           2264          59.00       219.71
  968.23        2958.75           2268          63.00       237.14
  968.27        2959.00           2271          60.00       224.06
  968.30        2959.25           2275          67.00       254.58
  968.33        2959.50           2278          64.00       241.50
  968.36        2959.75           2282          58.00       215.35
  968.39        2960.00           2285          63.00       237.14
  968.42        2960.25           2289          67.00       254.58
  968.45        2960.50           2293          77.00       298.17
  968.48        2960.75           2296          73.00       280.74
  968.51        2961.00           2300         101.00       402.80
  968.54        2961.25           2303         246.00      1034.91
  968.57        2961.50           2307         801.00      3454.63
  968.60        2961.75           2310        1415.00      6132.05
  968.63        2962.00           2314        2398.00     10419.56
  968.66        2962.25           2317        3155.00     13722.18
  968.69        2962.50           2321        2537.00     11025.93
  968.72        2962.75           2324        2833.00     12317.28
  968.75        2963.00           2328        3365.00     14638.50
  968.79        2963.25           2331        3811.00     16584.76
  968.82        2963.50           2335        7191.00     31342.89
  968.85        2963.75           2339        5327.00     23202.26
  968.88        2964.00           2342        5305.00     23106.20
  968.91        2964.25           2346        6109.00     26616.93
  968.94        2964.50           2349       10437.00     45529.89
  968.97        2964.75           2353        7252.00     31609.37
  969.00        2965.00           2356        7514.00     32753.98
  969.03        2965.25           2360        8064.00     35157.08
  969.06        2965.50           2363        9820.00     42832.17
  969.09        2965.75           2367        9694.00     42281.32
  969.12        2966.00           2370        9748.00     42517.40
  969.15        2966.25           2374       10271.00     44804.03
  969.18        2966.50           2378       10455.00     45608.60
  969.21        2966.75           2381       10318.00     45009.55
  969.24        2967.00           2385       10197.00     44480.48
  969.27        2967.25           2388       10144.00     44248.74
  969.30        2967.50           2392       10486.00     45744.15
  969.34        2967.75           2395       10489.00     45757.28
  969.37        2968.00           2399       10222.00     44589.78
  969.40        2968.25           2402        9311.00     40607.03
  969.43        2968.50           2406       11675.00     50944.32
  969.46        2968.75           2409        8869.00     38675.06
  969.49        2969.00           2413        8054.00     35113.39
  969.52        2969.25           2417        7465.00     32539.91
  969.55        2969.50           2420        6958.00     30325.06
  969.58        2969.75           2424        6320.00     27538.42
  969.61        2970.00           2427        5771.00     25140.93
  969.64        2970.25           2431        5160.00     22473.14
  969.67        2970.50           2434        4705.00     20486.80
  969.70        2970.75           2438        4013.00     17466.34
  969.73        2971.00           2441        3576.00     15559.23
  969.76        2971.25           2445        3030.00     13176.78
  969.79        2971.50           2449        2492.00     10829.62
  969.82        2971.75           2452        2050.00      8901.56
  969.86        2972.00           2456        1431.00      6201.83
  969.89        2972.25           2459         969.00      4187.17
  969.92        2972.50           2463         469.00      2007.11
  969.95        2972.75           2466         243.00      1021.83
  969.98        2973.00           2470          92.00       363.56
  970.01        2973.25           2473          55.00       202.27
  970.04        2973.50           2477          52.00       189.19
  970.07        2973.75           2481          53.00       193.55
  970.10        2974.00           2484          47.00       167.39
  970.13        2974.25           2488          44.00       154.32
  970.16        2974.50           2491          53.00       193.55
  970.19        2974.75           2495          41.00       141.24
  970.22        2975.00           2498          46.00       163.03
  970.25        2975.25           2502          41.00       141.24
  970.28        2975.50           2505          49.00       176.11
  970.31        2975.75           2509          43.00       149.96
  970.35        2976.00           2512          43.00       149.96
  970.38        2976.25           2516          44.00       154.32
  970.41        2976.50           2520          36.00       119.44
  970.44        2976.75           2523          40.00       136.88
  970.47        2977.00           2527          41.00       141.24
  970.50        2977.25           2530          40.00       136.88
  970.53        2977.50           2534          44.00       154.32
  970.56        2977.75           2537          39.00       132.52
  970.59        2978.00           2541          39.00       132.52
  970.62        2978.25           2544          34.00       110.72
  970.65        2978.50           2548          41.00       141.24
  970.68        2978.75           2552          35.00       115.08
  970.71        2979.00           2555          41.00       141.24
  970.74        2979.25           2559          44.00       154.32
  970.77        2979.50           2562          36.00       119.44
  970.80        2979.75           2566          40.00       136.88
  970.83        2980.00           2569          42.00       145.60
  970.86        2980.25           2573          41.00       141.24
  970.90        2980.50           2577          37.00       123.80
  970.94        2980.75           2580          36.00       119.44
  970.97        2981.00           2584          41.00       141.24
  971.00        2981.25           2587          39.00       132.52
  971.03        2981.50           2591          35.00       115.08
  971.06        2981.75           2594          35.00       115.08
  971.09        2982.00           2598          36.00       119.44
  971.12        2982.25           2601          33.00       106.36
