************************************************************
  HS Scan of (1) Internal mercury lamp
************************************************************
Integration time is 0.2294 seconds per sample
dh051217Reading 51.44 .94 2.94pr1000
************************************************************
Dead Time -------------------------  3.4E-08 
Number of Cycles Used -------------  4 
Starting Wavelength (Angstroms) ---  2950 
Final Wavelength (Angstoms) -------  2984 
Wavelength Increment (Angstroms) --  .25 
Filter Wheel #1 Position ---------- (1) Ground quartz diffuser (ND=2.32)
Filter Wheel #2 Position ---------- (1) Neutral Density 0.494



************************************************************
HS scan start time = 05:00:44
Dark Count =  .6 


Time (GMT)  Wavelength (Ang)  Step Number  Raw Counts  Counts/Second

  301.64        2950.00           2144          85.00       367.92
  301.83        2950.25           2147          79.00       341.77
  301.86        2950.50           2151          82.00       354.84
  301.89        2950.75           2155          95.00       411.51
  301.92        2951.00           2158          82.00       354.84
  301.95        2951.25           2162          80.00       346.12
  301.99        2951.50           2165          85.00       367.92
  302.02        2951.75           2169          82.00       354.84
  302.05        2952.00           2172          88.00       381.00
  302.08        2952.25           2176          90.00       389.72
  302.11        2952.50           2179          80.00       346.12
  302.14        2952.75           2183          86.00       372.28
  302.17        2953.00           2186          80.00       346.12
  302.20        2953.25           2190          84.00       363.56
  302.23        2953.50           2193          87.00       376.64
  302.26        2953.75           2197          91.00       394.08
  302.29        2954.00           2200          85.00       367.92
  302.32        2954.25           2204          89.00       385.36
  302.35        2954.50           2208          93.00       402.80
  302.38        2954.75           2211          85.00       367.92
  302.41        2955.00           2215          87.00       376.64
  302.44        2955.25           2218          86.00       372.28
  302.47        2955.50           2222          89.00       385.36
  302.51        2955.75           2225          92.00       398.44
  302.54        2956.00           2229          91.00       394.08
  302.57        2956.25           2232          84.00       363.56
  302.60        2956.50           2236          86.00       372.28
  302.63        2956.75           2239          97.00       420.23
  302.66        2957.00           2243          94.00       407.15
  302.69        2957.25           2246          91.00       394.08
  302.72        2957.50           2250         111.00       481.26
  302.75        2957.75           2254          92.00       398.44
  302.79        2958.00           2257         107.00       463.83
  302.82        2958.25           2261          91.00       394.08
  302.85        2958.50           2264         102.00       442.03
  302.88        2958.75           2268         100.00       433.31
  302.91        2959.00           2271         105.00       455.11
  302.94        2959.25           2275         104.00       450.75
  302.97        2959.50           2278          94.00       407.15
  303.00        2959.75           2282          93.00       402.80
  303.03        2960.00           2285         119.00       516.14
  303.06        2960.25           2289         131.00       568.45
  303.09        2960.50           2293         114.00       494.34
  303.12        2960.75           2296         112.00       485.62
  303.15        2961.00           2300         153.00       664.36
  303.19        2961.25           2303         326.00      1418.55
  303.22        2961.50           2307        1094.00      4767.12
  303.25        2961.75           2310        1871.00      8155.70
  303.28        2962.00           2314        3109.00     13556.38
  303.31        2962.25           2317        4166.00     18169.02
  303.34        2962.50           2321        5761.00     25132.19
  303.37        2962.75           2324        6907.00     30137.23
  303.40        2963.00           2328        8357.00     36472.40
  303.43        2963.25           2331        9385.00     40965.48
  303.46        2963.50           2335       10858.00     47405.91
  303.49        2963.75           2339       12522.00     54684.85
  303.52        2964.00           2342       13308.00     58124.35
  303.55        2964.25           2346       15022.00     65627.53
  303.58        2964.50           2349       16020.00     69998.13
  303.61        2964.75           2353       17498.00     76473.22
  303.64        2965.00           2356       18387.00     80369.28
  303.67        2965.25           2360       19752.00     86353.42
  303.70        2965.50           2363       20783.00     90874.96
  303.74        2965.75           2367       22214.00     97152.99
  303.77        2966.00           2370       22930.00    100295.20
  303.80        2966.25           2374       24317.00    106384.10
  303.83        2966.50           2378       24961.00    109212.10
  303.86        2966.75           2381       25087.00    109765.50
  303.89        2967.00           2385       25667.00    112313.00
  303.93        2967.25           2388       25545.00    111777.10
  303.96        2967.50           2392       25289.00    110652.70
  303.99        2967.75           2395       24728.00    108188.90
  304.02        2968.00           2399       23719.00    103758.60
  304.05        2968.25           2402       22924.00    100268.90
  304.08        2968.50           2406       21709.00     94937.18
  304.11        2968.75           2409       20779.00     90857.41
  304.14        2969.00           2413       19312.00     84424.21
  304.17        2969.25           2417       18396.00     80408.73
  304.20        2969.50           2420       17412.00     76096.38
  304.23        2969.75           2424       15940.00     69647.74
  304.26        2970.00           2427       14873.00     64975.12
  304.29        2970.25           2431       13328.00     58211.88
  304.32        2970.50           2434       11669.00     50953.07
  304.35        2970.75           2438       10224.00     44633.51
  304.38        2971.00           2441        9109.00     39759.03
  304.41        2971.25           2445        7572.00     33042.33
  304.45        2971.50           2449        5992.00     26140.92
  304.48        2971.75           2452        4819.00     21019.38
  304.51        2972.00           2456        3351.00     14612.32
  304.54        2972.25           2459        2473.00     10781.63
  304.57        2972.50           2463        1304.00      5682.88
  304.60        2972.75           2466         604.00      2630.58
  304.63        2973.00           2470         191.00       830.01
  304.66        2973.25           2473         138.00       598.97
  304.69        2973.50           2477         119.00       516.14
  304.72        2973.75           2481         147.00       638.20
  304.75        2974.00           2484         116.00       503.06
  304.78        2974.25           2488         116.00       503.06
  304.81        2974.50           2491         114.00       494.34
  304.84        2974.75           2495         125.00       542.29
  304.87        2975.00           2498         114.00       494.34
  304.90        2975.25           2502         102.00       442.03
  304.93        2975.50           2505          96.00       415.87
  304.97        2975.75           2509         128.00       555.37
  305.00        2976.00           2512         102.00       442.03
  305.03        2976.25           2516          93.00       402.80
  305.06        2976.50           2520         101.00       437.67
  305.09        2976.75           2523          96.00       415.87
  305.12        2977.00           2527         104.00       450.75
  305.15        2977.25           2530          99.00       428.95
  305.18        2977.50           2534          91.00       394.08
  305.21        2977.75           2537          94.00       407.15
  305.24        2978.00           2541          84.00       363.56
  305.27        2978.25           2544          88.00       381.00
  305.30        2978.50           2548          94.00       407.15
  305.33        2978.75           2552          87.00       376.64
  305.36        2979.00           2555          87.00       376.64
  305.39        2979.25           2559          88.00       381.00
  305.42        2979.50           2562          93.00       402.80
  305.45        2979.75           2566         106.00       459.47
  305.49        2980.00           2569          85.00       367.92
  305.52        2980.25           2573          84.00       363.56
  305.55        2980.50           2577          81.00       350.48
  305.58        2980.75           2580          89.00       385.36
  305.61        2981.00           2584          93.00       402.80
  305.64        2981.25           2587          90.00       389.72
  305.67        2981.50           2591          82.00       354.84
  305.70        2981.75           2594          75.00       324.33
  305.73        2982.00           2598          84.00       363.56
  305.76        2982.25           2601          84.00       363.56
  305.79        2982.50           2605          84.00       363.56
  305.82        2982.75           2609          80.00       346.12
  305.85        2983.00           2612          66.00       285.09
  305.88        2983.25           2616          84.00       363.56
  305.91        2983.50           2619          78.00       337.41
  305.94        2983.75           2623          80.00       346.12
  305.97        2984.00           2626          86.00       372.28
HS scan finished at 05:06:12
end
************************************************************
  HS Scan of (1) Internal mercury lamp
************************************************************
Integration time is 0.2294 seconds per sample
dh051217Reading 51.44 .94 3.07pr1000
************************************************************
Dead Time -------------------------  3.4E-08 
Number of Cycles Used -------------  4 
Starting Wavelength (Angstroms) ---  2950 
Final Wavelength (Angstoms) -------  2984 
Wavelength Increment (Angstroms) --  .25 
Filter Wheel #1 Position ---------- (1) Ground quartz diffuser (ND=2.32)
Filter Wheel #2 Position ---------- (1) Neutral Density 0.494



************************************************************
HS scan start time = 16:37:24
Dark Count =  1.2 


Time (GMT)  Wavelength (Ang)  Step Number  Raw Counts  Counts/Second

  998.30        2950.00           2144          85.00       365.31
  998.49        2950.25           2147          79.00       339.15
  998.52        2950.50           2151          89.00       382.74
  998.55        2950.75           2155          84.00       360.95
  998.58        2951.00           2158          91.00       391.46
  998.61        2951.25           2162          81.00       347.87
  998.65        2951.50           2165          92.00       395.82
  998.68        2951.75           2169          84.00       360.95
  998.71        2952.00           2172          92.00       395.82
  998.74        2952.25           2176          91.00       391.46
  998.77        2952.50           2179          76.00       326.07
  998.80        2952.75           2183          94.00       404.54
  998.83        2953.00           2186          90.00       387.10
  998.86        2953.25           2190          89.00       382.74
  998.89        2953.50           2193          95.00       408.90
  998.92        2953.75           2197          78.00       334.79
  998.95        2954.00           2200          86.00       369.66
  998.98        2954.25           2204          85.00       365.31
  999.01        2954.50           2208          88.00       378.38
  999.04        2954.75           2211          90.00       387.10
  999.07        2955.00           2215          89.00       382.74
  999.10        2955.25           2218          97.00       417.62
  999.13        2955.50           2222          93.00       400.18
  999.17        2955.75           2225          86.00       369.66
  999.20        2956.00           2229          98.00       421.98
  999.23        2956.25           2232          99.00       426.34
  999.26        2956.50           2236          98.00       421.98
  999.29        2956.75           2239          91.00       391.46
  999.32        2957.00           2243         100.00       430.70
  999.35        2957.25           2246          89.00       382.74
  999.38        2957.50           2250          92.00       395.82
  999.41        2957.75           2254          99.00       426.34
  999.44        2958.00           2257         114.00       491.73
  999.47        2958.25           2261         119.00       513.52
  999.50        2958.50           2264         105.00       452.49
  999.53        2958.75           2268         103.00       443.77
  999.56        2959.00           2271         115.00       496.09
  999.59        2959.25           2275         128.00       552.76
  999.62        2959.50           2278         126.00       544.04
  999.65        2959.75           2282         127.00       548.40
  999.69        2960.00           2285         128.00       552.76
  999.72        2960.25           2289         111.00       478.65
  999.75        2960.50           2293         124.00       535.32
  999.78        2960.75           2296         165.00       714.05
  999.81        2961.00           2300         153.00       661.74
  999.84        2961.25           2303         324.00      1407.22
  999.87        2961.50           2307        1282.00      5584.32
  999.90        2961.75           2310        2165.00      9435.46
  999.93        2962.00           2314        3371.00     14696.97
  999.96        2962.25           2317        4348.00     18960.78
  999.99        2962.50           2321        6065.00     26457.09
 1000.02        2962.75           2324        7110.00     31021.37
 1000.05        2963.00           2328        8851.00     38628.74
 1000.08        2963.25           2331        9903.00     43227.39
 1000.11        2963.50           2335       11469.00     50075.60
 1000.14        2963.75           2339       13277.00     57986.05
 1000.17        2964.00           2342       14807.00     64683.51
 1000.21        2964.25           2346       16281.00     71138.73
 1000.24        2964.50           2349       17423.00     76141.95
 1000.27        2964.75           2353       19134.00     83641.18
 1000.30        2965.00           2356       20149.00     88091.71
 1000.33        2965.25           2360       21902.00     95781.34
 1000.36        2965.50           2363       22791.00     99682.53
 1000.39        2965.75           2367       24265.00    106153.20
 1000.42        2966.00           2370       25357.00    110948.70
 1000.45        2966.25           2374       26492.00    115934.70
 1000.48        2966.50           2378       26960.00    117991.10
 1000.51        2966.75           2381       26978.00    118070.30
 1000.54        2967.00           2385       27036.00    118325.10
 1000.57        2967.25           2388       26928.00    117850.50
 1000.60        2967.50           2392       26956.00    117973.60
 1000.63        2967.75           2395       26687.00    116791.50
 1000.66        2968.00           2399       25613.00    112073.20
 1000.69        2968.25           2402       24709.00    108102.80
 1000.72        2968.50           2406       23339.00    102087.80
 1000.76        2968.75           2409       22127.00     96768.61
 1000.79        2969.00           2413       20868.00     91245.16
 1000.82        2969.25           2417       19309.00     84408.42
 1000.85        2969.50           2420       18098.00     79099.99
 1000.88        2969.75           2424       16275.00     71112.46
 1000.91        2970.00           2427       14893.00     65060.06
 1000.94        2970.25           2431       13515.00     59027.67
 1000.97        2970.50           2434       12342.00     53894.66
 1001.00        2970.75           2438       10718.00     46791.03
 1001.03        2971.00           2441        9655.00     42143.17
 1001.06        2971.25           2445        8090.00     35303.03
 1001.09        2971.50           2449        6533.00     28501.01
 1001.12        2971.75           2452        5231.00     22815.43
 1001.15        2972.00           2456        3699.00     16128.28
 1001.18        2972.25           2459        2623.00     11433.39
 1001.21        2972.50           2463        1450.00      6316.96
 1001.25        2972.75           2466         737.00      3207.85
 1001.28        2973.00           2470         237.00      1027.93
 1001.31        2973.25           2473         151.00       653.02
 1001.34        2973.50           2477         147.00       635.58
 1001.37        2973.75           2481         128.00       552.76
 1001.40        2974.00           2484         116.00       500.44
 1001.43        2974.25           2488         143.00       618.15
 1001.46        2974.50           2491         128.00       552.76
 1001.49        2974.75           2495         113.00       487.37
 1001.52        2975.00           2498         134.00       578.91
 1001.55        2975.25           2502         102.00       439.41
 1001.58        2975.50           2505         125.00       539.68
 1001.61        2975.75           2509          93.00       400.18
 1001.64        2976.00           2512          99.00       426.34
 1001.67        2976.25           2516         109.00       469.93
 1001.70        2976.50           2520         105.00       452.49
 1001.73        2976.75           2523          99.00       426.34
 1001.76        2977.00           2527          94.00       404.54
 1001.80        2977.25           2530          97.00       417.62
 1001.83        2977.50           2534         114.00       491.73
 1001.86        2977.75           2537         112.00       483.01
 1001.89        2978.00           2541          86.00       369.66
 1001.92        2978.25           2544          94.00       404.54
 1001.95        2978.50           2548          94.00       404.54
 1001.98        2978.75           2552          96.00       413.26
 1002.01        2979.00           2555          96.00       413.26
 1002.04        2979.25           2559          89.00       382.74
 1002.07        2979.50           2562          90.00       387.10
 1002.10        2979.75           2566         105.00       452.49
 1002.13        2980.00           2569          86.00       369.66
 1002.16        2980.25           2573          86.00       369.66
 1002.19        2980.50           2577          89.00       382.74
 1002.22        2980.75           2580          88.00       378.38
 1002.25        2981.00           2584          93.00       400.18
 1002.28        2981.25           2587          83.00       356.59
 1002.32        2981.50           2591          89.00       382.74
 1002.35        2981.75           2594          87.00       374.02
 1002.38        2982.00           2598          80.00       343.51
 1002.41        2982.25           2601          77.00       330.43
 1002.44        2982.50           2605          87.00       374.02
