************************************************************
HS Scan of 
************************************************************
Integration time is 0.2294 seconds per sample
dh18619El Arenosillo 37.1  6.73  3.02pr1000
************************************************************
Dead Time -------------------------  3.6E-8
Number of Cycles Used -------------  4
Starting Wavelength (Angstroms) ---  2950
Final Wavelength (Angstoms) -------  2984
Wavelength Increment (Angstroms) --  0.25
Filter Wheel #1 Position ---------- (1) Ground quartz diffuser (ND = 2.32)
Filter Wheel #2 Position ---------- (1) Neutral density 0.494
 
 
 
************************************************************
HS scan start time = 01:52:09
Dark Count =  1.2
 
 
Time (GMT)  Wavelength (Ang)  Step Number  Raw Counts  Counts/Second
 
106.81         2950           2153           182.00         793.40         
106.85         2950           2157           191.00         832.63         
106.89         2951           2160           193.00         841.35         
106.92         2951           2164           184.00         802.12         
106.96         2951           2167           184.00         802.12         
107.00         2951           2171           189.00         823.91         
107.04         2952           2174           189.00         823.91         
107.08         2952           2178           191.00         832.63         
107.12         2952           2181           183.00         797.76         
107.16         2952           2185           188.00         819.55         
107.20         2953           2188           183.00         797.76         
107.24         2953           2192           186.00         810.83         
107.28         2953           2195           183.00         797.76         
107.32         2953           2199           191.00         832.63         
107.36         2954           2202           202.00         880.59         
107.40         2954           2206           185.00         806.48         
107.44         2954           2209           185.00         806.48         
107.47         2954           2213           181.00         789.04         
107.51         2955           2216           190.00         828.27         
107.55         2955           2220           219.00         954.70         
107.59         2955           2223           215.00         937.26         
107.63         2955           2227           200.00         871.87         
107.67         2956           2230           201.00         876.23         
107.71         2956           2234           197.00         858.79         
107.75         2956           2237           214.00         932.90         
107.79         2956           2241           208.00         906.74         
107.83         2957           2244           211.00         919.82         
107.87         2957           2248           216.00         941.62         
107.91         2957           2251           233.00         1015.73        
107.95         2957           2255           217.00         945.98         
107.99         2958           2258           222.00         967.78         
108.03         2958           2262           221.00         963.42         
108.06         2958           2265           218.00         950.34         
108.10         2958           2269           220.00         959.06         
108.14         2959           2272           222.00         967.78         
108.18         2959           2276           233.00         1015.73        
108.22         2959           2279           236.00         1028.81        
108.26         2959           2283           230.00         1002.65        
108.30         2960           2286           244.00         1063.69        
108.34         2960           2290           280.00         1220.63        
108.38         2960           2293           281.00         1224.99        
108.42         2960           2297           272.00         1185.75        
108.46         2961           2300           268.00         1168.31        
108.50         2961           2304           312.00         1360.14        
108.54         2961           2307           449.00         1957.42        
108.58         2961           2311           914.00         3984.88        
108.62         2962           2314           1614.00        7037.53        
108.65         2962           2318           3167.00        13812.45       
108.69         2962           2322           5249.00        22900.30       
108.73         2962           2325           6820.00        29761.60       
108.77         2963           2329           8664.00        37819.55       
108.81         2963           2332           10481.00       45764.09       
108.85         2963           2336           12892.00       56312.82       
108.89         2963           2339           14537.00       63514.72       
108.93         2964           2343           17013.00       74361.84       
108.97         2964           2346           19471.00       85138.49       
109.01         2964           2350           22335.00       97705.75       
109.05         2964           2353           24164.00       105737.39      
109.09         2965           2357           27009.00       118239.81      
109.13         2965           2360           28918.00       126635.28      
109.17         2965           2364           31655.00       138681.05      
109.20         2965           2367           33925.00       148679.46      
109.24         2966           2371           36906.00       161820.51      
109.28         2966           2374           39073.00       171381.06      
109.32         2966           2378           41339.00       181385.45      
109.36         2966           2381           42556.00       186761.49      
109.40         2967           2385           44148.00       193797.23      
109.44         2967           2388           44958.00       197378.34      
109.48         2967           2392           45294.00       198864.12      
109.52         2967           2395           45278.00       198793.36      
109.56         2968           2399           45435.00       199487.66      
109.60         2968           2402           45027.00       197683.44      
109.64         2968           2406           44078.00       193487.79      
109.68         2968           2409           43076.00       189059.20      
109.72         2969           2413           41499.00       182092.12      
109.76         2969           2416           40010.00       175517.04      
109.79         2969           2420           37787.00       165706.58      
109.83         2969           2423           35788.00       156890.60      
109.87         2970           2427           33034.00       144754.12      
109.91         2970           2430           30909.00       135396.80      
109.95         2970           2434           28479.00       124704.18      
109.99         2970           2438           25895.00       113342.97      
110.03         2971           2441           24010.00       105060.95      
110.07         2971           2445           21316.00       93233.06       
110.11         2971           2448           19148.00       83721.88       
110.15         2971           2452           16298.00       71228.62       
110.19         2972           2455           14238.00       62205.41       
110.23         2972           2459           11682.00       51017.77       
110.27         2972           2462           9801.00        42790.36       
110.31         2972           2466           7137.00        31146.50       
110.35         2973           2469           5323.00        23223.42       
110.38         2973           2473           3268.00        14253.17       
110.42         2973           2476           2043.00        8908.70        
110.46         2973           2480           1075.00        4686.93        
110.50         2974           2483           716.00         3121.54        
110.54         2974           2487           471.00         2053.33        
110.58         2974           2490           362.00         1578.12        
110.62         2974           2494           304.00         1325.26        
110.66         2975           2497           344.00         1499.65        
110.70         2975           2501           276.00         1203.19        
110.74         2975           2504           246.00         1072.40        
110.78         2975           2508           247.00         1076.76        
110.82         2976           2511           261.00         1137.80        
110.86         2976           2515           242.00         1054.97        
110.90         2976           2519           221.00         963.42         
110.94         2976           2522           238.00         1037.53        
110.97         2977           2526           240.00         1046.25        
111.01         2977           2529           211.00         919.82         
111.05         2977           2533           202.00         880.59         
111.09         2977           2536           206.00         898.02         
111.13         2978           2540           201.00         876.23         
111.17         2978           2543           214.00         932.90         
111.21         2978           2547           211.00         919.82         
111.25         2978           2550           196.00         854.43         
111.29         2979           2554           212.00         924.18         
111.33         2979           2557           205.00         893.66         
111.37         2979           2561           201.00         876.23         
111.41         2979           2564           212.00         924.18         
111.45         2980           2568           204.00         889.30         
111.49         2980           2571           198.00         863.15         
111.53         2980           2575           194.00         845.71         
111.56         2980           2578           190.00         828.27         
111.60         2981           2582           206.00         898.02         
111.64         2981           2586           177.00         771.60         
111.68         2981           2589           184.00         802.12         
111.72         2981           2593           183.00         797.76         
111.76         2982           2596           178.00         775.96         
111.80         2982           2600           181.00         789.04         
111.84         2982           2603           189.00         823.91         
111.88         2982           2607           185.00         806.48         
111.92         2983           2610           188.00         819.55         
111.96         2983           2614           181.00         789.04         
112.00         2983           2617           176.00         767.24         
112.04         2983           2621           184.00         802.12         
112.08         2984           2624           182.00         793.40         
112.11         2984           2628           170.00         741.08         
112.15         2984           2631           179.00         780.32         
HS scan finished at 01:52:09
end
