************************************************************
HS Scan of 
************************************************************
Integration time is 0.2294 seconds per sample
dh26619El Arenosillo 37.1  6.73  3.24pr1000
************************************************************
Dead Time -------------------------  3.6E-8
Number of Cycles Used -------------  4
Starting Wavelength (Angstroms) ---  2950
Final Wavelength (Angstoms) -------  2984
Wavelength Increment (Angstroms) --  0.25
Filter Wheel #1 Position ---------- (1) Ground quartz diffuser (ND = 2.32)
Filter Wheel #2 Position ---------- (1) Neutral density 0.494
 
 
 
************************************************************
HS scan start time = 01:40:33
Dark Count =  2.2
 
 
Time (GMT)  Wavelength (Ang)  Step Number  Raw Counts  Counts/Second
 
96.39          2950           2153           174.00         758.52         
96.42          2950           2157           177.00         771.60         
96.45          2951           2160           174.00         758.52         
96.48          2951           2164           179.00         780.32         
96.51          2951           2167           182.00         793.40         
96.55          2951           2171           181.00         789.04         
96.58          2952           2174           185.00         806.48         
96.61          2952           2178           166.00         723.65         
96.64          2952           2181           178.00         775.96         
96.67          2952           2185           171.00         745.44         
96.70          2953           2188           184.00         802.12         
96.73          2953           2192           184.00         802.12         
96.76          2953           2195           186.00         810.83         
96.79          2953           2199           177.00         771.60         
96.82          2954           2202           173.00         754.16         
96.85          2954           2206           188.00         819.55         
96.88          2954           2209           175.00         762.88         
96.91          2954           2213           178.00         775.96         
96.94          2955           2216           181.00         789.04         
96.97          2955           2220           182.00         793.40         
97.00          2955           2223           217.00         945.98         
97.03          2955           2227           178.00         775.96         
97.07          2956           2230           177.00         771.60         
97.10          2956           2234           181.00         789.04         
97.13          2956           2237           192.00         836.99         
97.16          2956           2241           190.00         828.27         
97.19          2957           2244           197.00         858.79         
97.22          2957           2248           194.00         845.71         
97.25          2957           2251           211.00         919.82         
97.28          2957           2255           202.00         880.59         
97.31          2958           2258           195.00         850.07         
97.34          2958           2262           210.00         915.46         
97.37          2958           2265           207.00         902.38         
97.40          2958           2269           197.00         858.79         
97.43          2959           2272           216.00         941.62         
97.46          2959           2276           234.00         1020.09        
97.49          2959           2279           239.00         1041.89        
97.52          2959           2283           218.00         950.34         
97.55          2960           2286           219.00         954.70         
97.59          2960           2290           254.00         1107.28        
97.62          2960           2293           243.00         1059.33        
97.65          2960           2297           276.00         1203.19        
97.68          2961           2300           273.00         1190.11        
97.71          2961           2304           289.00         1259.87        
97.74          2961           2307           413.00         1800.47        
97.77          2961           2311           861.00         3753.78        
97.80          2962           2314           1535.00        6692.98        
97.83          2962           2318           3060.00        13345.56       
97.86          2962           2322           4817.00        21014.15       
97.89          2962           2325           6037.00        26341.45       
97.92          2963           2329           8240.00        35966.33       
97.95          2963           2332           9944.00        43415.67       
97.98          2963           2336           12233.00       53428.74       
98.01          2963           2339           13718.00       59928.63       
98.04          2964           2343           16329.00       71364.45       
98.07          2964           2346           18572.00       81196.02       
98.11          2964           2350           21243.00       92912.70       
98.14          2964           2353           23297.00       101929.58      
98.17          2965           2357           25820.00       113013.35      
98.20          2965           2360           27773.00       121599.15      
98.23          2965           2364           30467.00       133451.28      
98.26          2965           2367           32690.00       143238.90      
98.29          2966           2371           35834.00       157093.41      
98.32          2966           2374           37807.00       165794.81      
98.35          2966           2378           40010.00       175517.04      
98.38          2966           2381           41584.00       182467.56      
98.41          2967           2385           43090.00       189121.07      
98.44          2967           2388           43930.00       192833.58      
98.47          2967           2392           44116.00       193655.77      
98.50          2967           2395           44492.00       195317.98      
98.53          2968           2399           44321.00       194562.01      
98.56          2968           2402           43855.00       192502.07      
98.59          2968           2406           43282.00       189969.55      
98.62          2968           2409           42374.00       185957.38      
98.66          2969           2413           40509.00       177720.16      
98.69          2969           2416           39137.00       171663.52      
98.72          2969           2420           36580.00       160382.81      
98.75          2969           2423           34778.00       152438.44      
98.78          2970           2427           32064.00       140482.00      
98.81          2970           2430           30081.00       131752.47      
98.84          2970           2434           27557.00       120649.31      
98.87          2970           2438           25280.00       110640.33      
98.90          2971           2441           23376.00       102276.50      
98.93          2971           2445           20531.00       89788.45       
98.96          2971           2448           18200.00       79564.98       
98.99          2971           2452           15949.00       69699.52       
99.02          2972           2455           13918.00       60804.27       
99.05          2972           2459           11411.00       49832.12       
99.08          2972           2462           9315.00        40665.42       
99.11          2972           2466           6849.00        29888.29       
99.14          2973           2469           5019.00        21896.07       
99.18          2973           2473           2881.00        12564.53       
99.21          2973           2476           1768.00        7709.20        
99.24          2973           2480           1026.00        4473.26        
99.27          2974           2483           782.00         3409.31        
99.30          2974           2487           461.00         2009.74        
99.33          2974           2490           357.00         1556.32        
99.36          2974           2494           270.00         1177.03        
99.39          2975           2497           274.00         1194.47        
99.42          2975           2501           234.00         1020.09        
99.45          2975           2504           245.00         1068.04        
99.48          2975           2508           278.00         1211.91        
99.51          2976           2511           229.00         998.29         
99.54          2976           2515           226.00         985.21         
99.57          2976           2519           221.00         963.42         
99.60          2976           2522           217.00         945.98         
99.63          2977           2526           207.00         902.38         
99.66          2977           2529           191.00         832.63         
99.70          2977           2533           236.00         1028.81        
99.73          2977           2536           206.00         898.02         
99.76          2978           2540           214.00         932.90         
99.79          2978           2543           191.00         832.63         
99.82          2978           2547           209.00         911.10         
99.85          2978           2550           188.00         819.55         
99.88          2979           2554           194.00         845.71         
99.91          2979           2557           197.00         858.79         
99.94          2979           2561           200.00         871.87         
99.97          2979           2564           193.00         841.35         
100.00         2980           2568           202.00         880.59         
100.03         2980           2571           198.00         863.15         
100.06         2980           2575           182.00         793.40         
100.09         2980           2578           178.00         775.96         
100.12         2981           2582           181.00         789.04         
100.15         2981           2586           174.00         758.52         
100.18         2981           2589           181.00         789.04         
100.22         2981           2593           190.00         828.27         
100.25         2982           2596           182.00         793.40         
100.28         2982           2600           189.00         823.91         
100.31         2982           2603           176.00         767.24         
100.34         2982           2607           171.00         745.44         
100.37         2983           2610           185.00         806.48         
100.40         2983           2614           175.00         762.88         
100.43         2983           2617           178.00         775.96         
100.46         2983           2621           171.00         745.44         
100.49         2984           2624           168.00         732.36         
100.52         2984           2628           177.00         771.60         
100.55         2984           2631           174.00         758.52         
HS scan finished at 01:40:33
end
************************************************************
HS Scan of 
************************************************************
Integration time is 0.2294 seconds per sample
dh26619El Arenosillo 37.1  6.73  3.25pr1000
************************************************************
Dead Time -------------------------  3.6E-8
Number of Cycles Used -------------  4
Starting Wavelength (Angstroms) ---  2950
Final Wavelength (Angstoms) -------  2984
Wavelength Increment (Angstroms) --  0.25
Filter Wheel #1 Position ---------- (1) Ground quartz diffuser (ND = 2.32)
Filter Wheel #2 Position ---------- (1) Neutral density 0.494
 
 
 
************************************************************
HS scan start time = 20:43:27
Dark Count =  2.55
 
 
Time (GMT)  Wavelength (Ang)  Step Number  Raw Counts  Counts/Second
 
1239.30        2950           2153           178.00         775.96         
1239.33        2950           2157           180.00         784.68         
1239.37        2951           2160           174.00         758.52         
1239.40        2951           2164           175.00         762.88         
1239.43        2951           2167           172.00         749.80         
1239.46        2951           2171           177.00         771.60         
1239.49        2952           2174           191.00         832.63         
1239.52        2952           2178           178.00         775.96         
1239.55        2952           2181           184.00         802.12         
1239.58        2952           2185           183.00         797.76         
1239.61        2953           2188           177.00         771.60         
1239.64        2953           2192           195.00         850.07         
1239.67        2953           2195           181.00         789.04         
1239.70        2953           2199           194.00         845.71         
1239.73        2954           2202           185.00         806.48         
1239.76        2954           2206           192.00         836.99         
1239.79        2954           2209           183.00         797.76         
1239.82        2954           2213           194.00         845.71         
1239.85        2955           2216           185.00         806.48         
1239.89        2955           2220           193.00         841.35         
1239.92        2955           2223           195.00         850.07         
1239.95        2955           2227           190.00         828.27         
1239.98        2956           2230           217.00         945.98         
1240.01        2956           2234           195.00         850.07         
1240.04        2956           2237           194.00         845.71         
1240.07        2956           2241           196.00         854.43         
1240.10        2957           2244           200.00         871.87         
1240.13        2957           2248           211.00         919.82         
1240.16        2957           2251           240.00         1046.25        
1240.19        2957           2255           205.00         893.66         
1240.22        2958           2258           232.00         1011.37        
1240.25        2958           2262           217.00         945.98         
1240.28        2958           2265           228.00         993.93         
1240.31        2958           2269           227.00         989.57         
1240.34        2959           2272           250.00         1089.84        
1240.37        2959           2276           220.00         959.06         
1240.41        2959           2279           285.00         1242.43        
1240.44        2959           2283           236.00         1028.81        
1240.47        2960           2286           230.00         1002.65        
1240.50        2960           2290           255.00         1111.64        
1240.53        2960           2293           245.00         1068.04        
1240.56        2960           2297           254.00         1107.28        
1240.59        2961           2300           261.00         1137.80        
1240.62        2961           2304           300.00         1307.82        
1240.65        2961           2307           429.00         1870.22        
1240.68        2961           2311           975.00         4250.87        
1240.71        2962           2314           1700.00        7412.61        
1240.74        2962           2318           3176.00        13851.72       
1240.77        2962           2322           4940.00        21551.15       
1240.80        2962           2325           6375.00        27817.73       
1240.83        2963           2329           8862.00        38685.05       
1240.86        2963           2332           10605.00       46306.42       
1240.89        2963           2336           12962.00       56619.21       
1240.93        2963           2339           15086.00       65919.11       
1240.96        2964           2343           18008.00       78723.22       
1240.99        2964           2346           20005.00       87480.82       
1241.02        2964           2350           22554.00       98667.20       
1241.05        2964           2353           24483.00       107138.68      
1241.08        2965           2357           27273.00       119400.54      
1241.11        2965           2360           29667.00       129930.66      
1241.14        2965           2364           32764.00       143564.84      
1241.17        2965           2367           35114.00       153919.40      
1241.20        2966           2371           38044.00       166840.41      
1241.23        2966           2374           39748.00       174360.43      
1241.26        2966           2378           42131.00       184883.83      
1241.29        2966           2381           43533.00       191078.85      
1241.32        2967           2385           45024.00       197670.18      
1241.35        2967           2388           45567.00       200071.42      
1241.38        2967           2392           45962.00       201818.45      
1241.41        2967           2395           45920.00       201632.68      
1241.45        2968           2399           45905.00       201566.33      
1241.48        2968           2402           45717.00       200734.82      
1241.51        2968           2406           44886.00       197059.99      
1241.54        2968           2409           43704.00       191834.64      
1241.57        2969           2413           41744.00       183174.29      
1241.60        2969           2416           40511.00       177728.99      
1241.63        2969           2420           37747.00       165530.12      
1241.66        2969           2423           35500.00       155620.93      
1241.69        2970           2427           32910.00       144207.92      
1241.72        2970           2430           31006.00       135823.80      
1241.75        2970           2434           28631.00       125372.78      
1241.78        2970           2438           25914.00       113426.47      
1241.81        2971           2441           23686.00       103637.91      
1241.84        2971           2445           20804.00       90986.29       
1241.87        2971           2448           18750.00       81976.53       
1241.90        2971           2452           16191.00       70759.79       
1241.93        2972           2455           14197.00       62025.88       
1241.96        2972           2459           11354.00       49582.76       
1242.00        2972           2462           9437.00        41198.81       
1242.03        2972           2466           6735.00        29390.28       
1242.06        2973           2469           4823.00        21040.34       
1242.09        2973           2473           2949.00        12861.23       
1242.12        2973           2476           2080.00        9070.09        
1242.15        2973           2480           1272.00        5546.01        
1242.18        2974           2483           842.00         3670.93        
1242.21        2974           2487           480.00         2092.57        
1242.24        2974           2490           347.00         1512.72        
1242.27        2974           2494           286.00         1246.79        
1242.30        2975           2497           288.00         1255.51        
1242.33        2975           2501           263.00         1146.52        
