************************************************************
HS Scan of 
************************************************************
Integration time is 0.2294 seconds per sample
dh20619El Arenosillo 37.1  6.73  3.12pr1000
************************************************************
Dead Time -------------------------  3.6E-8
Number of Cycles Used -------------  4
Starting Wavelength (Angstroms) ---  2950
Final Wavelength (Angstoms) -------  2984
Wavelength Increment (Angstroms) --  0.25
Filter Wheel #1 Position ---------- (1) Ground quartz diffuser (ND = 2.32)
Filter Wheel #2 Position ---------- (1) Neutral density 0.494
 
 
 
************************************************************
HS scan start time = 01:51:59
Dark Count =  1.4
 
 
Time (GMT)  Wavelength (Ang)  Step Number  Raw Counts  Counts/Second
 
106.64         2950           2153           178.00         775.96         
106.68         2950           2157           189.00         823.91         
106.72         2951           2160           185.00         806.48         
106.76         2951           2164           194.00         845.71         
106.80         2951           2167           185.00         806.48         
106.83         2951           2171           196.00         854.43         
106.87         2952           2174           182.00         793.40         
106.91         2952           2178           189.00         823.91         
106.95         2952           2181           180.00         784.68         
106.99         2952           2185           190.00         828.27         
107.03         2953           2188           192.00         836.99         
107.07         2953           2192           189.00         823.91         
107.11         2953           2195           189.00         823.91         
107.15         2953           2199           187.00         815.19         
107.19         2954           2202           191.00         832.63         
107.23         2954           2206           256.00         1116.00        
107.27         2954           2209           197.00         858.79         
107.31         2954           2213           196.00         854.43         
107.35         2955           2216           197.00         858.79         
107.39         2955           2220           196.00         854.43         
107.42         2955           2223           194.00         845.71         
107.46         2955           2227           196.00         854.43         
107.50         2956           2230           201.00         876.23         
107.54         2956           2234           212.00         924.18         
107.58         2956           2237           204.00         889.30         
107.62         2956           2241           218.00         950.34         
107.66         2957           2244           214.00         932.90         
107.70         2957           2248           207.00         902.38         
107.74         2957           2251           210.00         915.46         
107.78         2957           2255           254.00         1107.28        
107.82         2958           2258           217.00         945.98         
107.86         2958           2262           243.00         1059.33        
107.90         2958           2265           238.00         1037.53        
107.94         2958           2269           229.00         998.29         
107.97         2959           2272           233.00         1015.73        
108.01         2959           2276           249.00         1085.48        
108.05         2959           2279           234.00         1020.09        
108.09         2959           2283           229.00         998.29         
108.13         2960           2286           258.00         1124.72        
108.17         2960           2290           277.00         1207.55        
108.21         2960           2293           240.00         1046.25        
108.25         2960           2297           263.00         1146.52        
108.29         2961           2300           282.00         1229.35        
108.33         2961           2304           310.00         1351.42        
108.37         2961           2307           470.00         2048.97        
108.41         2961           2311           1025.00        4468.90        
108.45         2962           2314           1886.00        8223.88        
108.49         2962           2318           3364.00        14672.09       
108.53         2962           2322           5036.00        21970.29       
108.56         2962           2325           6581.00        28717.56       
108.60         2963           2329           8996.00        39270.82       
108.64         2963           2332           10744.00       46914.39       
108.68         2963           2336           13116.00       57293.29       
108.72         2963           2339           15187.00       66361.49       
108.76         2964           2343           18149.00       79341.38       
108.80         2964           2346           20419.00       89297.06       
108.84         2964           2350           22916.00       100256.58      
108.88         2964           2353           24759.00       108351.20      
108.92         2965           2357           27672.00       121155.00      
108.96         2965           2360           29849.00       130731.52      
109.00         2965           2364           33073.00       144925.91      
109.04         2965           2367           35206.00       154324.93      
109.08         2966           2371           37866.00       166055.10      
109.12         2966           2374           39792.00       174554.66      
109.15         2966           2378           42085.00       184680.62      
109.19         2966           2381           43678.00       191719.72      
109.23         2967           2385           45102.00       198015.08      
109.27         2967           2388           45846.00       201305.37      
109.31         2967           2392           46292.00       203278.15      
109.35         2967           2395           46399.00       203751.48      
109.39         2968           2399           46204.00       202888.88      
109.43         2968           2402           45846.00       201305.37      
109.47         2968           2406           44785.00       196613.41      
109.51         2968           2409           43764.00       192099.84      
109.55         2969           2413           41791.00       183381.89      
109.59         2969           2416           40033.00       175618.58      
109.63         2969           2420           37043.00       162424.74      
109.67         2969           2423           35115.00       153923.81      
109.71         2970           2427           32580.00       142754.42      
109.74         2970           2430           30521.00       133688.95      
109.78         2970           2434           27864.00       121999.33      
109.82         2970           2438           25406.00       111194.00      
109.86         2971           2441           22996.00       100607.85      
109.90         2971           2445           20174.00       88222.21       
109.94         2971           2448           18292.00       79968.33       
109.98         2971           2452           15605.00       68192.49       
110.02         2972           2455           13501.00       58978.62       
110.06         2972           2459           10926.00       47710.47       
110.10         2972           2462           9013.00        39345.14       
110.14         2972           2466           6464.00        28206.48       
110.18         2973           2469           4513.00        19687.01       
110.22         2973           2473           2623.00        11438.89       
110.26         2973           2476           1799.00        7844.41        
110.30         2973           2480           1005.00        4381.69        
110.33         2974           2483           686.00         2990.73        
110.37         2974           2487           407.00         1774.31        
110.41         2974           2490           307.00         1338.34        
110.45         2974           2494           272.00         1185.75        
110.49         2975           2497           260.00         1133.44        
110.53         2975           2501           274.00         1194.47        
110.57         2975           2504           267.00         1163.95        
110.61         2975           2508           225.00         980.85         
110.65         2976           2511           239.00         1041.89        
110.69         2976           2515           314.00         1368.86        
110.73         2976           2519           238.00         1037.53        
110.77         2976           2522           216.00         941.62         
110.81         2977           2526           215.00         937.26         
110.85         2977           2529           218.00         950.34         
110.88         2977           2533           219.00         954.70         
110.92         2977           2536           203.00         884.95         
110.96         2978           2540           244.00         1063.69        
111.00         2978           2543           219.00         954.70         
111.04         2978           2547           197.00         858.79         
111.08         2978           2550           227.00         989.57         
111.12         2979           2554           197.00         858.79         
111.16         2979           2557           196.00         854.43         
111.20         2979           2561           202.00         880.59         
111.24         2979           2564           199.00         867.51         
111.28         2980           2568           185.00         806.48         
111.32         2980           2571           184.00         802.12         
111.36         2980           2575           193.00         841.35         
111.40         2980           2578           202.00         880.59         
111.44         2981           2582           182.00         793.40         
111.47         2981           2586           196.00         854.43         
111.51         2981           2589           187.00         815.19         
111.55         2981           2593           188.00         819.55         
111.59         2982           2596           190.00         828.27         
111.63         2982           2600           184.00         802.12         
111.67         2982           2603           186.00         810.83         
111.71         2982           2607           184.00         802.12         
111.75         2983           2610           190.00         828.27         
111.79         2983           2614           176.00         767.24         
111.83         2983           2617           181.00         789.04         
111.87         2983           2621           184.00         802.12         
111.91         2984           2624           174.00         758.52         
111.95         2984           2628           182.00         793.40         
111.99         2984           2631           186.00         810.83         
HS scan finished at 01:51:59
end
