************************************************************
HS Scan of 
************************************************************
Integration time is 0.2294 seconds per sample
dh23619El Arenosillo 37.1  6.73  3.14pr1000
************************************************************
Dead Time -------------------------  3.6E-8
Number of Cycles Used -------------  4
Starting Wavelength (Angstroms) ---  2950
Final Wavelength (Angstoms) -------  2984
Wavelength Increment (Angstroms) --  0.25
Filter Wheel #1 Position ---------- (1) Ground quartz diffuser (ND = 2.32)
Filter Wheel #2 Position ---------- (1) Neutral density 0.494
 
 
 
************************************************************
HS scan start time = 01:53:32
Dark Count =  1.45
 
 
Time (GMT)  Wavelength (Ang)  Step Number  Raw Counts  Counts/Second
 
108.19         2950           2153           176.00         767.24         
108.23         2950           2157           173.00         754.16         
108.27         2951           2160           174.00         758.52         
108.31         2951           2164           175.00         762.88         
108.35         2951           2167           172.00         749.80         
108.39         2951           2171           176.00         767.24         
108.43         2952           2174           160.00         697.49         
108.46         2952           2178           176.00         767.24         
108.50         2952           2181           177.00         771.60         
108.54         2952           2185           184.00         802.12         
108.58         2953           2188           161.00         701.85         
108.62         2953           2192           173.00         754.16         
108.66         2953           2195           165.00         719.29         
108.70         2953           2199           189.00         823.91         
108.74         2954           2202           167.00         728.01         
108.78         2954           2206           188.00         819.55         
108.82         2954           2209           175.00         762.88         
108.86         2954           2213           187.00         815.19         
108.90         2955           2216           179.00         780.32         
108.94         2955           2220           178.00         775.96         
108.98         2955           2223           182.00         793.40         
109.02         2955           2227           190.00         828.27         
109.05         2956           2230           196.00         854.43         
109.09         2956           2234           189.00         823.91         
109.13         2956           2237           186.00         810.83         
109.17         2956           2241           189.00         823.91         
109.21         2957           2244           203.00         884.95         
109.25         2957           2248           190.00         828.27         
109.29         2957           2251           200.00         871.87         
109.33         2957           2255           206.00         898.02         
109.37         2958           2258           192.00         836.99         
109.41         2958           2262           208.00         906.74         
109.45         2958           2265           207.00         902.38         
109.49         2958           2269           208.00         906.74         
109.53         2959           2272           218.00         950.34         
109.57         2959           2276           220.00         959.06         
109.61         2959           2279           248.00         1081.12        
109.64         2959           2283           220.00         959.06         
109.68         2960           2286           243.00         1059.33        
109.72         2960           2290           262.00         1142.16        
109.76         2960           2293           259.00         1129.08        
109.80         2960           2297           263.00         1146.52        
109.84         2961           2300           255.00         1111.64        
109.88         2961           2304           285.00         1242.43        
109.93         2961           2307           465.00         2027.17        
109.96         2961           2311           764.00         3330.83        
110.00         2962           2314           1334.00        5816.39        
110.04         2962           2318           2228.00        9715.69        
110.08         2962           2322           3966.00        17299.35       
110.12         2962           2325           5500.00        23996.31       
110.16         2963           2329           7854.00        34279.42       
110.20         2963           2332           9468.00        41334.35       
110.23         2963           2336           12316.00       53791.95       
110.27         2963           2339           14189.00       61990.85       
110.31         2964           2343           17038.00       74471.40       
110.35         2964           2346           18776.00       82090.54       
110.39         2964           2350           21408.00       93636.82       
110.43         2964           2353           23401.00       102386.28      
110.47         2965           2357           26185.00       114617.56      
110.51         2965           2360           28666.00       125526.74      
110.55         2965           2364           31410.00       137602.36      
110.59         2965           2367           33319.00       146009.58      
110.63         2966           2371           35964.00       157666.57      
110.67         2966           2374           37759.00       165583.06      
110.71         2966           2378           40279.00       176704.65      
110.75         2966           2381           41579.00       182445.47      
110.78         2967           2385           43136.00       189324.35      
110.82         2967           2388           44012.00       193196.05      
110.86         2967           2392           44608.00       195830.83      
110.90         2967           2395           44634.00       195945.79      
110.94         2968           2399           44521.00       195446.20      
110.98         2968           2402           44344.00       194663.69      
111.02         2968           2406           43544.00       191127.47      
111.06         2968           2409           42861.00       188109.14      
111.10         2969           2413           41386.00       181593.03      
111.14         2969           2416           39380.00       172736.04      
111.18         2969           2420           36727.00       161031.08      
111.22         2969           2423           34749.00       152310.63      
111.26         2970           2427           32368.00       141820.75      
111.30         2970           2430           30701.00       134481.23      
111.34         2970           2434           28249.00       123692.55      
111.37         2970           2438           25233.00       110433.81      
111.41         2971           2441           23097.00       101051.34      
111.45         2971           2445           20657.00       90341.29       
111.49         2971           2448           18792.00       82160.70       
111.53         2971           2452           16323.00       71338.16       
111.57         2972           2455           14124.00       61706.23       
111.61         2972           2459           11600.00       50659.00       
111.65         2972           2462           9528.00        41596.68       
111.69         2972           2466           6766.00        29525.70       
111.73         2973           2469           5088.00        22197.33       
111.77         2973           2473           3340.00        14567.36       
111.81         2973           2476           2448.00        10675.42       
111.85         2973           2480           1365.00        5951.58        
111.89         2974           2483           839.00         3657.85        
111.93         2974           2487           525.00         2288.77        
111.96         2974           2490           368.00         1604.28        
112.00         2974           2494           266.00         1159.60        
112.04         2975           2497           262.00         1142.16        
112.08         2975           2501           295.00         1286.02        
112.12         2975           2504           217.00         945.98         
112.16         2975           2508           223.00         972.14         
112.20         2976           2511           234.00         1020.09        
112.24         2976           2515           231.00         1007.01        
112.28         2976           2519           220.00         959.06         
112.32         2976           2522           217.00         945.98         
112.36         2977           2526           202.00         880.59         
112.40         2977           2529           214.00         932.90         
112.44         2977           2533           210.00         915.46         
112.48         2977           2536           199.00         867.51         
112.51         2978           2540           197.00         858.79         
112.55         2978           2543           204.00         889.30         
112.59         2978           2547           208.00         906.74         
112.63         2978           2550           211.00         919.82         
112.67         2979           2554           188.00         819.55         
112.71         2979           2557           198.00         863.15         
112.75         2979           2561           200.00         871.87         
112.79         2979           2564           190.00         828.27         
112.83         2980           2568           194.00         845.71         
112.87         2980           2571           180.00         784.68         
112.91         2980           2575           186.00         810.83         
112.95         2980           2578           165.00         719.29         
112.99         2981           2582           190.00         828.27         
113.03         2981           2586           265.00         1155.24        
113.07         2981           2589           182.00         793.40         
113.10         2981           2593           196.00         854.43         
113.14         2982           2596           173.00         754.16         
113.18         2982           2600           185.00         806.48         
113.22         2982           2603           172.00         749.80         
113.26         2982           2607           189.00         823.91         
113.30         2983           2610           180.00         784.68         
113.34         2983           2614           185.00         806.48         
113.38         2983           2617           175.00         762.88         
113.42         2983           2621           177.00         771.60         
113.46         2984           2624           173.00         754.16         
113.50         2984           2628           181.00         789.04         
113.54         2984           2631           180.00         784.68         
HS scan finished at 01:53:32
end
