************************************************************
HS Scan of 
************************************************************
Integration time is 0.2294 seconds per sample
dh24619El Arenosillo 37.1  6.73  3.22pr1000
************************************************************
Dead Time -------------------------  3.6E-8
Number of Cycles Used -------------  4
Starting Wavelength (Angstroms) ---  2950
Final Wavelength (Angstoms) -------  2984
Wavelength Increment (Angstroms) --  0.25
Filter Wheel #1 Position ---------- (1) Ground quartz diffuser (ND = 2.32)
Filter Wheel #2 Position ---------- (1) Neutral density 0.494
 
 
 
************************************************************
HS scan start time = 01:50:00
Dark Count =  2.15
 
 
Time (GMT)  Wavelength (Ang)  Step Number  Raw Counts  Counts/Second
 
105.86         2950           2153           174.00         758.52         
105.89         2950           2157           179.00         780.32         
105.92         2951           2160           176.00         767.24         
105.95         2951           2164           178.00         775.96         
105.98         2951           2167           163.00         710.57         
106.01         2951           2171           183.00         797.76         
106.04         2952           2174           188.00         819.55         
106.07         2952           2178           245.00         1068.04        
106.10         2952           2181           171.00         745.44         
106.13         2952           2185           183.00         797.76         
106.16         2953           2188           181.00         789.04         
106.19         2953           2192           186.00         810.83         
106.22         2953           2195           192.00         836.99         
106.25         2953           2199           183.00         797.76         
106.28         2954           2202           187.00         815.19         
106.31         2954           2206           183.00         797.76         
106.34         2954           2209           187.00         815.19         
106.38         2954           2213           195.00         850.07         
106.41         2955           2216           186.00         810.83         
106.44         2955           2220           182.00         793.40         
106.47         2955           2223           194.00         845.71         
106.50         2955           2227           197.00         858.79         
106.53         2956           2230           201.00         876.23         
106.56         2956           2234           205.00         893.66         
106.59         2956           2237           197.00         858.79         
106.62         2956           2241           207.00         902.38         
106.65         2957           2244           201.00         876.23         
106.68         2957           2248           201.00         876.23         
106.71         2957           2251           200.00         871.87         
106.74         2957           2255           202.00         880.59         
106.77         2958           2258           215.00         937.26         
106.80         2958           2262           214.00         932.90         
106.83         2958           2265           201.00         876.23         
106.86         2958           2269           215.00         937.26         
106.90         2959           2272           219.00         954.70         
106.93         2959           2276           222.00         967.78         
106.96         2959           2279           240.00         1046.25        
106.99         2959           2283           265.00         1155.24        
107.02         2960           2286           232.00         1011.37        
107.05         2960           2290           239.00         1041.89        
107.08         2960           2293           235.00         1024.45        
107.11         2960           2297           271.00         1181.39        
107.14         2961           2300           252.00         1098.56        
107.17         2961           2304           284.00         1238.07        
107.20         2961           2307           402.00         1752.51        
107.23         2961           2311           808.00         3522.68        
107.26         2962           2314           1518.00        6618.84        
107.29         2962           2318           2947.00        12852.50       
107.32         2962           2322           4606.00        20092.99       
107.35         2962           2325           5919.00        25826.09       
107.38         2963           2329           8163.00        35629.80       
107.42         2963           2332           10090.00       44054.12       
107.45         2963           2336           12519.00       54680.33       
107.48         2963           2339           14135.00       61754.40       
107.51         2964           2343           17076.00       74637.94       
107.54         2964           2346           19243.00       84138.51       
107.57         2964           2350           22128.00       96797.05       
107.60         2964           2353           24025.00       105126.84      
107.63         2965           2357           26664.00       116723.10      
107.66         2965           2360           28765.00       125962.23      
107.69         2965           2364           31619.00       138522.54      
107.72         2965           2367           34020.00       149098.06      
107.75         2966           2371           37313.00       163615.64      
107.78         2966           2374           39149.00       171716.48      
107.81         2966           2378           41322.00       181310.37      
107.84         2966           2381           42646.00       187159.14      
107.87         2967           2385           44304.00       194486.85      
107.90         2967           2388           45170.00       198315.78      
107.94         2967           2392           45381.00       199248.85      
107.97         2967           2395           45466.00       199624.75      
108.00         2968           2399           45453.00       199567.26      
108.03         2968           2402           45136.00       198165.43      
108.06         2968           2406           44323.00       194570.85      
108.09         2968           2409           43739.00       191989.34      
108.12         2969           2413           41611.00       182586.81      
108.15         2969           2416           40461.00       177508.22      
108.18         2969           2420           37765.00       165609.53      
108.21         2969           2423           35594.00       156035.33      
108.24         2970           2427           32984.00       144533.87      
108.27         2970           2430           31052.00       136026.30      
108.30         2970           2434           28653.00       125469.55      
108.33         2970           2438           26003.00       113817.63      
108.36         2971           2441           23904.00       104595.37      
108.39         2971           2445           21065.00       92131.57       
108.42         2971           2448           18782.00       82116.85       
108.46         2971           2452           16390.00       71631.74       
108.49         2972           2455           14343.00       62665.19       
108.52         2972           2459           11813.00       51590.93       
108.55         2972           2462           9739.00        42519.26       
108.58         2972           2466           7137.00        31146.50       
108.61         2973           2469           5148.00        22459.30       
108.64         2973           2473           2941.00        12826.32       
108.67         2973           2476           1942.00        8468.14        
108.70         2973           2480           1137.00        4957.29        
108.73         2974           2483           818.00         3566.28        
108.76         2974           2487           481.00         2096.93        
108.79         2974           2490           355.00         1547.60        
108.82         2974           2494           283.00         1233.71        
108.85         2975           2497           273.00         1190.11        
108.88         2975           2501           269.00         1172.67        
108.91         2975           2504           243.00         1059.33        
108.94         2975           2508           242.00         1054.97        
108.98         2976           2511           236.00         1028.81        
109.01         2976           2515           233.00         1015.73        
109.04         2976           2519           220.00         959.06         
109.07         2976           2522           224.00         976.49         
109.10         2977           2526           217.00         945.98         
109.13         2977           2529           221.00         963.42         
109.16         2977           2533           218.00         950.34         
109.19         2977           2536           206.00         898.02         
109.22         2978           2540           202.00         880.59         
109.25         2978           2543           193.00         841.35         
109.28         2978           2547           212.00         924.18         
109.31         2978           2550           209.00         911.10         
109.34         2979           2554           201.00         876.23         
109.37         2979           2557           198.00         863.15         
109.40         2979           2561           194.00         845.71         
109.43         2979           2564           194.00         845.71         
109.46         2980           2568           200.00         871.87         
109.50         2980           2571           202.00         880.59         
109.53         2980           2575           184.00         802.12         
109.56         2980           2578           180.00         784.68         
109.59         2981           2582           185.00         806.48         
109.62         2981           2586           188.00         819.55         
109.65         2981           2589           178.00         775.96         
109.68         2981           2593           186.00         810.83         
109.71         2982           2596           189.00         823.91         
109.74         2982           2600           178.00         775.96         
109.77         2982           2603           176.00         767.24         
109.80         2982           2607           186.00         810.83         
109.83         2983           2610           185.00         806.48         
109.86         2983           2614           175.00         762.88         
109.89         2983           2617           188.00         819.55         
109.92         2983           2621           178.00         775.96         
109.95         2984           2624           176.00         767.24         
109.98         2984           2628           181.00         789.04         
110.01         2984           2631           183.00         797.76         
HS scan finished at 01:50:00
end
