************************************************************
HS Scan of 
************************************************************
Integration time is 0.2294 seconds per sample
dh27619El Arenosillo 37.1  6.73  3.25pr1000
************************************************************
Dead Time -------------------------  3.6E-8
Number of Cycles Used -------------  4
Starting Wavelength (Angstroms) ---  2950
Final Wavelength (Angstoms) -------  2984
Wavelength Increment (Angstroms) --  0.25
Filter Wheel #1 Position ---------- (1) Ground quartz diffuser (ND = 2.32)
Filter Wheel #2 Position ---------- (1) Neutral density 0.494
 
 
 
************************************************************
HS scan start time = 01:40:45
Dark Count =  2.15
 
 
Time (GMT)  Wavelength (Ang)  Step Number  Raw Counts  Counts/Second
 
96.60          2950           2153           164.00         714.93         
96.63          2950           2157           161.00         701.85         
96.66          2951           2160           168.00         732.36         
96.69          2951           2164           165.00         719.29         
96.72          2951           2167           179.00         780.32         
96.75          2951           2171           173.00         754.16         
96.78          2952           2174           184.00         802.12         
96.81          2952           2178           173.00         754.16         
96.84          2952           2181           182.00         793.40         
96.87          2952           2185           244.00         1063.69        
96.90          2953           2188           166.00         723.65         
96.93          2953           2192           173.00         754.16         
96.96          2953           2195           169.00         736.72         
96.99          2953           2199           181.00         789.04         
97.02          2954           2202           184.00         802.12         
97.05          2954           2206           182.00         793.40         
97.09          2954           2209           173.00         754.16         
97.12          2954           2213           188.00         819.55         
97.15          2955           2216           189.00         823.91         
97.18          2955           2220           176.00         767.24         
97.21          2955           2223           185.00         806.48         
97.24          2955           2227           180.00         784.68         
97.27          2956           2230           195.00         850.07         
97.30          2956           2234           201.00         876.23         
97.33          2956           2237           238.00         1037.53        
97.36          2956           2241           200.00         871.87         
97.39          2957           2244           200.00         871.87         
97.42          2957           2248           194.00         845.71         
97.45          2957           2251           203.00         884.95         
97.48          2957           2255           200.00         871.87         
97.51          2958           2258           211.00         919.82         
97.54          2958           2262           204.00         889.30         
97.57          2958           2265           214.00         932.90         
97.61          2958           2269           202.00         880.59         
97.64          2959           2272           224.00         976.49         
97.67          2959           2276           213.00         928.54         
97.70          2959           2279           228.00         993.93         
97.73          2959           2283           276.00         1203.19        
97.76          2960           2286           277.00         1207.55        
97.79          2960           2290           253.00         1102.92        
97.82          2960           2293           257.00         1120.36        
97.85          2960           2297           332.00         1447.33        
97.88          2961           2300           289.00         1259.87        
97.91          2961           2304           292.00         1272.94        
97.94          2961           2307           421.00         1835.34        
97.97          2961           2311           855.00         3727.61        
98.00          2962           2314           1395.00        6082.41        
98.03          2962           2318           2405.00        10487.83       
98.06          2962           2322           4218.00        18399.28       
98.09          2962           2325           5753.00        25101.14       
98.12          2963           2329           8070.00        35223.36       
98.16          2963           2332           9797.00        42772.87       
98.19          2963           2336           12857.00       56159.63       
98.22          2963           2339           14749.00       64443.14       
98.25          2964           2343           17171.00       75054.31       
98.28          2964           2346           18950.00       82853.56       
98.31          2964           2350           21674.00       94804.27       
98.34          2964           2353           23692.00       103664.26      
98.37          2965           2357           26621.00       116534.07      
98.40          2965           2360           28781.00       126032.61      
98.43          2965           2364           31487.00       137941.37      
98.46          2965           2367           33685.00       147622.02      
98.49          2966           2371           36115.00       158332.35      
98.52          2966           2374           37855.00       166006.57      
98.55          2966           2378           40446.00       177441.99      
98.58          2966           2381           41827.00       183540.91      
98.61          2967           2385           43282.00       189969.55      
98.64          2967           2388           43696.00       191799.28      
98.68          2967           2392           44214.00       194088.99      
98.71          2967           2395           44224.00       194133.20      
98.74          2968           2399           44214.00       194088.99      
98.77          2968           2402           44134.00       193735.34      
98.80          2968           2406           43328.00       190172.85      
98.83          2968           2409           42613.00       187013.34      
98.86          2969           2413           40736.00       178722.50      
98.89          2969           2416           38813.00       170233.62      
98.92          2969           2420           36123.00       158367.63      
98.95          2969           2423           34300.00       150331.88      
98.98          2970           2427           31858.00       139574.89      
99.01          2970           2430           29924.00       131061.56      
99.04          2970           2434           27255.00       119321.39      
99.07          2970           2438           24578.00       107556.02      
99.10          2971           2441           22603.00       98882.32       
99.13          2971           2445           20051.00       87682.62       
99.16          2971           2448           18272.00       79880.65       
99.20          2971           2452           15703.00       68621.80       
99.23          2972           2455           13778.00       60191.32       
99.26          2972           2459           11125.00       48580.97       
99.29          2972           2462           9100.00        39725.47       
99.32          2972           2466           6465.00        28210.85       
99.35          2973           2469           4867.00        21232.44       
99.38          2973           2473           3446.00        15029.93       
99.41          2973           2476           2471.00        10775.76       
99.44          2973           2480           1347.00        5873.08        
99.47          2974           2483           790.00         3444.19        
99.50          2974           2487           475.00         2070.77        
99.53          2974           2490           369.00         1608.64        
99.56          2974           2494           270.00         1177.03        
99.59          2975           2497           275.00         1198.83        
99.62          2975           2501           264.00         1150.88        
99.65          2975           2504           248.00         1081.12        
99.68          2975           2508           226.00         985.21         
99.72          2976           2511           228.00         993.93         
99.75          2976           2515           214.00         932.90         
99.78          2976           2519           212.00         924.18         
99.81          2976           2522           213.00         928.54         
99.84          2977           2526           233.00         1015.73        
99.87          2977           2529           209.00         911.10         
99.90          2977           2533           213.00         928.54         
99.93          2977           2536           209.00         911.10         
99.96          2978           2540           200.00         871.87         
99.99          2978           2543           196.00         854.43         
100.02         2978           2547           198.00         863.15         
100.05         2978           2550           189.00         823.91         
100.08         2979           2554           194.00         845.71         
100.11         2979           2557           196.00         854.43         
100.14         2979           2561           181.00         789.04         
100.17         2979           2564           187.00         815.19         
100.20         2980           2568           177.00         771.60         
100.24         2980           2571           185.00         806.48         
100.27         2980           2575           191.00         832.63         
100.30         2980           2578           179.00         780.32         
100.33         2981           2582           186.00         810.83         
100.36         2981           2586           186.00         810.83         
100.39         2981           2589           180.00         784.68         
100.42         2981           2593           192.00         836.99         
100.45         2982           2596           180.00         784.68         
100.48         2982           2600           170.00         741.08         
100.51         2982           2603           169.00         736.72         
100.54         2982           2607           182.00         793.40         
100.57         2983           2610           175.00         762.88         
100.60         2983           2614           170.00         741.08         
100.63         2983           2617           172.00         749.80         
100.66         2983           2621           174.00         758.52         
100.69         2984           2624           217.00         945.98         
100.72         2984           2628           175.00         762.88         
100.76         2984           2631           174.00         758.52         
HS scan finished at 01:40:45
end
************************************************************
HS Scan of 
************************************************************
Integration time is 0.2294 seconds per sample
dh27619El Arenosillo 37.1  6.73  3.31pr1000
************************************************************
Dead Time -------------------------  3.6E-8
Number of Cycles Used -------------  4
Starting Wavelength (Angstroms) ---  2950
Final Wavelength (Angstoms) -------  2984
Wavelength Increment (Angstroms) --  0.25
Filter Wheel #1 Position ---------- (1) Ground quartz diffuser (ND = 2.32)
Filter Wheel #2 Position ---------- (1) Neutral density 0.494
 
 
 
************************************************************
HS scan start time = 20:40:22
Dark Count =  3.1
 
 
Time (GMT)  Wavelength (Ang)  Step Number  Raw Counts  Counts/Second
 
1236.22        2950           2153           177.00         771.60         
1236.25        2950           2157           176.00         767.24         
1236.28        2951           2160           165.00         719.29         
1236.31        2951           2164           178.00         775.96         
1236.34        2951           2167           171.00         745.44         
1236.37        2951           2171           178.00         775.96         
1236.40        2952           2174           176.00         767.24         
1236.43        2952           2178           188.00         819.55         
1236.46        2952           2181           175.00         762.88         
1236.49        2952           2185           175.00         762.88         
1236.52        2953           2188           177.00         771.60         
1236.55        2953           2192           183.00         797.76         
1236.59        2953           2195           188.00         819.55         
1236.62        2953           2199           181.00         789.04         
1236.65        2954           2202           184.00         802.12         
1236.68        2954           2206           171.00         745.44         
1236.71        2954           2209           189.00         823.91         
1236.74        2954           2213           188.00         819.55         
1236.77        2955           2216           200.00         871.87         
1236.80        2955           2220           194.00         845.71         
1236.83        2955           2223           193.00         841.35         
1236.86        2955           2227           202.00         880.59         
1236.89        2956           2230           199.00         867.51         
1236.92        2956           2234           200.00         871.87         
1236.95        2956           2237           207.00         902.38         
1236.98        2956           2241           208.00         906.74         
1237.01        2957           2244           209.00         911.10         
1237.04        2957           2248           211.00         919.82         
1237.07        2957           2251           194.00         845.71         
1237.11        2957           2255           221.00         963.42         
1237.14        2958           2258           209.00         911.10         
1237.17        2958           2262           201.00         876.23         
1237.20        2958           2265           224.00         976.49         
1237.23        2958           2269           219.00         954.70         
1237.26        2959           2272           257.00         1120.36        
1237.29        2959           2276           215.00         937.26         
1237.32        2959           2279           258.00         1124.72        
1237.35        2959           2283           237.00         1033.17        
1237.38        2960           2286           235.00         1024.45        
1237.41        2960           2290           243.00         1059.33        
1237.44        2960           2293           284.00         1238.07        
1237.47        2960           2297           268.00         1168.31        
1237.50        2961           2300           309.00         1347.06        
1237.53        2961           2304           335.00         1460.41        
1237.56        2961           2307           536.00         2336.73        
1237.59        2961           2311           1041.00        4538.67        
1237.63        2962           2314           1610.00        7020.08        
1237.66        2962           2318           2816.00        12280.93       
1237.69        2962           2322           4832.00        21079.63       
1237.72        2962           2325           6644.00        28992.76       
1237.75        2963           2329           9039.00        39458.80       
1237.78        2963           2332           10777.00       47058.73       
1237.81        2963           2336           13809.00       60327.04       
1237.84        2963           2339           15894.00       69458.56       
1237.87        2964           2343           18391.00       80402.40       
1237.90        2964           2346           20272.00       88652.14       
1237.93        2964           2350           22919.00       100269.75      
1237.96        2964           2353           25130.00       109981.23      
1237.99        2965           2357           28013.00       122654.61      
1238.02        2965           2360           30231.00       132412.60      
1238.05        2965           2364           33009.00       144643.99      
1238.08        2965           2367           35174.00       154183.87      
1238.11        2966           2371           37664.00       165163.97      
1238.14        2966           2374           39660.00       173971.97      
1238.18        2966           2378           42127.00       184866.16      
1238.21        2966           2381           43425.00       190601.53      
1238.24        2967           2385           45042.00       197749.77      
1238.27        2967           2388           45617.00       200292.55      
1238.30        2967           2392           45788.00       201048.84      
1238.33        2967           2395           46027.00       202105.95      
1238.36        2968           2399           45720.00       200748.09      
1238.39        2968           2402           45373.00       199213.47      
1238.42        2968           2406           43803.00       192272.22      
1238.45        2968           2409           42632.00       187097.28      
1238.48        2969           2413           40303.00       176810.61      
1238.51        2969           2416           38407.00       168442.04      
1238.54        2969           2420           35819.00       157027.28      
1238.57        2969           2423           33775.00       148018.55      
1238.60        2970           2427           31038.00       135964.67      
1238.63        2970           2430           29254.00       128113.49      
1238.66        2970           2434           26434.00       115712.05      
1238.70        2970           2438           23539.00       102992.32      
1238.73        2971           2441           21675.00       94808.66       
1238.76        2971           2445           18916.00       82704.46       
1238.79        2971           2448           17001.00       74309.25       
1238.82        2971           2452           14350.00       62695.84       
1238.85        2972           2455           12462.00       54430.88       
1238.88        2972           2459           9594.00        41885.25       
1238.91        2972           2462           7657.00        33418.56       
1238.94        2972           2466           5104.00        22267.19       
1238.97        2973           2469           3719.00        16221.33       
1239.00        2973           2473           2130.00        9288.20        
1239.03        2973           2476           1327.00        5785.86        
1239.06        2973           2480           729.00         3178.22        
1239.09        2974           2483           492.00         2144.89        
1239.12        2974           2487           333.00         1451.69        
1239.15        2974           2490           286.00         1246.79        
1239.18        2974           2494           320.00         1395.01        
1239.22        2975           2497           247.00         1076.76        
1239.25        2975           2501           259.00         1129.08        
