************************************************************
HS Scan of 
************************************************************
Integration time is 0.2294 seconds per sample
dh28619El Arenosillo 37.1  6.73  3.33pr1000
************************************************************
Dead Time -------------------------  3.6E-8
Number of Cycles Used -------------  4
Starting Wavelength (Angstroms) ---  2950
Final Wavelength (Angstoms) -------  2984
Wavelength Increment (Angstroms) --  0.25
Filter Wheel #1 Position ---------- (1) Ground quartz diffuser (ND = 2.32)
Filter Wheel #2 Position ---------- (1) Neutral density 0.494
 
 
 
************************************************************
HS scan start time = 01:03:57
Dark Count =  3.25
 
 
Time (GMT)  Wavelength (Ang)  Step Number  Raw Counts  Counts/Second
 
59.80          2950           2153           154.00         671.33         
59.83          2950           2157           145.00         632.10         
59.86          2951           2160           168.00         732.36         
59.89          2951           2164           155.00         675.69         
59.92          2951           2167           162.00         706.21         
59.95          2951           2171           158.00         688.77         
59.98          2952           2174           151.00         658.25         
60.01          2952           2178           150.00         653.90         
60.05          2952           2181           161.00         701.85         
60.08          2952           2185           156.00         680.05         
60.11          2953           2188           163.00         710.57         
60.14          2953           2192           172.00         749.80         
60.17          2953           2195           168.00         732.36         
60.20          2953           2199           169.00         736.72         
60.23          2954           2202           167.00         728.01         
60.26          2954           2206           169.00         736.72         
60.29          2954           2209           172.00         749.80         
60.32          2954           2213           166.00         723.65         
60.35          2955           2216           177.00         771.60         
60.38          2955           2220           165.00         719.29         
60.41          2955           2223           243.00         1059.33        
60.44          2955           2227           181.00         789.04         
60.47          2956           2230           179.00         780.32         
60.50          2956           2234           186.00         810.83         
60.53          2956           2237           177.00         771.60         
60.57          2956           2241           173.00         754.16         
60.60          2957           2244           186.00         810.83         
60.63          2957           2248           195.00         850.07         
60.66          2957           2251           181.00         789.04         
60.69          2957           2255           205.00         893.66         
60.72          2958           2258           197.00         858.79         
60.75          2958           2262           188.00         819.55         
60.78          2958           2265           228.00         993.93         
60.81          2958           2269           198.00         863.15         
60.84          2959           2272           212.00         924.18         
60.87          2959           2276           226.00         985.21         
60.90          2959           2279           209.00         911.10         
60.93          2959           2283           218.00         950.34         
60.96          2960           2286           224.00         976.49         
60.99          2960           2290           226.00         985.21         
61.02          2960           2293           231.00         1007.01        
61.05          2960           2297           238.00         1037.53        
61.09          2961           2300           249.00         1085.48        
61.12          2961           2304           295.00         1286.02        
61.15          2961           2307           464.00         2022.82        
61.18          2961           2311           951.00         4146.22        
61.21          2962           2314           1610.00        7020.08        
61.24          2962           2318           2830.00        12342.01       
61.27          2962           2322           4733.00        20647.43       
61.30          2962           2325           6395.00        27905.09       
61.33          2963           2329           8561.00        37369.33       
61.36          2963           2332           10487.00       45790.33       
61.39          2963           2336           13158.00       57477.13       
61.42          2963           2339           15028.00       65665.07       
61.45          2964           2343           17429.00       76185.12       
61.48          2964           2346           19505.00       85287.62       
61.51          2964           2350           22015.00       96301.02       
61.54          2964           2353           23909.00       104617.33      
61.57          2965           2357           26481.00       115918.65      
61.61          2965           2360           28747.00       125883.05      
61.64          2965           2364           31515.00       138064.65      
61.67          2965           2367           33544.00       147000.81      
61.70          2966           2371           36488.00       159977.10      
61.73          2966           2374           38310.00       168014.04      
61.76          2966           2378           40376.00       177132.92      
61.79          2966           2381           41545.00       182295.30      
61.82          2967           2385           43170.00       189474.60      
61.85          2967           2388           43726.00       191931.88      
61.88          2967           2392           43998.00       193134.16      
61.91          2967           2395           43889.00       192652.35      
61.94          2968           2399           43904.00       192718.65      
61.97          2968           2402           43486.00       190871.13      
62.00          2968           2406           42892.00       188246.12      
62.03          2968           2409           41803.00       183434.90      
62.06          2969           2413           39862.00       174863.67      
62.09          2969           2416           38204.00       167546.34      
62.13          2969           2420           35839.00       157115.45      
62.16          2969           2423           34010.00       149053.99      
62.19          2970           2427           31323.00       137219.33      
62.22          2970           2430           29569.00       129499.44      
62.25          2970           2434           27160.00       118903.70      
62.28          2970           2438           24424.00       106879.50      
62.31          2971           2441           22414.00       98052.57       
62.34          2971           2445           19571.00       85577.10       
62.37          2971           2448           17558.00       76750.57       
62.40          2971           2452           15270.00       66725.04       
62.43          2972           2455           13293.00       58068.08       
62.46          2972           2459           10910.00       47640.49       
62.49          2972           2462           8928.00        38973.56       
62.52          2972           2466           6324.00        27594.97       
62.55          2973           2469           4431.00        19329.05       
62.58          2973           2473           2467.00        10758.31       
62.61          2973           2476           1642.00        7159.65        
62.65          2973           2480           999.00         4355.52        
62.68          2974           2483           680.00         2964.57        
62.71          2974           2487           416.00         1813.54        
62.74          2974           2490           309.00         1347.06        
62.77          2974           2494           317.00         1381.93        
62.80          2975           2497           247.00         1076.76        
62.83          2975           2501           242.00         1054.97        
62.86          2975           2504           231.00         1007.01        
62.89          2975           2508           247.00         1076.76        
62.92          2976           2511           317.00         1381.93        
62.95          2976           2515           199.00         867.51         
62.98          2976           2519           211.00         919.82         
63.01          2976           2522           205.00         893.66         
63.04          2977           2526           199.00         867.51         
63.07          2977           2529           200.00         871.87         
63.10          2977           2533           213.00         928.54         
63.13          2977           2536           190.00         828.27         
63.16          2978           2540           194.00         845.71         
63.20          2978           2543           203.00         884.95         
63.23          2978           2547           221.00         963.42         
63.26          2978           2550           191.00         832.63         
63.29          2979           2554           187.00         815.19         
63.32          2979           2557           189.00         823.91         
63.35          2979           2561           196.00         854.43         
63.38          2979           2564           192.00         836.99         
63.41          2980           2568           185.00         806.48         
63.44          2980           2571           170.00         741.08         
63.47          2980           2575           175.00         762.88         
63.50          2980           2578           172.00         749.80         
63.53          2981           2582           172.00         749.80         
63.56          2981           2586           191.00         832.63         
63.59          2981           2589           247.00         1076.76        
63.62          2981           2593           159.00         693.13         
63.65          2982           2596           190.00         828.27         
63.68          2982           2600           167.00         728.01         
63.72          2982           2603           171.00         745.44         
63.75          2982           2607           164.00         714.93         
63.78          2983           2610           168.00         732.36         
63.81          2983           2614           177.00         771.60         
63.84          2983           2617           173.00         754.16         
63.87          2983           2621           176.00         767.24         
63.90          2984           2624           170.00         741.08         
63.93          2984           2628           170.00         741.08         
63.96          2984           2631           167.00         728.01         
HS scan finished at 01:03:57
end
************************************************************
HS Scan of 
************************************************************
Integration time is 0.2294 seconds per sample
dh28619El Arenosillo 37.1  6.73  3.33pr1000
************************************************************
Dead Time -------------------------  3.6E-8
Number of Cycles Used -------------  4
Starting Wavelength (Angstroms) ---  2950
Final Wavelength (Angstoms) -------  2984
Wavelength Increment (Angstroms) --  0.25
Filter Wheel #1 Position ---------- (1) Ground quartz diffuser (ND = 2.32)
Filter Wheel #2 Position ---------- (1) Neutral density 0.494
 
 
 
************************************************************
HS scan start time = 01:47:05
Dark Count =  2.85
 
 
Time (GMT)  Wavelength (Ang)  Step Number  Raw Counts  Counts/Second
 
102.93         2950           2153           172.00         749.80         
102.96         2950           2157           167.00         728.01         
102.99         2951           2160           170.00         741.08         
103.02         2951           2164           184.00         802.12         
103.05         2951           2167           158.00         688.77         
103.08         2951           2171           173.00         754.16         
103.11         2952           2174           166.00         723.65         
103.14         2952           2178           187.00         815.19         
103.17         2952           2181           171.00         745.44         
103.20         2952           2185           174.00         758.52         
103.23         2953           2188           188.00         819.55         
103.26         2953           2192           193.00         841.35         
103.30         2953           2195           239.00         1041.89        
103.33         2953           2199           178.00         775.96         
103.36         2954           2202           201.00         876.23         
103.39         2954           2206           188.00         819.55         
103.42         2954           2209           180.00         784.68         
103.45         2954           2213           186.00         810.83         
103.48         2955           2216           185.00         806.48         
103.51         2955           2220           194.00         845.71         
103.54         2955           2223           186.00         810.83         
103.57         2955           2227           191.00         832.63         
103.60         2956           2230           192.00         836.99         
103.63         2956           2234           180.00         784.68         
103.66         2956           2237           209.00         911.10         
103.69         2956           2241           196.00         854.43         
103.72         2957           2244           196.00         854.43         
103.75         2957           2248           201.00         876.23         
103.78         2957           2251           205.00         893.66         
103.82         2957           2255           203.00         884.95         
103.85         2958           2258           198.00         863.15         
103.88         2958           2262           277.00         1207.55        
103.91         2958           2265           212.00         924.18         
103.94         2958           2269           218.00         950.34         
103.97         2959           2272           221.00         963.42         
104.00         2959           2276           210.00         915.46         
104.03         2959           2279           218.00         950.34         
104.06         2959           2283           248.00         1081.12        
104.09         2960           2286           232.00         1011.37        
104.12         2960           2290           222.00         967.78         
104.15         2960           2293           232.00         1011.37        
104.18         2960           2297           247.00         1076.76        
104.21         2961           2300           278.00         1211.91        
104.24         2961           2304           293.00         1277.30        
104.27         2961           2307           420.00         1830.98        
104.30         2961           2311           799.00         3483.44        
104.34         2962           2314           1313.00        5724.81        
104.37         2962           2318           2218.00        9672.07        
104.40         2962           2322           4022.00        17543.77       
104.43         2962           2325           5544.00        24188.45       
104.46         2963           2329           7791.00        34004.11       
104.49         2963           2332           9852.00        43013.37       
104.52         2963           2336           12829.00       56037.08       
104.55         2963           2339           14611.00       63838.79       
104.58         2964           2343           17234.00       75330.43       
104.61         2964           2346           19032.00       83213.16       
104.64         2964           2350           21560.00       94303.92       
104.67         2964           2353           23651.00       103484.20      
104.70         2965           2357           26592.00       116406.59      
104.73         2965           2360           28933.00       126701.27      
104.76         2965           2364           31271.00       136990.40      
104.79         2965           2367           33466.00       146657.18      
104.82         2966           2371           36035.00       157979.62      
104.86         2966           2374           38104.00       167105.13      
104.89         2966           2378           40102.00       175923.20      
104.92         2966           2381           41585.00       182471.97      
104.95         2967           2385           42815.00       187905.88      
104.98         2967           2388           43448.00       190703.18      
105.01         2967           2392           43708.00       191852.32      
105.04         2967           2395           43923.00       192802.64      
105.07         2968           2399           44133.00       193730.92      
105.10         2968           2402           43890.00       192656.77      
105.13         2968           2406           43255.00       189850.23      
105.16         2968           2409           42347.00       185838.09      
105.19         2969           2413           40245.00       176554.54      
105.22         2969           2416           38462.00       168684.73      
105.25         2969           2420           35875.00       157274.17      
105.28         2969           2423           34132.00       149591.57      
105.31         2970           2427           31712.00       138932.03      
105.34         2970           2430           29843.00       130705.12      
105.37         2970           2434           26932.00       117901.28      
105.41         2970           2438           24285.00       106268.90      
105.44         2971           2441           22577.00       98768.17       
105.47         2971           2445           20109.00       87937.06       
105.50         2971           2448           18152.00       79354.53       
105.53         2971           2452           15659.00       68429.04       
105.56         2972           2455           13647.00       59617.79       
105.59         2972           2459           10898.00       47588.00       
105.62         2972           2462           9141.00        39904.71       
105.65         2972           2466           6972.00        30425.64       
105.68         2973           2469           5545.00        24192.81       
105.71         2973           2473           3770.00        16443.91       
105.74         2973           2476           2537.00        11063.69       
105.77         2973           2480           1307.00        5698.64        
105.80         2974           2483           862.00         3758.14        
105.83         2974           2487           438.00         1909.46        
105.86         2974           2490           321.00         1399.37        
105.89         2974           2494           257.00         1120.36        
105.93         2975           2497           265.00         1155.24        
105.96         2975           2501           249.00         1085.48        
