************************************************************
HS Scan of 
************************************************************
Integration time is 0.2294 seconds per sample
dh19619El Arenosillo 37.1  6.73  3.25pr1000
************************************************************
Dead Time -------------------------  3.6E-8
Number of Cycles Used -------------  4
Starting Wavelength (Angstroms) ---  2950
Final Wavelength (Angstoms) -------  2984
Wavelength Increment (Angstroms) --  0.25
Filter Wheel #1 Position ---------- (1) Ground quartz diffuser (ND = 2.32)
Filter Wheel #2 Position ---------- (1) Neutral density 0.494
 
 
 
************************************************************
HS scan start time = 01:52:11
Dark Count =  2.2
 
 
Time (GMT)  Wavelength (Ang)  Step Number  Raw Counts  Counts/Second
 
106.84         2950           2153           175.00         762.88         
106.88         2950           2157           197.00         858.79         
106.92         2951           2160           184.00         802.12         
106.96         2951           2164           182.00         793.40         
107.00         2951           2167           174.00         758.52         
107.04         2951           2171           191.00         832.63         
107.08         2952           2174           180.00         784.68         
107.12         2952           2178           187.00         815.19         
107.16         2952           2181           175.00         762.88         
107.20         2952           2185           187.00         815.19         
107.24         2953           2188           194.00         845.71         
107.27         2953           2192           185.00         806.48         
107.31         2953           2195           191.00         832.63         
107.35         2953           2199           184.00         802.12         
107.39         2954           2202           194.00         845.71         
107.43         2954           2206           195.00         850.07         
107.47         2954           2209           188.00         819.55         
107.51         2954           2213           200.00         871.87         
107.55         2955           2216           203.00         884.95         
107.59         2955           2220           205.00         893.66         
107.63         2955           2223           213.00         928.54         
107.67         2955           2227           201.00         876.23         
107.71         2956           2230           208.00         906.74         
107.75         2956           2234           200.00         871.87         
107.79         2956           2237           236.00         1028.81        
107.82         2956           2241           201.00         876.23         
107.86         2957           2244           219.00         954.70         
107.90         2957           2248           235.00         1024.45        
107.94         2957           2251           204.00         889.30         
107.98         2957           2255           204.00         889.30         
108.02         2958           2258           251.00         1094.20        
108.06         2958           2262           225.00         980.85         
108.10         2958           2265           219.00         954.70         
108.14         2958           2269           259.00         1129.08        
108.18         2959           2272           240.00         1046.25        
108.22         2959           2276           250.00         1089.84        
108.26         2959           2279           227.00         989.57         
108.30         2959           2283           276.00         1203.19        
108.34         2960           2286           327.00         1425.53        
108.38         2960           2290           284.00         1238.07        
108.41         2960           2293           251.00         1094.20        
108.45         2960           2297           274.00         1194.47        
108.49         2961           2300           287.00         1251.15        
108.53         2961           2304           327.00         1425.53        
108.57         2961           2307           528.00         2301.85        
108.61         2961           2311           1037.00        4521.22        
108.65         2962           2314           1693.00        7382.08        
108.69         2962           2318           2860.00        12472.91       
108.73         2962           2322           5019.00        21896.07       
108.77         2962           2325           6819.00        29757.23       
108.81         2963           2329           9301.00        40604.21       
108.85         2963           2332           11125.00       48580.97       
108.89         2963           2336           14039.00       61334.06       
108.93         2963           2339           16494.00       72087.45       
108.97         2964           2343           19059.00       83331.57       
109.00         2964           2346           21255.00       92965.36       
109.04         2964           2350           23875.00       104468.00      
109.08         2964           2353           26219.00       114767.00      
109.12         2965           2357           29241.00       128056.29      
109.16         2965           2360           31470.00       137866.52      
109.20         2965           2364           34624.00       151759.72      
109.24         2965           2367           36516.00       160100.58      
109.28         2966           2371           39584.00       173636.49      
109.32         2966           2374           41717.00       183055.02      
109.36         2966           2378           44032.00       193284.45      
109.40         2966           2381           45276.00       198784.52      
109.44         2967           2385           47160.00       207118.36      
109.48         2967           2388           47700.00       209507.97      
109.52         2967           2392           47903.00       210406.39      
109.56         2967           2395           48153.00       211512.90      
109.59         2968           2399           47968.00       210694.07      
109.63         2968           2402           47312.00       207790.95      
109.67         2968           2406           46161.00       202698.67      
109.71         2968           2409           44453.00       195145.56      
109.75         2969           2413           42181.00       185104.72      
109.79         2969           2416           39989.00       175424.33      
109.83         2969           2420           37266.00       163408.33      
109.87         2969           2423           35263.00       154576.18      
109.91         2970           2427           32662.00       143115.58      
109.95         2970           2430           30413.00       133213.61      
109.99         2970           2434           27507.00       120429.44      
110.03         2970           2438           24622.00       107749.32      
110.07         2971           2441           22440.00       98166.71       
110.11         2971           2445           19477.00       85164.81       
110.14         2971           2448           17402.00       76066.78       
110.18         2971           2452           14760.00       64491.32       
110.22         2972           2455           12583.00       54960.42       
110.26         2972           2459           9764.00        42628.58       
110.30         2972           2462           7680.00        33519.06       
110.34         2972           2466           5339.00        23293.28       
110.38         2973           2469           3776.00        16470.09       
110.42         2973           2473           2209.00        9632.81        
110.46         2973           2476           1368.00        5964.66        
110.50         2973           2480           790.00         3444.19        
110.54         2974           2483           508.00         2214.65        
110.58         2974           2487           384.00         1674.03        
110.62         2974           2490           294.00         1281.66        
110.66         2974           2494           274.00         1194.47        
110.70         2975           2497           265.00         1155.24        
110.73         2975           2501           253.00         1102.92        
110.77         2975           2504           290.00         1264.22        
110.81         2975           2508           248.00         1081.12        
110.85         2976           2511           246.00         1072.40        
110.89         2976           2515           222.00         967.78         
110.93         2976           2519           228.00         993.93         
110.97         2976           2522           224.00         976.49         
111.01         2977           2526           218.00         950.34         
111.05         2977           2529           218.00         950.34         
111.09         2977           2533           243.00         1059.33        
111.13         2977           2536           221.00         963.42         
111.17         2978           2540           204.00         889.30         
111.21         2978           2543           231.00         1007.01        
111.25         2978           2547           209.00         911.10         
111.29         2978           2550           220.00         959.06         
111.32         2979           2554           208.00         906.74         
111.36         2979           2557           209.00         911.10         
111.40         2979           2561           208.00         906.74         
111.44         2979           2564           204.00         889.30         
111.48         2980           2568           205.00         893.66         
111.52         2980           2571           196.00         854.43         
111.56         2980           2575           195.00         850.07         
111.60         2980           2578           187.00         815.19         
111.64         2981           2582           199.00         867.51         
111.68         2981           2586           180.00         784.68         
111.72         2981           2589           189.00         823.91         
111.76         2981           2593           192.00         836.99         
111.80         2982           2596           188.00         819.55         
111.84         2982           2600           182.00         793.40         
111.88         2982           2603           182.00         793.40         
111.91         2982           2607           183.00         797.76         
111.95         2983           2610           198.00         863.15         
111.99         2983           2614           186.00         810.83         
112.03         2983           2617           193.00         841.35         
112.07         2983           2621           179.00         780.32         
112.11         2984           2624           184.00         802.12         
112.15         2984           2628           191.00         832.63         
112.19         2984           2631           178.00         775.96         
HS scan finished at 01:52:11
end
