************************************************************
HS Scan of 
************************************************************
Integration time is 0.2294 seconds per sample
dh25619El Arenosillo 37.1  6.73  3.25pr1000
************************************************************
Dead Time -------------------------  3.6E-8
Number of Cycles Used -------------  4
Starting Wavelength (Angstroms) ---  2950
Final Wavelength (Angstoms) -------  2984
Wavelength Increment (Angstroms) --  0.25
Filter Wheel #1 Position ---------- (1) Ground quartz diffuser (ND = 2.32)
Filter Wheel #2 Position ---------- (1) Neutral density 0.494
 
 
 
************************************************************
HS scan start time = 01:49:57
Dark Count =  2.35
 
 
Time (GMT)  Wavelength (Ang)  Step Number  Raw Counts  Counts/Second
 
105.80         2950           2153           158.00         688.77         
105.83         2950           2157           164.00         714.93         
105.86         2951           2160           179.00         780.32         
105.89         2951           2164           163.00         710.57         
105.92         2951           2167           183.00         797.76         
105.95         2951           2171           182.00         793.40         
105.98         2952           2174           166.00         723.65         
106.02         2952           2178           169.00         736.72         
106.05         2952           2181           169.00         736.72         
106.08         2952           2185           177.00         771.60         
106.11         2953           2188           174.00         758.52         
106.14         2953           2192           164.00         714.93         
106.17         2953           2195           182.00         793.40         
106.20         2953           2199           187.00         815.19         
106.23         2954           2202           188.00         819.55         
106.26         2954           2206           181.00         789.04         
106.29         2954           2209           187.00         815.19         
106.32         2954           2213           174.00         758.52         
106.35         2955           2216           179.00         780.32         
106.38         2955           2220           172.00         749.80         
106.41         2955           2223           197.00         858.79         
106.44         2955           2227           191.00         832.63         
106.47         2956           2230           200.00         871.87         
106.50         2956           2234           197.00         858.79         
106.54         2956           2237           198.00         863.15         
106.57         2956           2241           192.00         836.99         
106.60         2957           2244           176.00         767.24         
106.63         2957           2248           201.00         876.23         
106.66         2957           2251           186.00         810.83         
106.69         2957           2255           196.00         854.43         
106.72         2958           2258           197.00         858.79         
106.75         2958           2262           212.00         924.18         
106.78         2958           2265           209.00         911.10         
106.81         2958           2269           213.00         928.54         
106.84         2959           2272           211.00         919.82         
106.87         2959           2276           212.00         924.18         
106.90         2959           2279           228.00         993.93         
106.93         2959           2283           228.00         993.93         
106.96         2960           2286           268.00         1168.31        
106.99         2960           2290           227.00         989.57         
107.02         2960           2293           251.00         1094.20        
107.06         2960           2297           233.00         1015.73        
107.09         2961           2300           252.00         1098.56        
107.12         2961           2304           302.00         1316.54        
107.15         2961           2307           390.00         1700.19        
107.18         2961           2311           715.00         3117.18        
107.21         2962           2314           1127.00        4913.69        
107.24         2962           2318           2111.00        9205.32        
107.27         2962           2322           3860.00        16836.71       
107.30         2962           2325           5342.00        23306.38       
107.33         2963           2329           7658.00        33422.93       
107.36         2963           2332           9730.00        42479.91       
107.39         2963           2336           12398.00       54150.80       
107.42         2963           2339           14261.00       62306.12       
107.45         2964           2343           16391.00       71636.12       
107.48         2964           2346           18428.00       80564.62       
107.51         2964           2350           21138.00       92451.92       
107.54         2964           2353           23220.00       101591.45      
107.57         2965           2357           26090.00       114200.01      
107.61         2965           2360           28388.00       124303.92      
107.64         2965           2364           30988.00       135744.56      
107.67         2965           2367           32920.00       144251.96      
107.70         2966           2371           35395.00       155158.06      
107.73         2966           2374           37276.00       163452.44      
107.76         2966           2378           39522.00       173362.82      
107.79         2966           2381           40862.00       179278.89      
107.82         2967           2385           42528.00       186637.78      
107.85         2967           2388           43323.00       190150.75      
107.88         2967           2392           43526.00       191047.91      
107.91         2967           2395           43547.00       191140.73      
107.94         2968           2399           43780.00       192170.56      
107.97         2968           2402           43361.00       190318.69      
108.00         2968           2406           42829.00       187967.74      
108.03         2968           2409           41979.00       184212.36      
108.06         2969           2413           40015.00       175539.11      
108.09         2969           2416           38210.00       167572.81      
108.13         2969           2420           35751.00       156727.48      
108.16         2969           2423           34321.00       150424.42      
108.19         2970           2427           31847.00       139526.45      
108.22         2970           2430           29702.00       130084.66      
108.25         2970           2434           26839.00       117492.42      
108.28         2970           2438           24246.00       106097.58      
108.31         2971           2441           22408.00       98026.23       
108.34         2971           2445           20213.00       88393.30       
108.37         2971           2448           18212.00       79617.59       
108.40         2971           2452           15901.00       69489.22       
108.43         2972           2455           13980.00       61075.73       
108.46         2972           2459           11428.00       49906.50       
108.49         2972           2462           9484.00        41404.30       
108.52         2972           2466           7059.00        30805.72       
108.55         2973           2469           5569.00        24297.62       
108.58         2973           2473           3935.00        17164.05       
108.61         2973           2476           2783.00        12136.95       
108.65         2973           2480           1467.00        6396.42        
108.68         2974           2483           892.00         3888.95        
108.71         2974           2487           500.00         2179.77        
108.74         2974           2490           360.00         1569.40        
108.77         2974           2494           253.00         1102.92        
108.80         2975           2497           252.00         1098.56        
108.83         2975           2501           244.00         1063.69        
108.86         2975           2504           227.00         989.57         
108.89         2975           2508           228.00         993.93         
108.92         2976           2511           249.00         1085.48        
108.95         2976           2515           232.00         1011.37        
108.98         2976           2519           203.00         884.95         
109.01         2976           2522           236.00         1028.81        
109.04         2977           2526           203.00         884.95         
109.07         2977           2529           208.00         906.74         
109.10         2977           2533           212.00         924.18         
109.13         2977           2536           223.00         972.14         
109.17         2978           2540           208.00         906.74         
109.20         2978           2543           191.00         832.63         
109.23         2978           2547           208.00         906.74         
109.26         2978           2550           194.00         845.71         
109.29         2979           2554           193.00         841.35         
109.32         2979           2557           198.00         863.15         
109.35         2979           2561           189.00         823.91         
109.38         2979           2564           193.00         841.35         
109.41         2980           2568           185.00         806.48         
109.44         2980           2571           193.00         841.35         
109.47         2980           2575           269.00         1172.67        
109.50         2980           2578           193.00         841.35         
109.53         2981           2582           190.00         828.27         
109.56         2981           2586           185.00         806.48         
109.59         2981           2589           177.00         771.60         
109.62         2981           2593           164.00         714.93         
109.65         2982           2596           182.00         793.40         
109.69         2982           2600           183.00         797.76         
109.72         2982           2603           173.00         754.16         
109.75         2982           2607           175.00         762.88         
109.78         2983           2610           182.00         793.40         
109.81         2983           2614           174.00         758.52         
109.84         2983           2617           186.00         810.83         
109.87         2983           2621           203.00         884.95         
109.90         2984           2624           178.00         775.96         
109.93         2984           2628           163.00         710.57         
109.96         2984           2631           178.00         775.96         
HS scan finished at 01:49:57
end
************************************************************
HS Scan of 
************************************************************
Integration time is 0.2294 seconds per sample
dh25619El Arenosillo 37.1  6.73  3.31pr1000
************************************************************
Dead Time -------------------------  3.6E-8
Number of Cycles Used -------------  4
Starting Wavelength (Angstroms) ---  2950
Final Wavelength (Angstoms) -------  2984
Wavelength Increment (Angstroms) --  0.25
Filter Wheel #1 Position ---------- (1) Ground quartz diffuser (ND = 2.32)
Filter Wheel #2 Position ---------- (1) Neutral density 0.494
 
 
 
************************************************************
HS scan start time = 20:43:51
Dark Count =  2.75
 
 
Time (GMT)  Wavelength (Ang)  Step Number  Raw Counts  Counts/Second
 
1239.69        2950           2153           181.00         789.04         
1239.72        2950           2157           185.00         806.48         
1239.75        2951           2160           179.00         780.32         
1239.78        2951           2164           184.00         802.12         
1239.81        2951           2167           211.00         919.82         
1239.85        2951           2171           176.00         767.24         
1239.88        2952           2174           193.00         841.35         
1239.91        2952           2178           188.00         819.55         
1239.94        2952           2181           184.00         802.12         
1239.97        2952           2185           182.00         793.40         
1240.00        2953           2188           183.00         797.76         
1240.03        2953           2192           184.00         802.12         
1240.06        2953           2195           183.00         797.76         
1240.09        2953           2199           179.00         780.32         
1240.12        2954           2202           180.00         784.68         
1240.15        2954           2206           188.00         819.55         
1240.18        2954           2209           180.00         784.68         
1240.21        2954           2213           193.00         841.35         
1240.24        2955           2216           270.00         1177.03        
1240.27        2955           2220           198.00         863.15         
1240.30        2955           2223           194.00         845.71         
1240.33        2955           2227           195.00         850.07         
1240.37        2956           2230           188.00         819.55         
1240.40        2956           2234           198.00         863.15         
1240.43        2956           2237           197.00         858.79         
1240.46        2956           2241           201.00         876.23         
1240.49        2957           2244           193.00         841.35         
1240.52        2957           2248           202.00         880.59         
1240.55        2957           2251           198.00         863.15         
1240.58        2957           2255           219.00         954.70         
1240.61        2958           2258           207.00         902.38         
1240.64        2958           2262           237.00         1033.17        
1240.67        2958           2265           235.00         1024.45        
1240.70        2958           2269           223.00         972.14         
1240.73        2959           2272           231.00         1007.01        
1240.76        2959           2276           219.00         954.70         
1240.79        2959           2279           237.00         1033.17        
1240.82        2959           2283           239.00         1041.89        
1240.85        2960           2286           237.00         1033.17        
1240.89        2960           2290           273.00         1190.11        
1240.92        2960           2293           251.00         1094.20        
1240.95        2960           2297           250.00         1089.84        
1240.98        2961           2300           291.00         1268.58        
1241.01        2961           2304           305.00         1329.62        
1241.04        2961           2307           403.00         1756.87        
1241.07        2961           2311           826.00         3601.16        
1241.10        2962           2314           1439.00        6274.30        
1241.13        2962           2318           2462.00        10736.49       
1241.16        2962           2322           4094.00        17858.03       
1241.19        2962           2325           5641.00        24612.03       
1241.22        2963           2329           8253.00        36023.15       
1241.25        2963           2332           9791.00        42746.64       
1241.28        2963           2336           12687.00       55415.59       
1241.31        2963           2339           15018.00       65621.27       
1241.34        2964           2343           17571.00       76807.55       
1241.37        2964           2346           19600.00       85704.30       
1241.40        2964           2350           22114.00       96735.60       
1241.44        2964           2353           24202.00       105904.31      
1241.47        2965           2357           27425.00       120068.88      
1241.50        2965           2360           29682.00       129996.66      
1241.53        2965           2364           32578.00       142745.62      
1241.56        2965           2367           34684.00       152024.16      
1241.59        2966           2371           37733.00       165468.36      
1241.62        2966           2374           39675.00       174038.18      
1241.65        2966           2378           42061.00       184574.60      
1241.68        2966           2381           43598.00       191366.14      
1241.71        2967           2385           45181.00       198364.42      
1241.74        2967           2388           45909.00       201584.02      
1241.77        2967           2392           46506.00       204224.83      
1241.80        2967           2395           46735.00       205237.94      
1241.83        2968           2399           46511.00       204246.95      
1241.86        2968           2402           46403.00       203769.18      
1241.89        2968           2406           45452.00       199562.84      
1241.92        2968           2409           44905.00       197144.00      
1241.96        2969           2413           42861.00       188109.14      
1241.99        2969           2416           41663.00       182816.50      
1242.02        2969           2420           38436.00       168570.00      
1242.05        2969           2423           36400.00       159589.05      
1242.08        2970           2427           33841.00       148309.35      
1242.11        2970           2430           31871.00       139632.13      
1242.14        2970           2434           29682.00       129996.66      
1242.17        2970           2438           26433.00       115707.65      
1242.20        2971           2441           24142.00       105640.75      
1242.23        2971           2445           21239.00       92895.15       
1242.26        2971           2448           19316.00       84458.67       
1242.29        2971           2452           16807.00       73459.05       
1242.32        2972           2455           14717.00       64303.00       
1242.35        2972           2459           11889.00       51923.47       
1242.38        2972           2462           9917.00        43297.60       
1242.41        2972           2466           7291.00        31819.34       
1242.44        2973           2469           5348.00        23332.58       
1242.48        2973           2473           3310.00        14436.45       
1242.51        2973           2476           2366.00        10317.69       
1242.54        2973           2480           1420.00        6191.44        
1242.57        2974           2483           942.00         4106.97        
1242.60        2974           2487           536.00         2336.73        
1242.63        2974           2490           377.00         1643.51        
1242.66        2974           2494           297.00         1294.74        
1242.69        2975           2497           292.00         1272.94        
1242.72        2975           2501           263.00         1146.52        
