************************************************************
HS Scan of 
************************************************************
Integration time is 0.2294 seconds per sample
dh21619El Arenosillo 37.1  6.73  3.16pr1000
************************************************************
Dead Time -------------------------  3.6E-8
Number of Cycles Used -------------  4
Starting Wavelength (Angstroms) ---  2950
Final Wavelength (Angstoms) -------  2984
Wavelength Increment (Angstroms) --  0.25
Filter Wheel #1 Position ---------- (1) Ground quartz diffuser (ND = 2.32)
Filter Wheel #2 Position ---------- (1) Neutral density 0.494
 
 
 
************************************************************
HS scan start time = 01:05:14
Dark Count =  1.75
 
 
Time (GMT)  Wavelength (Ang)  Step Number  Raw Counts  Counts/Second
 
59.89          2950           2153           170.00         741.08         
59.93          2950           2157           154.00         671.33         
59.97          2951           2160           164.00         714.93         
60.01          2951           2164           153.00         666.97         
60.05          2951           2167           178.00         775.96         
60.09          2951           2171           162.00         706.21         
60.13          2952           2174           162.00         706.21         
60.17          2952           2178           168.00         732.36         
60.22          2952           2181           170.00         741.08         
60.25          2952           2185           176.00         767.24         
60.29          2953           2188           179.00         780.32         
60.33          2953           2192           168.00         732.36         
60.37          2953           2195           174.00         758.52         
60.41          2953           2199           174.00         758.52         
60.44          2954           2202           184.00         802.12         
60.48          2954           2206           171.00         745.44         
60.52          2954           2209           189.00         823.91         
60.56          2954           2213           235.00         1024.45        
60.60          2955           2216           186.00         810.83         
60.64          2955           2220           181.00         789.04         
60.68          2955           2223           191.00         832.63         
60.72          2955           2227           192.00         836.99         
60.76          2956           2230           193.00         841.35         
60.80          2956           2234           207.00         902.38         
60.84          2956           2237           197.00         858.79         
60.88          2956           2241           180.00         784.68         
60.92          2957           2244           212.00         924.18         
60.96          2957           2248           201.00         876.23         
61.00          2957           2251           199.00         867.51         
61.03          2957           2255           219.00         954.70         
61.07          2958           2258           204.00         889.30         
61.11          2958           2262           209.00         911.10         
61.15          2958           2265           209.00         911.10         
61.19          2958           2269           207.00         902.38         
61.23          2959           2272           251.00         1094.20        
61.27          2959           2276           222.00         967.78         
61.31          2959           2279           254.00         1107.28        
61.35          2959           2283           256.00         1116.00        
61.39          2960           2286           239.00         1041.89        
61.43          2960           2290           241.00         1050.61        
61.47          2960           2293           265.00         1155.24        
61.51          2960           2297           250.00         1089.84        
61.55          2961           2300           281.00         1224.99        
61.59          2961           2304           303.00         1320.90        
61.62          2961           2307           432.00         1883.30        
61.66          2961           2311           813.00         3544.48        
61.70          2962           2314           1289.00        5620.14        
61.74          2962           2318           2344.00        10221.72       
61.78          2962           2322           4211.00        18368.73       
61.82          2962           2325           5871.00        25616.46       
61.86          2963           2329           8078.00        35258.33       
61.90          2963           2332           10220.00       44622.63       
61.94          2963           2336           13226.00       57774.79       
61.98          2963           2339           15237.00       66580.49       
62.02          2964           2343           17818.00       77890.29       
62.06          2964           2346           19798.00       86572.79       
62.10          2964           2350           22527.00       98548.66       
62.14          2964           2353           24570.00       107520.87      
62.18          2965           2357           27771.00       121590.35      
62.21          2965           2360           30076.00       131730.46      
62.25          2965           2364           32923.00       144265.18      
62.29          2965           2367           34881.00       152892.41      
62.33          2966           2371           37580.00       164793.41      
62.37          2966           2374           39369.00       172687.49      
62.41          2966           2378           41867.00       183717.61      
62.45          2966           2381           43465.00       190778.32      
62.49          2967           2385           45182.00       198368.84      
62.53          2967           2388           46121.00       202521.74      
62.57          2967           2392           46549.00       204415.06      
62.61          2967           2395           46671.00       204954.79      
62.65          2968           2399           46545.00       204397.36      
62.69          2968           2402           46431.00       203893.04      
62.73          2968           2406           45841.00       201283.26      
62.76          2968           2409           44777.00       196578.04      
62.80          2969           2413           43248.00       189819.30      
62.84          2969           2416           41237.00       180934.96      
62.88          2969           2420           38484.00       168781.81      
62.92          2969           2423           36668.00       160770.88      
62.96          2970           2427           34123.00       149551.91      
63.00          2970           2430           31900.00       139759.83      
63.04          2970           2434           29224.00       127981.50      
63.08          2970           2438           26348.00       115334.02      
63.12          2971           2441           24215.00       105961.41      
63.16          2971           2445           21531.00       94176.64       
63.20          2971           2448           19614.00       85765.71       
63.24          2971           2452           17089.00       74694.92       
63.28          2972           2455           15095.00       65958.53       
63.32          2972           2459           12171.00       53157.43       
63.35          2972           2462           10057.00       43909.81       
63.39          2972           2466           7311.00        31906.72       
63.43          2973           2469           5595.00        24411.16       
63.47          2973           2473           3779.00        16483.19       
63.51          2973           2476           2694.00        11748.65       
63.55          2973           2480           1510.00        6583.95        
63.59          2974           2483           931.00         4059.01        
63.63          2974           2487           523.00         2280.05        
63.67          2974           2490           385.00         1678.39        
63.71          2974           2494           292.00         1272.94        
63.75          2975           2497           258.00         1124.72        
63.79          2975           2501           272.00         1185.75        
63.83          2975           2504           272.00         1185.75        
63.87          2975           2508           261.00         1137.80        
63.91          2976           2511           253.00         1102.92        
63.94          2976           2515           234.00         1020.09        
63.98          2976           2519           222.00         967.78         
64.02          2976           2522           237.00         1033.17        
64.06          2977           2526           212.00         924.18         
64.10          2977           2529           216.00         941.62         
64.14          2977           2533           210.00         915.46         
64.18          2977           2536           223.00         972.14         
64.22          2978           2540           211.00         919.82         
64.26          2978           2543           202.00         880.59         
64.30          2978           2547           204.00         889.30         
64.34          2978           2550           207.00         902.38         
64.38          2979           2554           200.00         871.87         
64.42          2979           2557           227.00         989.57         
64.46          2979           2561           201.00         876.23         
64.49          2979           2564           202.00         880.59         
64.53          2980           2568           202.00         880.59         
64.57          2980           2571           194.00         845.71         
64.61          2980           2575           186.00         810.83         
64.65          2980           2578           180.00         784.68         
64.69          2981           2582           198.00         863.15         
64.73          2981           2586           201.00         876.23         
64.77          2981           2589           184.00         802.12         
64.81          2981           2593           186.00         810.83         
64.85          2982           2596           183.00         797.76         
64.89          2982           2600           176.00         767.24         
64.93          2982           2603           188.00         819.55         
64.97          2982           2607           189.00         823.91         
65.01          2983           2610           199.00         867.51         
65.05          2983           2614           177.00         771.60         
65.08          2983           2617           172.00         749.80         
65.12          2983           2621           174.00         758.52         
65.16          2984           2624           186.00         810.83         
65.20          2984           2628           179.00         780.32         
65.24          2984           2631           182.00         793.40         
HS scan finished at 01:05:15
end
************************************************************
HS Scan of 
************************************************************
Integration time is 0.2294 seconds per sample
dh21619El Arenosillo 37.1  6.73  3.12pr1000
************************************************************
Dead Time -------------------------  3.6E-8
Number of Cycles Used -------------  4
Starting Wavelength (Angstroms) ---  2950
Final Wavelength (Angstoms) -------  2984
Wavelength Increment (Angstroms) --  0.25
Filter Wheel #1 Position ---------- (1) Ground quartz diffuser (ND = 2.32)
Filter Wheel #2 Position ---------- (1) Neutral density 0.494
 
 
 
************************************************************
HS scan start time = 01:52:06
Dark Count =  1.5
 
 
Time (GMT)  Wavelength (Ang)  Step Number  Raw Counts  Counts/Second
 
106.75         2950           2153           184.00         802.12         
106.79         2950           2157           179.00         780.32         
106.83         2951           2160           185.00         806.48         
106.87         2951           2164           177.00         771.60         
106.92         2951           2167           181.00         789.04         
106.95         2951           2171           189.00         823.91         
106.99         2952           2174           186.00         810.83         
107.03         2952           2178           178.00         775.96         
107.07         2952           2181           177.00         771.60         
107.11         2952           2185           189.00         823.91         
107.15         2953           2188           193.00         841.35         
107.19         2953           2192           183.00         797.76         
107.22         2953           2195           190.00         828.27         
107.26         2953           2199           188.00         819.55         
107.30         2954           2202           193.00         841.35         
107.34         2954           2206           178.00         775.96         
107.38         2954           2209           192.00         836.99         
107.42         2954           2213           195.00         850.07         
107.46         2955           2216           195.00         850.07         
107.50         2955           2220           187.00         815.19         
107.54         2955           2223           217.00         945.98         
107.58         2955           2227           195.00         850.07         
107.62         2956           2230           187.00         815.19         
107.66         2956           2234           196.00         854.43         
107.70         2956           2237           199.00         867.51         
107.74         2956           2241           231.00         1007.01        
107.78         2957           2244           204.00         889.30         
107.81         2957           2248           206.00         898.02         
107.85         2957           2251           212.00         924.18         
107.89         2957           2255           208.00         906.74         
107.93         2958           2258           214.00         932.90         
107.97         2958           2262           215.00         937.26         
108.01         2958           2265           227.00         989.57         
108.05         2958           2269           230.00         1002.65        
108.09         2959           2272           220.00         959.06         
108.13         2959           2276           244.00         1063.69        
108.17         2959           2279           229.00         998.29         
108.21         2959           2283           254.00         1107.28        
108.25         2960           2286           251.00         1094.20        
108.29         2960           2290           273.00         1190.11        
108.33         2960           2293           257.00         1120.36        
108.37         2960           2297           278.00         1211.91        
108.40         2961           2300           278.00         1211.91        
108.44         2961           2304           299.00         1303.46        
108.48         2961           2307           405.00         1765.59        
108.52         2961           2311           659.00         2873.01        
108.56         2962           2314           1025.00        4468.90        
108.60         2962           2318           2175.00        9484.49        
108.64         2962           2322           3774.00        16461.37       
108.68         2962           2325           5399.00        23555.28       
108.72         2963           2329           7813.00        34100.25       
108.76         2963           2332           10038.00       43826.72       
108.80         2963           2336           12987.00       56728.64       
108.84         2963           2339           14697.00       64215.41       
108.88         2964           2343           17141.00       74922.82       
108.92         2964           2346           19316.00       84458.67       
108.95         2964           2350           21841.00       95537.26       
108.99         2964           2353           24241.00       106075.62      
109.03         2965           2357           26995.00       118178.26      
109.07         2965           2360           29040.00       127171.99      
109.11         2965           2364           31695.00       138857.17      
109.15         2965           2367           34010.00       149053.99      
109.19         2966           2371           36717.00       160986.98      
109.23         2966           2374           38898.00       170608.73      
109.27         2966           2378           41261.00       181040.96      
109.31         2966           2381           42742.00       187583.32      
109.35         2967           2385           44486.00       195291.46      
109.39         2967           2388           44972.00       197440.25      
109.43         2967           2392           45394.00       199306.34      
109.47         2967           2395           45857.00       201354.03      
109.51         2968           2399           45827.00       201221.34      
109.55         2968           2402           45653.00       200451.77      
109.58         2968           2406           45070.00       197873.58      
109.62         2968           2409           44378.00       194813.99      
109.66         2969           2413           42277.00       185528.84      
109.70         2969           2416           40172.00       176232.24      
109.74         2969           2420           37800.00       165763.93      
109.78         2969           2423           36339.00       159320.06      
109.82         2970           2427           33544.00       147000.81      
109.86         2970           2430           31392.00       137523.11      
109.90         2970           2434           28402.00       124365.50      
109.94         2970           2438           25688.00       112433.24      
109.98         2971           2441           23874.00       104463.61      
110.02         2971           2445           21341.00       93342.78       
110.06         2971           2448           19288.00       84335.87       
110.10         2971           2452           16861.00       73695.69       
110.13         2972           2455           14802.00       64675.26       
110.17         2972           2459           11903.00       51984.73       
110.21         2972           2462           9929.00        43350.08       
110.25         2972           2466           7596.00        33152.01       
110.29         2973           2469           6129.00        26743.26       
110.33         2973           2473           4178.00        18224.68       
110.37         2973           2476           2911.00        12695.43       
110.41         2973           2480           1533.00        6684.26        
110.45         2974           2483           972.00         4237.79        
110.49         2974           2487           526.00         2293.13        
110.53         2974           2490           380.00         1656.59        
110.57         2974           2494           287.00         1251.15        
110.61         2975           2497           260.00         1133.44        
110.65         2975           2501           240.00         1046.25        
