************************************************************
HS Scan of 
************************************************************
Integration time is 0.2294 seconds per sample
dh20619El Arenosillo 37.1  6.73  3.12pr1000
************************************************************
Dead Time -------------------------  3.6E-8
Number of Cycles Used -------------  4
Starting Wavelength (Angstroms) ---  2950
Final Wavelength (Angstoms) -------  2984
Wavelength Increment (Angstroms) --  0.25
Filter Wheel #1 Position ---------- (1) Ground quartz diffuser (ND = 2.32)
Filter Wheel #2 Position ---------- (1) Neutral density 0.494
 
 
 
************************************************************
HS scan start time = 01:51:59
Dark Count =  1.4
 
 
Time (GMT)  Wavelength (Ang)  Step Number  Raw Counts  Counts/Second
 
106.64         2950           2153           178.00         775.96         
106.68         2950           2157           189.00         823.91         
106.72         2951           2160           185.00         806.48         
106.76         2951           2164           194.00         845.71         
106.80         2951           2167           185.00         806.48         
106.83         2951           2171           196.00         854.43         
106.87         2952           2174           182.00         793.40         
106.91         2952           2178           189.00         823.91         
106.95         2952           2181           180.00         784.68         
106.99         2952           2185           190.00         828.27         
107.03         2953           2188           192.00         836.99         
107.07         2953           2192           189.00         823.91         
107.11         2953           2195           189.00         823.91         
107.15         2953           2199           187.00         815.19         
107.19         2954           2202           191.00         832.63         
107.23         2954           2206           256.00         1116.00        
107.27         2954           2209           197.00         858.79         
107.31         2954           2213           196.00         854.43         
107.35         2955           2216           197.00         858.79         
107.39         2955           2220           196.00         854.43         
107.42         2955           2223           194.00         845.71         
107.46         2955           2227           196.00         854.43         
107.50         2956           2230           201.00         876.23         
107.54         2956           2234           212.00         924.18         
107.58         2956           2237           204.00         889.30         
107.62         2956           2241           218.00         950.34         
107.66         2957           2244           214.00         932.90         
107.70         2957           2248           207.00         902.38         
107.74         2957           2251           210.00         915.46         
107.78         2957           2255           254.00         1107.28        
107.82         2958           2258           217.00         945.98         
107.86         2958           2262           243.00         1059.33        
107.90         2958           2265           238.00         1037.53        
107.94         2958           2269           229.00         998.29         
107.97         2959           2272           233.00         1015.73        
108.01         2959           2276           249.00         1085.48        
108.05         2959           2279           234.00         1020.09        
108.09         2959           2283           229.00         998.29         
108.13         2960           2286           258.00         1124.72        
108.17         2960           2290           277.00         1207.55        
108.21         2960           2293           240.00         1046.25        
108.25         2960           2297           263.00         1146.52        
108.29         2961           2300           282.00         1229.35        
108.33         2961           2304           310.00         1351.42        
108.37         2961           2307           470.00         2048.97        
108.41         2961           2311           1025.00        4468.90        
108.45         2962           2314           1886.00        8223.88        
108.49         2962           2318           3364.00        14672.09       
108.53         2962           2322           5036.00        21970.29       
108.56         2962           2325           6581.00        28717.56       
108.60         2963           2329           8996.00        39270.82       
108.64         2963           2332           10744.00       46914.39       
108.68         2963           2336           13116.00       57293.29       
108.72         2963           2339           15187.00       66361.49       
108.76         2964           2343           18149.00       79341.38       
108.80         2964           2346           20419.00       89297.06       
108.84         2964           2350           22916.00       100256.58      
108.88         2964           2353           24759.00       108351.20      
108.92         2965           2357           27672.00       121155.00      
108.96         2965           2360           29849.00       130731.52      
109.00         2965           2364           33073.00       144925.91      
109.04         2965           2367           35206.00       154324.93      
109.08         2966           2371           37866.00       166055.10      
109.12         2966           2374           39792.00       174554.66      
109.15         2966           2378           42085.00       184680.62      
109.19         2966           2381           43678.00       191719.72      
109.23         2967           2385           45102.00       198015.08      
109.27         2967           2388           45846.00       201305.37      
109.31         2967           2392           46292.00       203278.15      
109.35         2967           2395           46399.00       203751.48      
109.39         2968           2399           46204.00       202888.88      
109.43         2968           2402           45846.00       201305.37      
109.47         2968           2406           44785.00       196613.41      
109.51         2968           2409           43764.00       192099.84      
109.55         2969           2413           41791.00       183381.89      
109.59         2969           2416           40033.00       175618.58      
109.63         2969           2420           37043.00       162424.74      
109.67         2969           2423           35115.00       153923.81      
109.71         2970           2427           32580.00       142754.42      
109.74         2970           2430           30521.00       133688.95      
109.78         2970           2434           27864.00       121999.33      
109.82         2970           2438           25406.00       111194.00      
109.86         2971           2441           22996.00       100607.85      
109.90         2971           2445           20174.00       88222.21       
109.94         2971           2448           18292.00       79968.33       
109.98         2971           2452           15605.00       68192.49       
110.02         2972           2455           13501.00       58978.62       
110.06         2972           2459           10926.00       47710.47       
110.10         2972           2462           9013.00        39345.14       
110.14         2972           2466           6464.00        28206.48       
110.18         2973           2469           4513.00        19687.01       
110.22         2973           2473           2623.00        11438.89       
110.26         2973           2476           1799.00        7844.41        
110.30         2973           2480           1005.00        4381.69        
110.33         2974           2483           686.00         2990.73        
110.37         2974           2487           407.00         1774.31        
110.41         2974           2490           307.00         1338.34        
110.45         2974           2494           272.00         1185.75        
110.49         2975           2497           260.00         1133.44        
110.53         2975           2501           274.00         1194.47        
110.57         2975           2504           267.00         1163.95        
110.61         2975           2508           225.00         980.85         
110.65         2976           2511           239.00         1041.89        
110.69         2976           2515           314.00         1368.86        
110.73         2976           2519           238.00         1037.53        
110.77         2976           2522           216.00         941.62         
110.81         2977           2526           215.00         937.26         
110.85         2977           2529           218.00         950.34         
110.88         2977           2533           219.00         954.70         
110.92         2977           2536           203.00         884.95         
110.96         2978           2540           244.00         1063.69        
111.00         2978           2543           219.00         954.70         
111.04         2978           2547           197.00         858.79         
111.08         2978           2550           227.00         989.57         
111.12         2979           2554           197.00         858.79         
111.16         2979           2557           196.00         854.43         
111.20         2979           2561           202.00         880.59         
111.24         2979           2564           199.00         867.51         
111.28         2980           2568           185.00         806.48         
111.32         2980           2571           184.00         802.12         
111.36         2980           2575           193.00         841.35         
111.40         2980           2578           202.00         880.59         
111.44         2981           2582           182.00         793.40         
111.47         2981           2586           196.00         854.43         
111.51         2981           2589           187.00         815.19         
111.55         2981           2593           188.00         819.55         
111.59         2982           2596           190.00         828.27         
111.63         2982           2600           184.00         802.12         
111.67         2982           2603           186.00         810.83         
111.71         2982           2607           184.00         802.12         
111.75         2983           2610           190.00         828.27         
111.79         2983           2614           176.00         767.24         
111.83         2983           2617           181.00         789.04         
111.87         2983           2621           184.00         802.12         
111.91         2984           2624           174.00         758.52         
111.95         2984           2628           182.00         793.40         
111.99         2984           2631           186.00         810.83         
HS scan finished at 01:51:59
end
************************************************************
HS Scan of 
************************************************************
Integration time is 0.2294 seconds per sample
dh20619El Arenosillo 37.1  6.73  3.14pr1000
************************************************************
Dead Time -------------------------  3.6E-8
Number of Cycles Used -------------  4
Starting Wavelength (Angstroms) ---  2950
Final Wavelength (Angstoms) -------  2984
Wavelength Increment (Angstroms) --  0.25
Filter Wheel #1 Position ---------- (1) Ground quartz diffuser (ND = 2.32)
Filter Wheel #2 Position ---------- (1) Neutral density 0.494
 
 
 
************************************************************
HS scan start time = 21:33:39
Dark Count =  1.55
 
 
Time (GMT)  Wavelength (Ang)  Step Number  Raw Counts  Counts/Second
 
1288.30        2950           2153           175.00         762.88         
1288.34        2950           2157           177.00         771.60         
1288.38        2951           2160           169.00         736.72         
1288.42        2951           2164           184.00         802.12         
1288.46        2951           2167           187.00         815.19         
1288.50        2951           2171           183.00         797.76         
1288.54        2952           2174           184.00         802.12         
1288.58        2952           2178           176.00         767.24         
1288.62        2952           2181           182.00         793.40         
1288.66        2952           2185           194.00         845.71         
1288.70        2953           2188           177.00         771.60         
1288.74        2953           2192           183.00         797.76         
1288.78        2953           2195           195.00         850.07         
1288.81        2953           2199           193.00         841.35         
1288.85        2954           2202           200.00         871.87         
1288.89        2954           2206           199.00         867.51         
1288.93        2954           2209           209.00         911.10         
1288.97        2954           2213           192.00         836.99         
1289.01        2955           2216           201.00         876.23         
1289.05        2955           2220           199.00         867.51         
1289.09        2955           2223           188.00         819.55         
1289.13        2955           2227           210.00         915.46         
1289.17        2956           2230           185.00         806.48         
1289.21        2956           2234           213.00         928.54         
1289.25        2956           2237           193.00         841.35         
1289.29        2956           2241           213.00         928.54         
1289.33        2957           2244           194.00         845.71         
1289.37        2957           2248           205.00         893.66         
1289.40        2957           2251           209.00         911.10         
1289.44        2957           2255           227.00         989.57         
1289.48        2958           2258           211.00         919.82         
1289.52        2958           2262           220.00         959.06         
1289.56        2958           2265           225.00         980.85         
1289.60        2958           2269           228.00         993.93         
1289.64        2959           2272           219.00         954.70         
1289.68        2959           2276           228.00         993.93         
1289.72        2959           2279           282.00         1229.35        
1289.76        2959           2283           232.00         1011.37        
1289.80        2960           2286           279.00         1216.27        
1289.84        2960           2290           248.00         1081.12        
1289.88        2960           2293           253.00         1102.92        
1289.92        2960           2297           294.00         1281.66        
1289.95        2961           2300           267.00         1163.95        
1289.99        2961           2304           325.00         1416.81        
1290.03        2961           2307           525.00         2288.77        
1290.07        2961           2311           1100.00        4795.95        
1290.11        2962           2314           1721.00        7504.21        
1290.15        2962           2318           2899.00        12643.07       
1290.19        2962           2322           4912.00        21428.90       
1290.23        2962           2325           6638.00        28966.55       
1290.27        2963           2329           9050.00        39506.89       
1290.31        2963           2332           10649.00       46498.87       
1290.35        2963           2336           13703.00       59862.96       
1290.39        2963           2339           15709.00       68648.08       
1290.43        2964           2343           18384.00       80371.70       
1290.47        2964           2346           20285.00       88709.17       
1290.51        2964           2350           22955.00       100427.82      
1290.55        2964           2353           25089.00       109801.09      
1290.58        2965           2357           28012.00       122650.21      
1290.62        2965           2360           30198.00       132267.37      
1290.66        2965           2364           33043.00       144793.76      
1290.70        2965           2367           34936.00       153134.83      
1290.74        2966           2371           37618.00       164961.04      
1290.78        2966           2374           39385.00       172758.11      
1290.82        2966           2378           41527.00       182215.79      
1290.86        2966           2381           43016.00       188794.06      
1290.90        2967           2385           44513.00       195410.83      
1290.94        2967           2388           45232.00       198589.94      
1290.98        2967           2392           45505.00       199797.23      
1291.02        2967           2395           45760.00       200925.00      
1291.06        2968           2399           45388.00       199279.81      
1291.10        2968           2402           45313.00       198948.14      
1291.13        2968           2406           44451.00       195136.72      
1291.17        2968           2409           43435.00       190645.73      
1291.21        2969           2413           41734.00       183130.11      
1291.25        2969           2416           39496.00       173248.05      
1291.29        2969           2420           36730.00       161044.31      
1291.33        2969           2423           34827.00       152654.41      
1291.37        2970           2427           32552.00       142631.10      
1291.41        2970           2430           30560.00       133860.61      
1291.45        2970           2434           27994.00       122571.05      
1291.49        2970           2438           24955.00       109212.32      
1291.53        2971           2441           22832.00       99887.75       
1291.57        2971           2445           20263.00       88612.66       
1291.61        2971           2448           18434.00       80590.93       
1291.65        2971           2452           15755.00       68849.60       
1291.69        2972           2455           13533.00       59118.71       
1291.72        2972           2459           11084.00       48401.61       
1291.76        2972           2462           9075.00        39616.18       
1291.80        2972           2466           6372.00        27804.63       
1291.84        2973           2469           4831.00        21075.27       
1291.88        2973           2473           3313.00        14449.54       
1291.92        2973           2476           2266.00        9881.46        
1291.96        2973           2480           1256.00        5476.23        
1292.00        2974           2483           735.00         3204.38        
1292.04        2974           2487           448.00         1953.06        
1292.08        2974           2490           324.00         1412.45        
1292.12        2974           2494           269.00         1172.67        
1292.16        2975           2497           259.00         1129.08        
1292.20        2975           2501           269.00         1172.67        
