************************************************************
HS Scan of 
************************************************************
Integration time is 0.2294 seconds per sample
dh22619El Arenosillo 37.1  6.73  3.31pr1000
************************************************************
Dead Time -------------------------  3.6E-8
Number of Cycles Used -------------  4
Starting Wavelength (Angstroms) ---  2950
Final Wavelength (Angstoms) -------  2984
Wavelength Increment (Angstroms) --  0.25
Filter Wheel #1 Position ---------- (1) Ground quartz diffuser (ND = 2.32)
Filter Wheel #2 Position ---------- (1) Neutral density 0.494
 
 
 
************************************************************
HS scan start time = 01:53:06
Dark Count =  2.7
 
 
Time (GMT)  Wavelength (Ang)  Step Number  Raw Counts  Counts/Second
 
107.75         2950           2153           180.00         784.68         
107.79         2950           2157           170.00         741.08         
107.83         2951           2160           165.00         719.29         
107.87         2951           2164           183.00         797.76         
107.91         2951           2167           179.00         780.32         
107.95         2951           2171           179.00         780.32         
107.99         2952           2174           181.00         789.04         
108.03         2952           2178           176.00         767.24         
108.07         2952           2181           177.00         771.60         
108.11         2952           2185           178.00         775.96         
108.15         2953           2188           189.00         823.91         
108.18         2953           2192           179.00         780.32         
108.22         2953           2195           196.00         854.43         
108.26         2953           2199           184.00         802.12         
108.30         2954           2202           176.00         767.24         
108.34         2954           2206           183.00         797.76         
108.38         2954           2209           184.00         802.12         
108.42         2954           2213           190.00         828.27         
108.46         2955           2216           194.00         845.71         
108.50         2955           2220           193.00         841.35         
108.54         2955           2223           188.00         819.55         
108.58         2955           2227           265.00         1155.24        
108.62         2956           2230           193.00         841.35         
108.66         2956           2234           188.00         819.55         
108.70         2956           2237           197.00         858.79         
108.74         2956           2241           194.00         845.71         
108.77         2957           2244           199.00         867.51         
108.81         2957           2248           224.00         976.49         
108.85         2957           2251           208.00         906.74         
108.89         2957           2255           204.00         889.30         
108.93         2958           2258           208.00         906.74         
108.97         2958           2262           208.00         906.74         
109.01         2958           2265           256.00         1116.00        
109.05         2958           2269           218.00         950.34         
109.09         2959           2272           221.00         963.42         
109.13         2959           2276           222.00         967.78         
109.17         2959           2279           219.00         954.70         
109.21         2959           2283           244.00         1063.69        
109.25         2960           2286           235.00         1024.45        
109.29         2960           2290           251.00         1094.20        
109.33         2960           2293           246.00         1072.40        
109.36         2960           2297           280.00         1220.63        
109.40         2961           2300           292.00         1272.94        
109.44         2961           2304           330.00         1438.61        
109.48         2961           2307           489.00         2131.81        
109.52         2961           2311           933.00         4067.73        
109.56         2962           2314           1524.00        6645.01        
109.60         2962           2318           2975.00        12974.67       
109.65         2962           2322           4883.00        21302.29       
109.68         2962           2325           6327.00        27608.07       
109.72         2963           2329           8711.00        38024.99       
109.76         2963           2332           10745.00       46918.76       
109.80         2963           2336           13629.00       59538.99       
109.84         2963           2339           15662.00       68442.19       
109.88         2964           2343           18223.00       79665.82       
109.91         2964           2346           20140.00       88073.05       
109.95         2964           2350           23125.00       101174.29      
109.99         2964           2353           25437.00       111330.22      
110.03         2965           2357           28251.00       123701.35      
110.07         2965           2360           30307.00       132747.08      
110.11         2965           2364           32781.00       143639.71      
110.15         2965           2367           34725.00       152204.85      
110.19         2966           2371           37559.00       164700.77      
110.23         2966           2374           39399.00       172819.90      
110.27         2966           2378           41517.00       182171.62      
110.31         2966           2381           42967.00       188577.53      
110.35         2967           2385           44259.00       194287.92      
110.39         2967           2388           45000.00       197564.06      
110.43         2967           2392           45156.00       198253.87      
110.47         2967           2395           45157.00       198258.29      
110.50         2968           2399           44829.00       196807.96      
110.54         2968           2402           44357.00       194721.16      
110.58         2968           2406           43206.00       189633.69      
110.62         2968           2409           41743.00       183169.87      
110.66         2969           2413           39407.00       172855.21      
110.70         2969           2416           37517.00       164515.50      
110.74         2969           2420           35069.00       153721.05      
110.78         2969           2423           33016.00       144674.83      
110.82         2970           2427           30599.00       134032.27      
110.86         2970           2430           28420.00       124444.67      
110.90         2970           2434           25556.00       111853.16      
110.94         2970           2438           22810.00       99791.16       
110.98         2971           2441           20907.00       91438.25       
111.02         2971           2445           18246.00       79766.65       
111.06         2971           2448           16366.00       71526.57       
111.09         2971           2452           13739.00       60020.57       
111.13         2972           2455           11759.00       51354.66       
111.17         2972           2459           9214.00        40223.85       
111.21         2972           2462           7266.00        31710.11       
111.25         2972           2466           5081.00        22166.77       
111.29         2973           2469           3635.00        15854.73       
111.33         2973           2473           2116.00        9227.13        
111.37         2973           2476           1303.00        5681.20        
111.41         2973           2480           793.00         3457.27        
111.45         2974           2483           484.00         2110.01        
111.49         2974           2487           336.00         1464.77        
111.53         2974           2490           298.00         1299.10        
111.57         2974           2494           247.00         1076.76        
111.61         2975           2497           254.00         1107.28        
111.65         2975           2501           246.00         1072.40        
111.69         2975           2504           224.00         976.49         
111.72         2975           2508           263.00         1146.52        
111.76         2976           2511           261.00         1137.80        
111.80         2976           2515           224.00         976.49         
111.84         2976           2519           248.00         1081.12        
111.88         2976           2522           223.00         972.14         
111.92         2977           2526           208.00         906.74         
111.96         2977           2529           214.00         932.90         
112.00         2977           2533           226.00         985.21         
112.05         2977           2536           208.00         906.74         
112.08         2978           2540           198.00         863.15         
112.12         2978           2543           194.00         845.71         
112.16         2978           2547           187.00         815.19         
112.20         2978           2550           216.00         941.62         
112.23         2979           2554           196.00         854.43         
112.27         2979           2557           189.00         823.91         
112.31         2979           2561           184.00         802.12         
112.35         2979           2564           196.00         854.43         
112.40         2980           2568           187.00         815.19         
112.43         2980           2571           197.00         858.79         
112.47         2980           2575           188.00         819.55         
112.51         2980           2578           184.00         802.12         
112.55         2981           2582           199.00         867.51         
112.59         2981           2586           177.00         771.60         
112.63         2981           2589           185.00         806.48         
112.67         2981           2593           190.00         828.27         
112.71         2982           2596           180.00         784.68         
112.75         2982           2600           188.00         819.55         
112.79         2982           2603           183.00         797.76         
112.82         2982           2607           181.00         789.04         
112.86         2983           2610           192.00         836.99         
112.90         2983           2614           191.00         832.63         
112.94         2983           2617           171.00         745.44         
112.98         2983           2621           179.00         780.32         
113.02         2984           2624           188.00         819.55         
113.06         2984           2628           185.00         806.48         
113.10         2984           2631           184.00         802.12         
HS scan finished at 01:53:06
end
************************************************************
HS Scan of 
************************************************************
Integration time is 0.2294 seconds per sample
dh22619El Arenosillo 37.1  6.73  3.1pr1000
************************************************************
Dead Time -------------------------  3.6E-8
Number of Cycles Used -------------  4
Starting Wavelength (Angstroms) ---  2950
Final Wavelength (Angstoms) -------  2984
Wavelength Increment (Angstroms) --  0.25
Filter Wheel #1 Position ---------- (1) Ground quartz diffuser (ND = 2.32)
Filter Wheel #2 Position ---------- (1) Neutral density 0.494
 
 
 
************************************************************
HS scan start time = 21:33:42
Dark Count =  1.65
 
 
Time (GMT)  Wavelength (Ang)  Step Number  Raw Counts  Counts/Second
 
1288.35        2950           2153           184.00         802.12         
1288.39        2950           2157           169.00         736.72         
1288.43        2951           2160           187.00         815.19         
1288.47        2951           2164           186.00         810.83         
1288.51        2951           2167           166.00         723.65         
1288.55        2951           2171           179.00         780.32         
1288.59        2952           2174           187.00         815.19         
1288.63        2952           2178           184.00         802.12         
1288.67        2952           2181           178.00         775.96         
1288.71        2952           2185           184.00         802.12         
1288.75        2953           2188           189.00         823.91         
1288.79        2953           2192           183.00         797.76         
1288.83        2953           2195           186.00         810.83         
1288.87        2953           2199           183.00         797.76         
1288.90        2954           2202           198.00         863.15         
1288.94        2954           2206           181.00         789.04         
1288.98        2954           2209           194.00         845.71         
1289.02        2954           2213           188.00         819.55         
1289.06        2955           2216           199.00         867.51         
1289.10        2955           2220           194.00         845.71         
1289.14        2955           2223           202.00         880.59         
1289.18        2955           2227           199.00         867.51         
1289.22        2956           2230           195.00         850.07         
1289.26        2956           2234           201.00         876.23         
1289.30        2956           2237           210.00         915.46         
1289.34        2956           2241           191.00         832.63         
1289.38        2957           2244           196.00         854.43         
1289.42        2957           2248           196.00         854.43         
1289.46        2957           2251           215.00         937.26         
1289.49        2957           2255           215.00         937.26         
1289.53        2958           2258           212.00         924.18         
1289.57        2958           2262           212.00         924.18         
1289.61        2958           2265           218.00         950.34         
1289.65        2958           2269           273.00         1190.11        
1289.69        2959           2272           223.00         972.14         
1289.73        2959           2276           252.00         1098.56        
1289.77        2959           2279           223.00         972.14         
1289.81        2959           2283           253.00         1102.92        
1289.85        2960           2286           238.00         1037.53        
1289.89        2960           2290           233.00         1015.73        
1289.93        2960           2293           244.00         1063.69        
1289.97        2960           2297           267.00         1163.95        
1290.01        2961           2300           250.00         1089.84        
1290.05        2961           2304           279.00         1216.27        
1290.08        2961           2307           394.00         1717.63        
1290.12        2961           2311           672.00         2929.69        
1290.16        2962           2314           1151.00        5018.34        
1290.20        2962           2318           2263.00        9868.37        
1290.24        2962           2322           4045.00        17644.16       
1290.28        2962           2325           6064.00        26459.37       
1290.32        2963           2329           8688.00        37924.45       
1290.36        2963           2332           10593.00       46253.94       
1290.40        2963           2336           13124.00       57328.31       
1290.44        2963           2339           15032.00       65682.59       
1290.48        2964           2343           17850.00       78030.57       
1290.52        2964           2346           19935.00       87173.75       
1290.56        2964           2350           22764.00       99589.19       
1290.60        2964           2353           24778.00       108434.67      
1290.64        2965           2357           27346.00       119721.51      
1290.67        2965           2360           29516.00       129266.24      
1290.71        2965           2364           32065.00       140486.40      
1290.75        2965           2367           34077.00       149349.22      
1290.79        2966           2371           37001.00       162239.50      
1290.83        2966           2374           38768.00       170035.03      
1290.87        2966           2378           41390.00       181610.70      
1290.91        2966           2381           42846.00       188042.86      
1290.95        2967           2385           44211.00       194075.73      
1290.99        2967           2388           44651.00       196020.95      
1291.03        2967           2392           45682.00       200580.03      
1291.07        2967           2395           45599.00       200212.95      
1291.11        2968           2399           45717.00       200734.82      
1291.15        2968           2402           45352.00       199120.60      
1291.19        2968           2406           44302.00       194478.01      
1291.22        2968           2409           43116.00       189235.96      
1291.26        2969           2413           41038.00       180056.12      
1291.30        2969           2416           39445.00       173022.94      
1291.34        2969           2420           36740.00       161088.41      
1291.38        2969           2423           34542.00       151398.34      
1291.42        2970           2427           31695.00       138857.17      
1291.46        2970           2430           29808.00       130551.10      
1291.50        2970           2434           27319.00       119602.79      
1291.54        2970           2438           24553.00       107446.19      
1291.59        2971           2441           22649.00       99084.28       
1291.62        2971           2445           20221.00       88428.40       
1291.66        2971           2448           18148.00       79337.00       
1291.70        2971           2452           15425.00       67403.99       
1291.74        2972           2455           13588.00       59359.49       
1291.78        2972           2459           11461.00       50050.87       
1291.81        2972           2462           9608.00        41946.47       
1291.85        2972           2466           7187.00        31364.95       
1291.89        2973           2469           5465.00        23843.47       
1291.93        2973           2473           3483.00        15191.39       
1291.97        2973           2476           2235.00        9746.23        
1292.01        2973           2480           1111.00        4843.91        
1292.05        2974           2483           685.00         2986.37        
1292.09        2974           2487           420.00         1830.98        
1292.13        2974           2490           324.00         1412.45        
1292.17        2974           2494           275.00         1198.83        
1292.21        2975           2497           250.00         1089.84        
1292.25        2975           2501           249.00         1085.48        
