************************************************************
HS Scan of 
************************************************************
Integration time is 0.2294 seconds per sample
dh24619El Arenosillo 37.1  6.73  3.22pr1000
************************************************************
Dead Time -------------------------  3.6E-8
Number of Cycles Used -------------  4
Starting Wavelength (Angstroms) ---  2950
Final Wavelength (Angstoms) -------  2984
Wavelength Increment (Angstroms) --  0.25
Filter Wheel #1 Position ---------- (1) Ground quartz diffuser (ND = 2.32)
Filter Wheel #2 Position ---------- (1) Neutral density 0.494
 
 
 
************************************************************
HS scan start time = 01:50:00
Dark Count =  2.15
 
 
Time (GMT)  Wavelength (Ang)  Step Number  Raw Counts  Counts/Second
 
105.86         2950           2153           174.00         758.52         
105.89         2950           2157           179.00         780.32         
105.92         2951           2160           176.00         767.24         
105.95         2951           2164           178.00         775.96         
105.98         2951           2167           163.00         710.57         
106.01         2951           2171           183.00         797.76         
106.04         2952           2174           188.00         819.55         
106.07         2952           2178           245.00         1068.04        
106.10         2952           2181           171.00         745.44         
106.13         2952           2185           183.00         797.76         
106.16         2953           2188           181.00         789.04         
106.19         2953           2192           186.00         810.83         
106.22         2953           2195           192.00         836.99         
106.25         2953           2199           183.00         797.76         
106.28         2954           2202           187.00         815.19         
106.31         2954           2206           183.00         797.76         
106.34         2954           2209           187.00         815.19         
106.38         2954           2213           195.00         850.07         
106.41         2955           2216           186.00         810.83         
106.44         2955           2220           182.00         793.40         
106.47         2955           2223           194.00         845.71         
106.50         2955           2227           197.00         858.79         
106.53         2956           2230           201.00         876.23         
106.56         2956           2234           205.00         893.66         
106.59         2956           2237           197.00         858.79         
106.62         2956           2241           207.00         902.38         
106.65         2957           2244           201.00         876.23         
106.68         2957           2248           201.00         876.23         
106.71         2957           2251           200.00         871.87         
106.74         2957           2255           202.00         880.59         
106.77         2958           2258           215.00         937.26         
106.80         2958           2262           214.00         932.90         
106.83         2958           2265           201.00         876.23         
106.86         2958           2269           215.00         937.26         
106.90         2959           2272           219.00         954.70         
106.93         2959           2276           222.00         967.78         
106.96         2959           2279           240.00         1046.25        
106.99         2959           2283           265.00         1155.24        
107.02         2960           2286           232.00         1011.37        
107.05         2960           2290           239.00         1041.89        
107.08         2960           2293           235.00         1024.45        
107.11         2960           2297           271.00         1181.39        
107.14         2961           2300           252.00         1098.56        
107.17         2961           2304           284.00         1238.07        
107.20         2961           2307           402.00         1752.51        
107.23         2961           2311           808.00         3522.68        
107.26         2962           2314           1518.00        6618.84        
107.29         2962           2318           2947.00        12852.50       
107.32         2962           2322           4606.00        20092.99       
107.35         2962           2325           5919.00        25826.09       
107.38         2963           2329           8163.00        35629.80       
107.42         2963           2332           10090.00       44054.12       
107.45         2963           2336           12519.00       54680.33       
107.48         2963           2339           14135.00       61754.40       
107.51         2964           2343           17076.00       74637.94       
107.54         2964           2346           19243.00       84138.51       
107.57         2964           2350           22128.00       96797.05       
107.60         2964           2353           24025.00       105126.84      
107.63         2965           2357           26664.00       116723.10      
107.66         2965           2360           28765.00       125962.23      
107.69         2965           2364           31619.00       138522.54      
107.72         2965           2367           34020.00       149098.06      
107.75         2966           2371           37313.00       163615.64      
107.78         2966           2374           39149.00       171716.48      
107.81         2966           2378           41322.00       181310.37      
107.84         2966           2381           42646.00       187159.14      
107.87         2967           2385           44304.00       194486.85      
107.90         2967           2388           45170.00       198315.78      
107.94         2967           2392           45381.00       199248.85      
107.97         2967           2395           45466.00       199624.75      
108.00         2968           2399           45453.00       199567.26      
108.03         2968           2402           45136.00       198165.43      
108.06         2968           2406           44323.00       194570.85      
108.09         2968           2409           43739.00       191989.34      
108.12         2969           2413           41611.00       182586.81      
108.15         2969           2416           40461.00       177508.22      
108.18         2969           2420           37765.00       165609.53      
108.21         2969           2423           35594.00       156035.33      
108.24         2970           2427           32984.00       144533.87      
108.27         2970           2430           31052.00       136026.30      
108.30         2970           2434           28653.00       125469.55      
108.33         2970           2438           26003.00       113817.63      
108.36         2971           2441           23904.00       104595.37      
108.39         2971           2445           21065.00       92131.57       
108.42         2971           2448           18782.00       82116.85       
108.46         2971           2452           16390.00       71631.74       
108.49         2972           2455           14343.00       62665.19       
108.52         2972           2459           11813.00       51590.93       
108.55         2972           2462           9739.00        42519.26       
108.58         2972           2466           7137.00        31146.50       
108.61         2973           2469           5148.00        22459.30       
108.64         2973           2473           2941.00        12826.32       
108.67         2973           2476           1942.00        8468.14        
108.70         2973           2480           1137.00        4957.29        
108.73         2974           2483           818.00         3566.28        
108.76         2974           2487           481.00         2096.93        
108.79         2974           2490           355.00         1547.60        
108.82         2974           2494           283.00         1233.71        
108.85         2975           2497           273.00         1190.11        
108.88         2975           2501           269.00         1172.67        
108.91         2975           2504           243.00         1059.33        
108.94         2975           2508           242.00         1054.97        
108.98         2976           2511           236.00         1028.81        
109.01         2976           2515           233.00         1015.73        
109.04         2976           2519           220.00         959.06         
109.07         2976           2522           224.00         976.49         
109.10         2977           2526           217.00         945.98         
109.13         2977           2529           221.00         963.42         
109.16         2977           2533           218.00         950.34         
109.19         2977           2536           206.00         898.02         
109.22         2978           2540           202.00         880.59         
109.25         2978           2543           193.00         841.35         
109.28         2978           2547           212.00         924.18         
109.31         2978           2550           209.00         911.10         
109.34         2979           2554           201.00         876.23         
109.37         2979           2557           198.00         863.15         
109.40         2979           2561           194.00         845.71         
109.43         2979           2564           194.00         845.71         
109.46         2980           2568           200.00         871.87         
109.50         2980           2571           202.00         880.59         
109.53         2980           2575           184.00         802.12         
109.56         2980           2578           180.00         784.68         
109.59         2981           2582           185.00         806.48         
109.62         2981           2586           188.00         819.55         
109.65         2981           2589           178.00         775.96         
109.68         2981           2593           186.00         810.83         
109.71         2982           2596           189.00         823.91         
109.74         2982           2600           178.00         775.96         
109.77         2982           2603           176.00         767.24         
109.80         2982           2607           186.00         810.83         
109.83         2983           2610           185.00         806.48         
109.86         2983           2614           175.00         762.88         
109.89         2983           2617           188.00         819.55         
109.92         2983           2621           178.00         775.96         
109.95         2984           2624           176.00         767.24         
109.98         2984           2628           181.00         789.04         
110.01         2984           2631           183.00         797.76         
HS scan finished at 01:50:00
end
************************************************************
HS Scan of 
************************************************************
Integration time is 0.2294 seconds per sample
dh24619El Arenosillo 37.1  6.73  3.18pr1000
************************************************************
Dead Time -------------------------  3.6E-8
Number of Cycles Used -------------  4
Starting Wavelength (Angstroms) ---  2950
Final Wavelength (Angstoms) -------  2984
Wavelength Increment (Angstroms) --  0.25
Filter Wheel #1 Position ---------- (1) Ground quartz diffuser (ND = 2.32)
Filter Wheel #2 Position ---------- (1) Neutral density 0.494
 
 
 
************************************************************
HS scan start time = 21:30:27
Dark Count =  2.35
 
 
Time (GMT)  Wavelength (Ang)  Step Number  Raw Counts  Counts/Second
 
1286.30        2950           2153           245.00         1068.04        
1286.33        2950           2157           177.00         771.60         
1286.36        2951           2160           172.00         749.80         
1286.39        2951           2164           182.00         793.40         
1286.42        2951           2167           170.00         741.08         
1286.45        2951           2171           187.00         815.19         
1286.48        2952           2174           182.00         793.40         
1286.51        2952           2178           178.00         775.96         
1286.54        2952           2181           171.00         745.44         
1286.57        2952           2185           182.00         793.40         
1286.60        2953           2188           177.00         771.60         
1286.63        2953           2192           186.00         810.83         
1286.66        2953           2195           188.00         819.55         
1286.69        2953           2199           192.00         836.99         
1286.72        2954           2202           181.00         789.04         
1286.75        2954           2206           199.00         867.51         
1286.79        2954           2209           177.00         771.60         
1286.82        2954           2213           189.00         823.91         
1286.85        2955           2216           197.00         858.79         
1286.88        2955           2220           177.00         771.60         
1286.91        2955           2223           187.00         815.19         
1286.94        2955           2227           186.00         810.83         
1286.97        2956           2230           199.00         867.51         
1287.00        2956           2234           204.00         889.30         
1287.03        2956           2237           185.00         806.48         
1287.06        2956           2241           199.00         867.51         
1287.09        2957           2244           192.00         836.99         
1287.12        2957           2248           222.00         967.78         
1287.15        2957           2251           212.00         924.18         
1287.18        2957           2255           259.00         1129.08        
1287.21        2958           2258           190.00         828.27         
1287.24        2958           2262           235.00         1024.45        
1287.27        2958           2265           216.00         941.62         
1287.31        2958           2269           217.00         945.98         
1287.34        2959           2272           230.00         1002.65        
1287.37        2959           2276           238.00         1037.53        
1287.40        2959           2279           225.00         980.85         
1287.43        2959           2283           241.00         1050.61        
1287.46        2960           2286           240.00         1046.25        
1287.49        2960           2290           259.00         1129.08        
1287.52        2960           2293           283.00         1233.71        
1287.55        2960           2297           274.00         1194.47        
1287.58        2961           2300           242.00         1054.97        
1287.61        2961           2304           274.00         1194.47        
1287.64        2961           2307           391.00         1704.55        
1287.67        2961           2311           666.00         2903.53        
1287.70        2962           2314           1056.00        4604.08        
1287.73        2962           2318           2069.00        9022.11        
1287.76        2962           2322           3629.00        15828.55       
1287.79        2962           2325           5221.00        22778.04       
1287.83        2963           2329           7515.00        32798.08       
1287.86        2963           2332           9782.00        42707.28       
1287.89        2963           2336           12493.00       54566.54       
1287.92        2963           2339           14134.00       61750.02       
1287.95        2964           2343           16742.00       73174.20       
1287.98        2964           2346           18726.00       81871.29       
1288.01        2964           2350           21507.00       94071.31       
1288.04        2964           2353           23665.00       103545.68      
1288.07        2965           2357           26427.00       115681.28      
1288.10        2965           2360           28603.00       125249.62      
1288.13        2965           2364           31303.00       137131.28      
1288.16        2965           2367           33079.00       144952.34      
1288.19        2966           2371           35780.00       156855.33      
1288.22        2966           2374           37734.00       165472.77      
1288.25        2966           2378           40056.00       175720.11      
1288.28        2966           2381           41626.00       182653.07      
1288.31        2967           2385           43500.00       190933.00      
1288.35        2967           2388           44146.00       193788.39      
1288.38        2967           2392           44654.00       196034.21      
1288.41        2967           2395           44565.00       195640.72      
1288.44        2968           2399           44837.00       196843.33      
1288.47        2968           2402           44817.00       196754.90      
1288.50        2968           2406           44312.00       194522.22      
1288.53        2968           2409           43315.00       190115.39      
1288.56        2969           2413           41648.00       182750.24      
1288.59        2969           2416           39698.00       174139.71      
1288.62        2969           2420           37530.00       164572.85      
1288.65        2969           2423           35744.00       156696.62      
1288.68        2970           2427           33137.00       145207.83      
1288.71        2970           2430           31200.00       136677.83      
1288.74        2970           2434           28317.00       123991.64      
1288.77        2970           2438           25555.00       111848.76      
1288.80        2971           2441           23909.00       104617.33      
1288.83        2971           2445           21279.00       93070.69       
1288.87        2971           2448           19496.00       85248.14       
1288.90        2971           2452           16866.00       73717.61       
1288.93        2972           2455           14897.00       65091.32       
1288.96        2972           2459           11951.00       52194.76       
1288.99        2972           2462           9999.00        43656.18       
1289.02        2972           2466           7617.00        33243.77       
1289.05        2973           2469           6220.00        27140.72       
1289.08        2973           2473           4374.00        19080.23       
1289.11        2973           2476           3003.00        13096.84       
1289.14        2973           2480           1554.00        6775.85        
1289.17        2974           2483           1038.00        4525.58        
1289.20        2974           2487           564.00         2458.81        
1289.23        2974           2490           380.00         1656.59        
1289.26        2974           2494           315.00         1373.22        
1289.29        2975           2497           259.00         1129.08        
1289.32        2975           2501           233.00         1015.73        
