************************************************************
HS Scan of 
************************************************************
Integration time is 0.2294 seconds per sample
dh21619El Arenosillo 37.1  6.73  3.16pr1000
************************************************************
Dead Time -------------------------  3.6E-8
Number of Cycles Used -------------  4
Starting Wavelength (Angstroms) ---  2950
Final Wavelength (Angstoms) -------  2984
Wavelength Increment (Angstroms) --  0.25
Filter Wheel #1 Position ---------- (1) Ground quartz diffuser (ND = 2.32)
Filter Wheel #2 Position ---------- (1) Neutral density 0.494
 
 
 
************************************************************
HS scan start time = 01:05:14
Dark Count =  1.75
 
 
Time (GMT)  Wavelength (Ang)  Step Number  Raw Counts  Counts/Second
 
59.89          2950           2153           170.00         741.08         
59.93          2950           2157           154.00         671.33         
59.97          2951           2160           164.00         714.93         
60.01          2951           2164           153.00         666.97         
60.05          2951           2167           178.00         775.96         
60.09          2951           2171           162.00         706.21         
60.13          2952           2174           162.00         706.21         
60.17          2952           2178           168.00         732.36         
60.22          2952           2181           170.00         741.08         
60.25          2952           2185           176.00         767.24         
60.29          2953           2188           179.00         780.32         
60.33          2953           2192           168.00         732.36         
60.37          2953           2195           174.00         758.52         
60.41          2953           2199           174.00         758.52         
60.44          2954           2202           184.00         802.12         
60.48          2954           2206           171.00         745.44         
60.52          2954           2209           189.00         823.91         
60.56          2954           2213           235.00         1024.45        
60.60          2955           2216           186.00         810.83         
60.64          2955           2220           181.00         789.04         
60.68          2955           2223           191.00         832.63         
60.72          2955           2227           192.00         836.99         
60.76          2956           2230           193.00         841.35         
60.80          2956           2234           207.00         902.38         
60.84          2956           2237           197.00         858.79         
60.88          2956           2241           180.00         784.68         
60.92          2957           2244           212.00         924.18         
60.96          2957           2248           201.00         876.23         
61.00          2957           2251           199.00         867.51         
61.03          2957           2255           219.00         954.70         
61.07          2958           2258           204.00         889.30         
61.11          2958           2262           209.00         911.10         
61.15          2958           2265           209.00         911.10         
61.19          2958           2269           207.00         902.38         
61.23          2959           2272           251.00         1094.20        
61.27          2959           2276           222.00         967.78         
61.31          2959           2279           254.00         1107.28        
61.35          2959           2283           256.00         1116.00        
61.39          2960           2286           239.00         1041.89        
61.43          2960           2290           241.00         1050.61        
61.47          2960           2293           265.00         1155.24        
61.51          2960           2297           250.00         1089.84        
61.55          2961           2300           281.00         1224.99        
61.59          2961           2304           303.00         1320.90        
61.62          2961           2307           432.00         1883.30        
61.66          2961           2311           813.00         3544.48        
61.70          2962           2314           1289.00        5620.14        
61.74          2962           2318           2344.00        10221.72       
61.78          2962           2322           4211.00        18368.73       
61.82          2962           2325           5871.00        25616.46       
61.86          2963           2329           8078.00        35258.33       
61.90          2963           2332           10220.00       44622.63       
61.94          2963           2336           13226.00       57774.79       
61.98          2963           2339           15237.00       66580.49       
62.02          2964           2343           17818.00       77890.29       
62.06          2964           2346           19798.00       86572.79       
62.10          2964           2350           22527.00       98548.66       
62.14          2964           2353           24570.00       107520.87      
62.18          2965           2357           27771.00       121590.35      
62.21          2965           2360           30076.00       131730.46      
62.25          2965           2364           32923.00       144265.18      
62.29          2965           2367           34881.00       152892.41      
62.33          2966           2371           37580.00       164793.41      
62.37          2966           2374           39369.00       172687.49      
62.41          2966           2378           41867.00       183717.61      
62.45          2966           2381           43465.00       190778.32      
62.49          2967           2385           45182.00       198368.84      
62.53          2967           2388           46121.00       202521.74      
62.57          2967           2392           46549.00       204415.06      
62.61          2967           2395           46671.00       204954.79      
62.65          2968           2399           46545.00       204397.36      
62.69          2968           2402           46431.00       203893.04      
62.73          2968           2406           45841.00       201283.26      
62.76          2968           2409           44777.00       196578.04      
62.80          2969           2413           43248.00       189819.30      
62.84          2969           2416           41237.00       180934.96      
62.88          2969           2420           38484.00       168781.81      
62.92          2969           2423           36668.00       160770.88      
62.96          2970           2427           34123.00       149551.91      
63.00          2970           2430           31900.00       139759.83      
63.04          2970           2434           29224.00       127981.50      
63.08          2970           2438           26348.00       115334.02      
63.12          2971           2441           24215.00       105961.41      
63.16          2971           2445           21531.00       94176.64       
63.20          2971           2448           19614.00       85765.71       
63.24          2971           2452           17089.00       74694.92       
63.28          2972           2455           15095.00       65958.53       
63.32          2972           2459           12171.00       53157.43       
63.35          2972           2462           10057.00       43909.81       
63.39          2972           2466           7311.00        31906.72       
63.43          2973           2469           5595.00        24411.16       
63.47          2973           2473           3779.00        16483.19       
63.51          2973           2476           2694.00        11748.65       
63.55          2973           2480           1510.00        6583.95        
63.59          2974           2483           931.00         4059.01        
63.63          2974           2487           523.00         2280.05        
63.67          2974           2490           385.00         1678.39        
63.71          2974           2494           292.00         1272.94        
63.75          2975           2497           258.00         1124.72        
63.79          2975           2501           272.00         1185.75        
63.83          2975           2504           272.00         1185.75        
63.87          2975           2508           261.00         1137.80        
63.91          2976           2511           253.00         1102.92        
63.94          2976           2515           234.00         1020.09        
63.98          2976           2519           222.00         967.78         
64.02          2976           2522           237.00         1033.17        
64.06          2977           2526           212.00         924.18         
64.10          2977           2529           216.00         941.62         
64.14          2977           2533           210.00         915.46         
64.18          2977           2536           223.00         972.14         
64.22          2978           2540           211.00         919.82         
64.26          2978           2543           202.00         880.59         
64.30          2978           2547           204.00         889.30         
64.34          2978           2550           207.00         902.38         
64.38          2979           2554           200.00         871.87         
64.42          2979           2557           227.00         989.57         
64.46          2979           2561           201.00         876.23         
64.49          2979           2564           202.00         880.59         
64.53          2980           2568           202.00         880.59         
64.57          2980           2571           194.00         845.71         
64.61          2980           2575           186.00         810.83         
64.65          2980           2578           180.00         784.68         
64.69          2981           2582           198.00         863.15         
64.73          2981           2586           201.00         876.23         
64.77          2981           2589           184.00         802.12         
64.81          2981           2593           186.00         810.83         
64.85          2982           2596           183.00         797.76         
64.89          2982           2600           176.00         767.24         
64.93          2982           2603           188.00         819.55         
64.97          2982           2607           189.00         823.91         
65.01          2983           2610           199.00         867.51         
65.05          2983           2614           177.00         771.60         
65.08          2983           2617           172.00         749.80         
65.12          2983           2621           174.00         758.52         
65.16          2984           2624           186.00         810.83         
65.20          2984           2628           179.00         780.32         
65.24          2984           2631           182.00         793.40         
HS scan finished at 01:05:15
end
