************************************************************
HS Scan of 
************************************************************
Integration time is 0.2294 seconds per sample
dh27619El Arenosillo 37.1  6.73  3.25pr1000
************************************************************
Dead Time -------------------------  3.6E-8
Number of Cycles Used -------------  4
Starting Wavelength (Angstroms) ---  2950
Final Wavelength (Angstoms) -------  2984
Wavelength Increment (Angstroms) --  0.25
Filter Wheel #1 Position ---------- (1) Ground quartz diffuser (ND = 2.32)
Filter Wheel #2 Position ---------- (1) Neutral density 0.494
 
 
 
************************************************************
HS scan start time = 01:40:45
Dark Count =  2.15
 
 
Time (GMT)  Wavelength (Ang)  Step Number  Raw Counts  Counts/Second
 
96.60          2950           2153           164.00         714.93         
96.63          2950           2157           161.00         701.85         
96.66          2951           2160           168.00         732.36         
96.69          2951           2164           165.00         719.29         
96.72          2951           2167           179.00         780.32         
96.75          2951           2171           173.00         754.16         
96.78          2952           2174           184.00         802.12         
96.81          2952           2178           173.00         754.16         
96.84          2952           2181           182.00         793.40         
96.87          2952           2185           244.00         1063.69        
96.90          2953           2188           166.00         723.65         
96.93          2953           2192           173.00         754.16         
96.96          2953           2195           169.00         736.72         
96.99          2953           2199           181.00         789.04         
97.02          2954           2202           184.00         802.12         
97.05          2954           2206           182.00         793.40         
97.09          2954           2209           173.00         754.16         
97.12          2954           2213           188.00         819.55         
97.15          2955           2216           189.00         823.91         
97.18          2955           2220           176.00         767.24         
97.21          2955           2223           185.00         806.48         
97.24          2955           2227           180.00         784.68         
97.27          2956           2230           195.00         850.07         
97.30          2956           2234           201.00         876.23         
97.33          2956           2237           238.00         1037.53        
97.36          2956           2241           200.00         871.87         
97.39          2957           2244           200.00         871.87         
97.42          2957           2248           194.00         845.71         
97.45          2957           2251           203.00         884.95         
97.48          2957           2255           200.00         871.87         
97.51          2958           2258           211.00         919.82         
97.54          2958           2262           204.00         889.30         
97.57          2958           2265           214.00         932.90         
97.61          2958           2269           202.00         880.59         
97.64          2959           2272           224.00         976.49         
97.67          2959           2276           213.00         928.54         
97.70          2959           2279           228.00         993.93         
97.73          2959           2283           276.00         1203.19        
97.76          2960           2286           277.00         1207.55        
97.79          2960           2290           253.00         1102.92        
97.82          2960           2293           257.00         1120.36        
97.85          2960           2297           332.00         1447.33        
97.88          2961           2300           289.00         1259.87        
97.91          2961           2304           292.00         1272.94        
97.94          2961           2307           421.00         1835.34        
97.97          2961           2311           855.00         3727.61        
98.00          2962           2314           1395.00        6082.41        
98.03          2962           2318           2405.00        10487.83       
98.06          2962           2322           4218.00        18399.28       
98.09          2962           2325           5753.00        25101.14       
98.12          2963           2329           8070.00        35223.36       
98.16          2963           2332           9797.00        42772.87       
98.19          2963           2336           12857.00       56159.63       
98.22          2963           2339           14749.00       64443.14       
98.25          2964           2343           17171.00       75054.31       
98.28          2964           2346           18950.00       82853.56       
98.31          2964           2350           21674.00       94804.27       
98.34          2964           2353           23692.00       103664.26      
98.37          2965           2357           26621.00       116534.07      
98.40          2965           2360           28781.00       126032.61      
98.43          2965           2364           31487.00       137941.37      
98.46          2965           2367           33685.00       147622.02      
98.49          2966           2371           36115.00       158332.35      
98.52          2966           2374           37855.00       166006.57      
98.55          2966           2378           40446.00       177441.99      
98.58          2966           2381           41827.00       183540.91      
98.61          2967           2385           43282.00       189969.55      
98.64          2967           2388           43696.00       191799.28      
98.68          2967           2392           44214.00       194088.99      
98.71          2967           2395           44224.00       194133.20      
98.74          2968           2399           44214.00       194088.99      
98.77          2968           2402           44134.00       193735.34      
98.80          2968           2406           43328.00       190172.85      
98.83          2968           2409           42613.00       187013.34      
98.86          2969           2413           40736.00       178722.50      
98.89          2969           2416           38813.00       170233.62      
98.92          2969           2420           36123.00       158367.63      
98.95          2969           2423           34300.00       150331.88      
98.98          2970           2427           31858.00       139574.89      
99.01          2970           2430           29924.00       131061.56      
99.04          2970           2434           27255.00       119321.39      
99.07          2970           2438           24578.00       107556.02      
99.10          2971           2441           22603.00       98882.32       
99.13          2971           2445           20051.00       87682.62       
99.16          2971           2448           18272.00       79880.65       
99.20          2971           2452           15703.00       68621.80       
99.23          2972           2455           13778.00       60191.32       
99.26          2972           2459           11125.00       48580.97       
99.29          2972           2462           9100.00        39725.47       
99.32          2972           2466           6465.00        28210.85       
99.35          2973           2469           4867.00        21232.44       
99.38          2973           2473           3446.00        15029.93       
99.41          2973           2476           2471.00        10775.76       
99.44          2973           2480           1347.00        5873.08        
99.47          2974           2483           790.00         3444.19        
99.50          2974           2487           475.00         2070.77        
99.53          2974           2490           369.00         1608.64        
99.56          2974           2494           270.00         1177.03        
99.59          2975           2497           275.00         1198.83        
99.62          2975           2501           264.00         1150.88        
99.65          2975           2504           248.00         1081.12        
99.68          2975           2508           226.00         985.21         
99.72          2976           2511           228.00         993.93         
99.75          2976           2515           214.00         932.90         
99.78          2976           2519           212.00         924.18         
99.81          2976           2522           213.00         928.54         
99.84          2977           2526           233.00         1015.73        
99.87          2977           2529           209.00         911.10         
99.90          2977           2533           213.00         928.54         
99.93          2977           2536           209.00         911.10         
99.96          2978           2540           200.00         871.87         
99.99          2978           2543           196.00         854.43         
100.02         2978           2547           198.00         863.15         
100.05         2978           2550           189.00         823.91         
100.08         2979           2554           194.00         845.71         
100.11         2979           2557           196.00         854.43         
100.14         2979           2561           181.00         789.04         
100.17         2979           2564           187.00         815.19         
100.20         2980           2568           177.00         771.60         
100.24         2980           2571           185.00         806.48         
100.27         2980           2575           191.00         832.63         
100.30         2980           2578           179.00         780.32         
100.33         2981           2582           186.00         810.83         
100.36         2981           2586           186.00         810.83         
100.39         2981           2589           180.00         784.68         
100.42         2981           2593           192.00         836.99         
100.45         2982           2596           180.00         784.68         
100.48         2982           2600           170.00         741.08         
100.51         2982           2603           169.00         736.72         
100.54         2982           2607           182.00         793.40         
100.57         2983           2610           175.00         762.88         
100.60         2983           2614           170.00         741.08         
100.63         2983           2617           172.00         749.80         
100.66         2983           2621           174.00         758.52         
100.69         2984           2624           217.00         945.98         
100.72         2984           2628           175.00         762.88         
100.76         2984           2631           174.00         758.52         
HS scan finished at 01:40:45
end
