************************************************************
HS Scan of 
************************************************************
Integration time is 0.2294 seconds per sample
dh19619El Arenosillo 37.1  6.73  3.25pr1000
************************************************************
Dead Time -------------------------  3.6E-8
Number of Cycles Used -------------  4
Starting Wavelength (Angstroms) ---  2950
Final Wavelength (Angstoms) -------  2984
Wavelength Increment (Angstroms) --  0.25
Filter Wheel #1 Position ---------- (1) Ground quartz diffuser (ND = 2.32)
Filter Wheel #2 Position ---------- (1) Neutral density 0.494
 
 
 
************************************************************
HS scan start time = 01:52:11
Dark Count =  2.2
 
 
Time (GMT)  Wavelength (Ang)  Step Number  Raw Counts  Counts/Second
 
106.84         2950           2153           175.00         762.88         
106.88         2950           2157           197.00         858.79         
106.92         2951           2160           184.00         802.12         
106.96         2951           2164           182.00         793.40         
107.00         2951           2167           174.00         758.52         
107.04         2951           2171           191.00         832.63         
107.08         2952           2174           180.00         784.68         
107.12         2952           2178           187.00         815.19         
107.16         2952           2181           175.00         762.88         
107.20         2952           2185           187.00         815.19         
107.24         2953           2188           194.00         845.71         
107.27         2953           2192           185.00         806.48         
107.31         2953           2195           191.00         832.63         
107.35         2953           2199           184.00         802.12         
107.39         2954           2202           194.00         845.71         
107.43         2954           2206           195.00         850.07         
107.47         2954           2209           188.00         819.55         
107.51         2954           2213           200.00         871.87         
107.55         2955           2216           203.00         884.95         
107.59         2955           2220           205.00         893.66         
107.63         2955           2223           213.00         928.54         
107.67         2955           2227           201.00         876.23         
107.71         2956           2230           208.00         906.74         
107.75         2956           2234           200.00         871.87         
107.79         2956           2237           236.00         1028.81        
107.82         2956           2241           201.00         876.23         
107.86         2957           2244           219.00         954.70         
107.90         2957           2248           235.00         1024.45        
107.94         2957           2251           204.00         889.30         
107.98         2957           2255           204.00         889.30         
108.02         2958           2258           251.00         1094.20        
108.06         2958           2262           225.00         980.85         
108.10         2958           2265           219.00         954.70         
108.14         2958           2269           259.00         1129.08        
108.18         2959           2272           240.00         1046.25        
108.22         2959           2276           250.00         1089.84        
108.26         2959           2279           227.00         989.57         
108.30         2959           2283           276.00         1203.19        
108.34         2960           2286           327.00         1425.53        
108.38         2960           2290           284.00         1238.07        
108.41         2960           2293           251.00         1094.20        
108.45         2960           2297           274.00         1194.47        
108.49         2961           2300           287.00         1251.15        
108.53         2961           2304           327.00         1425.53        
108.57         2961           2307           528.00         2301.85        
108.61         2961           2311           1037.00        4521.22        
108.65         2962           2314           1693.00        7382.08        
108.69         2962           2318           2860.00        12472.91       
108.73         2962           2322           5019.00        21896.07       
108.77         2962           2325           6819.00        29757.23       
108.81         2963           2329           9301.00        40604.21       
108.85         2963           2332           11125.00       48580.97       
108.89         2963           2336           14039.00       61334.06       
108.93         2963           2339           16494.00       72087.45       
108.97         2964           2343           19059.00       83331.57       
109.00         2964           2346           21255.00       92965.36       
109.04         2964           2350           23875.00       104468.00      
109.08         2964           2353           26219.00       114767.00      
109.12         2965           2357           29241.00       128056.29      
109.16         2965           2360           31470.00       137866.52      
109.20         2965           2364           34624.00       151759.72      
109.24         2965           2367           36516.00       160100.58      
109.28         2966           2371           39584.00       173636.49      
109.32         2966           2374           41717.00       183055.02      
109.36         2966           2378           44032.00       193284.45      
109.40         2966           2381           45276.00       198784.52      
109.44         2967           2385           47160.00       207118.36      
109.48         2967           2388           47700.00       209507.97      
109.52         2967           2392           47903.00       210406.39      
109.56         2967           2395           48153.00       211512.90      
109.59         2968           2399           47968.00       210694.07      
109.63         2968           2402           47312.00       207790.95      
109.67         2968           2406           46161.00       202698.67      
109.71         2968           2409           44453.00       195145.56      
109.75         2969           2413           42181.00       185104.72      
109.79         2969           2416           39989.00       175424.33      
109.83         2969           2420           37266.00       163408.33      
109.87         2969           2423           35263.00       154576.18      
109.91         2970           2427           32662.00       143115.58      
109.95         2970           2430           30413.00       133213.61      
109.99         2970           2434           27507.00       120429.44      
110.03         2970           2438           24622.00       107749.32      
110.07         2971           2441           22440.00       98166.71       
110.11         2971           2445           19477.00       85164.81       
110.14         2971           2448           17402.00       76066.78       
110.18         2971           2452           14760.00       64491.32       
110.22         2972           2455           12583.00       54960.42       
110.26         2972           2459           9764.00        42628.58       
110.30         2972           2462           7680.00        33519.06       
110.34         2972           2466           5339.00        23293.28       
110.38         2973           2469           3776.00        16470.09       
110.42         2973           2473           2209.00        9632.81        
110.46         2973           2476           1368.00        5964.66        
110.50         2973           2480           790.00         3444.19        
110.54         2974           2483           508.00         2214.65        
110.58         2974           2487           384.00         1674.03        
110.62         2974           2490           294.00         1281.66        
110.66         2974           2494           274.00         1194.47        
110.70         2975           2497           265.00         1155.24        
110.73         2975           2501           253.00         1102.92        
110.77         2975           2504           290.00         1264.22        
110.81         2975           2508           248.00         1081.12        
110.85         2976           2511           246.00         1072.40        
110.89         2976           2515           222.00         967.78         
110.93         2976           2519           228.00         993.93         
110.97         2976           2522           224.00         976.49         
111.01         2977           2526           218.00         950.34         
111.05         2977           2529           218.00         950.34         
111.09         2977           2533           243.00         1059.33        
111.13         2977           2536           221.00         963.42         
111.17         2978           2540           204.00         889.30         
111.21         2978           2543           231.00         1007.01        
111.25         2978           2547           209.00         911.10         
111.29         2978           2550           220.00         959.06         
111.32         2979           2554           208.00         906.74         
111.36         2979           2557           209.00         911.10         
111.40         2979           2561           208.00         906.74         
111.44         2979           2564           204.00         889.30         
111.48         2980           2568           205.00         893.66         
111.52         2980           2571           196.00         854.43         
111.56         2980           2575           195.00         850.07         
111.60         2980           2578           187.00         815.19         
111.64         2981           2582           199.00         867.51         
111.68         2981           2586           180.00         784.68         
111.72         2981           2589           189.00         823.91         
111.76         2981           2593           192.00         836.99         
111.80         2982           2596           188.00         819.55         
111.84         2982           2600           182.00         793.40         
111.88         2982           2603           182.00         793.40         
111.91         2982           2607           183.00         797.76         
111.95         2983           2610           198.00         863.15         
111.99         2983           2614           186.00         810.83         
112.03         2983           2617           193.00         841.35         
112.07         2983           2621           179.00         780.32         
112.11         2984           2624           184.00         802.12         
112.15         2984           2628           191.00         832.63         
112.19         2984           2631           178.00         775.96         
HS scan finished at 01:52:11
end
************************************************************
HS Scan of 
************************************************************
Integration time is 0.2294 seconds per sample
dh19619El Arenosillo 37.1  6.73  3.1pr1000
************************************************************
Dead Time -------------------------  3.6E-8
Number of Cycles Used -------------  4
Starting Wavelength (Angstroms) ---  2950
Final Wavelength (Angstoms) -------  2984
Wavelength Increment (Angstroms) --  0.25
Filter Wheel #1 Position ---------- (1) Ground quartz diffuser (ND = 2.32)
Filter Wheel #2 Position ---------- (1) Neutral density 0.494
 
 
 
************************************************************
HS scan start time = 21:33:37
Dark Count =  1.7
 
 
Time (GMT)  Wavelength (Ang)  Step Number  Raw Counts  Counts/Second
 
1288.27        2950           2153           215.00         937.26         
1288.31        2950           2157           176.00         767.24         
1288.34        2951           2160           189.00         823.91         
1288.38        2951           2164           178.00         775.96         
1288.42        2951           2167           179.00         780.32         
1288.46        2951           2171           179.00         780.32         
1288.50        2952           2174           181.00         789.04         
1288.54        2952           2178           186.00         810.83         
1288.58        2952           2181           191.00         832.63         
1288.62        2952           2185           186.00         810.83         
1288.66        2953           2188           187.00         815.19         
1288.70        2953           2192           187.00         815.19         
1288.74        2953           2195           187.00         815.19         
1288.78        2953           2199           193.00         841.35         
1288.82        2954           2202           197.00         858.79         
1288.86        2954           2206           195.00         850.07         
1288.90        2954           2209           196.00         854.43         
1288.93        2954           2213           200.00         871.87         
1288.97        2955           2216           203.00         884.95         
1289.01        2955           2220           268.00         1168.31        
1289.05        2955           2223           200.00         871.87         
1289.09        2955           2227           197.00         858.79         
1289.13        2956           2230           210.00         915.46         
1289.17        2956           2234           206.00         898.02         
1289.21        2956           2237           197.00         858.79         
1289.25        2956           2241           201.00         876.23         
1289.29        2957           2244           207.00         902.38         
1289.33        2957           2248           207.00         902.38         
1289.37        2957           2251           223.00         972.14         
1289.41        2957           2255           226.00         985.21         
1289.45        2958           2258           210.00         915.46         
1289.48        2958           2262           233.00         1015.73        
1289.52        2958           2265           215.00         937.26         
1289.56        2958           2269           223.00         972.14         
1289.60        2959           2272           232.00         1011.37        
1289.64        2959           2276           250.00         1089.84        
1289.68        2959           2279           242.00         1054.97        
1289.72        2959           2283           238.00         1037.53        
1289.76        2960           2286           254.00         1107.28        
1289.80        2960           2290           261.00         1137.80        
1289.84        2960           2293           262.00         1142.16        
1289.88        2960           2297           267.00         1163.95        
1289.92        2961           2300           269.00         1172.67        
1289.96        2961           2304           328.00         1429.89        
1290.00        2961           2307           502.00         2188.49        
1290.04        2961           2311           1061.00        4625.88        
1290.07        2962           2314           1931.00        8420.16        
1290.11        2962           2318           3538.00        15431.41       
1290.15        2962           2322           5328.00        23245.25       
1290.19        2962           2325           6613.00        28857.34       
1290.23        2963           2329           9091.00        39686.13       
1290.27        2963           2332           10884.00       47526.76       
1290.31        2963           2336           13187.00       57604.08       
1290.35        2963           2339           14988.00       65489.88       
1290.39        2964           2343           17903.00       78262.91       
1290.43        2964           2346           20278.00       88678.46       
1290.47        2964           2350           22886.00       100124.85      
1290.51        2964           2353           24837.00       108693.88      
1290.55        2965           2357           27529.00       120526.18      
1290.59        2965           2360           29692.00       130040.66      
1290.63        2965           2364           32804.00       143741.02      
1290.66        2965           2367           35033.00       153562.37      
1290.70        2966           2371           38019.00       166730.11      
1290.74        2966           2374           39640.00       173883.68      
1290.78        2966           2378           41891.00       183823.62      
1290.82        2966           2381           43172.00       189483.44      
1290.86        2967           2385           44760.00       196502.87      
1290.90        2967           2388           45383.00       199257.70      
1290.94        2967           2392           45557.00       200027.20      
1290.98        2967           2395           45500.00       199775.11      
1291.02        2968           2399           45583.00       200142.18      
1291.06        2968           2402           45177.00       198346.73      
1291.10        2968           2406           44391.00       194871.47      
1291.14        2968           2409           43160.00       189430.41      
1291.18        2969           2413           41314.00       181275.03      
1291.21        2969           2416           39724.00       174254.48      
1291.25        2969           2420           37134.00       162826.11      
1291.29        2969           2423           35014.00       153478.62      
1291.33        2970           2427           32407.00       141992.50      
1291.37        2970           2430           30572.00       133913.43      
1291.41        2970           2434           27994.00       122571.05      
1291.45        2970           2438           25672.00       112362.93      
1291.49        2971           2441           23638.00       103427.10      
1291.53        2971           2445           20722.00       90626.49       
1291.57        2971           2448           18395.00       80419.93       
1291.61        2971           2452           15818.00       69125.60       
1291.65        2972           2455           14067.00       61456.66       
1291.69        2972           2459           11316.00       49416.52       
1291.73        2972           2462           9315.00        40665.42       
1291.77        2972           2466           6786.00        29613.07       
1291.80        2973           2469           4882.00        21297.93       
1291.84        2973           2473           2841.00        12390.01       
1291.88        2973           2476           1771.00        7722.29        
1291.92        2973           2480           1086.00        4734.90        
1291.96        2974           2483           728.00         3173.86        
1292.00        2974           2487           436.00         1900.74        
1292.04        2974           2490           325.00         1416.81        
1292.08        2974           2494           281.00         1224.99        
1292.12        2975           2497           277.00         1207.55        
1292.16        2975           2501           242.00         1054.97        
