************************************************************
HS Scan of 
************************************************************
Integration time is 0.2294 seconds per sample
dh22619El Arenosillo 37.1  6.73  3.31pr1000
************************************************************
Dead Time -------------------------  3.6E-8
Number of Cycles Used -------------  4
Starting Wavelength (Angstroms) ---  2950
Final Wavelength (Angstoms) -------  2984
Wavelength Increment (Angstroms) --  0.25
Filter Wheel #1 Position ---------- (1) Ground quartz diffuser (ND = 2.32)
Filter Wheel #2 Position ---------- (1) Neutral density 0.494
 
 
 
************************************************************
HS scan start time = 01:53:06
Dark Count =  2.7
 
 
Time (GMT)  Wavelength (Ang)  Step Number  Raw Counts  Counts/Second
 
107.75         2950           2153           180.00         784.68         
107.79         2950           2157           170.00         741.08         
107.83         2951           2160           165.00         719.29         
107.87         2951           2164           183.00         797.76         
107.91         2951           2167           179.00         780.32         
107.95         2951           2171           179.00         780.32         
107.99         2952           2174           181.00         789.04         
108.03         2952           2178           176.00         767.24         
108.07         2952           2181           177.00         771.60         
108.11         2952           2185           178.00         775.96         
108.15         2953           2188           189.00         823.91         
108.18         2953           2192           179.00         780.32         
108.22         2953           2195           196.00         854.43         
108.26         2953           2199           184.00         802.12         
108.30         2954           2202           176.00         767.24         
108.34         2954           2206           183.00         797.76         
108.38         2954           2209           184.00         802.12         
108.42         2954           2213           190.00         828.27         
108.46         2955           2216           194.00         845.71         
108.50         2955           2220           193.00         841.35         
108.54         2955           2223           188.00         819.55         
108.58         2955           2227           265.00         1155.24        
108.62         2956           2230           193.00         841.35         
108.66         2956           2234           188.00         819.55         
108.70         2956           2237           197.00         858.79         
108.74         2956           2241           194.00         845.71         
108.77         2957           2244           199.00         867.51         
108.81         2957           2248           224.00         976.49         
108.85         2957           2251           208.00         906.74         
108.89         2957           2255           204.00         889.30         
108.93         2958           2258           208.00         906.74         
108.97         2958           2262           208.00         906.74         
109.01         2958           2265           256.00         1116.00        
109.05         2958           2269           218.00         950.34         
109.09         2959           2272           221.00         963.42         
109.13         2959           2276           222.00         967.78         
109.17         2959           2279           219.00         954.70         
109.21         2959           2283           244.00         1063.69        
109.25         2960           2286           235.00         1024.45        
109.29         2960           2290           251.00         1094.20        
109.33         2960           2293           246.00         1072.40        
109.36         2960           2297           280.00         1220.63        
109.40         2961           2300           292.00         1272.94        
109.44         2961           2304           330.00         1438.61        
109.48         2961           2307           489.00         2131.81        
109.52         2961           2311           933.00         4067.73        
109.56         2962           2314           1524.00        6645.01        
109.60         2962           2318           2975.00        12974.67       
109.65         2962           2322           4883.00        21302.29       
109.68         2962           2325           6327.00        27608.07       
109.72         2963           2329           8711.00        38024.99       
109.76         2963           2332           10745.00       46918.76       
109.80         2963           2336           13629.00       59538.99       
109.84         2963           2339           15662.00       68442.19       
109.88         2964           2343           18223.00       79665.82       
109.91         2964           2346           20140.00       88073.05       
109.95         2964           2350           23125.00       101174.29      
109.99         2964           2353           25437.00       111330.22      
110.03         2965           2357           28251.00       123701.35      
110.07         2965           2360           30307.00       132747.08      
110.11         2965           2364           32781.00       143639.71      
110.15         2965           2367           34725.00       152204.85      
110.19         2966           2371           37559.00       164700.77      
110.23         2966           2374           39399.00       172819.90      
110.27         2966           2378           41517.00       182171.62      
110.31         2966           2381           42967.00       188577.53      
110.35         2967           2385           44259.00       194287.92      
110.39         2967           2388           45000.00       197564.06      
110.43         2967           2392           45156.00       198253.87      
110.47         2967           2395           45157.00       198258.29      
110.50         2968           2399           44829.00       196807.96      
110.54         2968           2402           44357.00       194721.16      
110.58         2968           2406           43206.00       189633.69      
110.62         2968           2409           41743.00       183169.87      
110.66         2969           2413           39407.00       172855.21      
110.70         2969           2416           37517.00       164515.50      
110.74         2969           2420           35069.00       153721.05      
110.78         2969           2423           33016.00       144674.83      
110.82         2970           2427           30599.00       134032.27      
110.86         2970           2430           28420.00       124444.67      
110.90         2970           2434           25556.00       111853.16      
110.94         2970           2438           22810.00       99791.16       
110.98         2971           2441           20907.00       91438.25       
111.02         2971           2445           18246.00       79766.65       
111.06         2971           2448           16366.00       71526.57       
111.09         2971           2452           13739.00       60020.57       
111.13         2972           2455           11759.00       51354.66       
111.17         2972           2459           9214.00        40223.85       
111.21         2972           2462           7266.00        31710.11       
111.25         2972           2466           5081.00        22166.77       
111.29         2973           2469           3635.00        15854.73       
111.33         2973           2473           2116.00        9227.13        
111.37         2973           2476           1303.00        5681.20        
111.41         2973           2480           793.00         3457.27        
111.45         2974           2483           484.00         2110.01        
111.49         2974           2487           336.00         1464.77        
111.53         2974           2490           298.00         1299.10        
111.57         2974           2494           247.00         1076.76        
111.61         2975           2497           254.00         1107.28        
111.65         2975           2501           246.00         1072.40        
111.69         2975           2504           224.00         976.49         
111.72         2975           2508           263.00         1146.52        
111.76         2976           2511           261.00         1137.80        
111.80         2976           2515           224.00         976.49         
111.84         2976           2519           248.00         1081.12        
111.88         2976           2522           223.00         972.14         
111.92         2977           2526           208.00         906.74         
111.96         2977           2529           214.00         932.90         
112.00         2977           2533           226.00         985.21         
112.05         2977           2536           208.00         906.74         
112.08         2978           2540           198.00         863.15         
112.12         2978           2543           194.00         845.71         
112.16         2978           2547           187.00         815.19         
112.20         2978           2550           216.00         941.62         
112.23         2979           2554           196.00         854.43         
112.27         2979           2557           189.00         823.91         
112.31         2979           2561           184.00         802.12         
112.35         2979           2564           196.00         854.43         
112.40         2980           2568           187.00         815.19         
112.43         2980           2571           197.00         858.79         
112.47         2980           2575           188.00         819.55         
112.51         2980           2578           184.00         802.12         
112.55         2981           2582           199.00         867.51         
112.59         2981           2586           177.00         771.60         
112.63         2981           2589           185.00         806.48         
112.67         2981           2593           190.00         828.27         
112.71         2982           2596           180.00         784.68         
112.75         2982           2600           188.00         819.55         
112.79         2982           2603           183.00         797.76         
112.82         2982           2607           181.00         789.04         
112.86         2983           2610           192.00         836.99         
112.90         2983           2614           191.00         832.63         
112.94         2983           2617           171.00         745.44         
112.98         2983           2621           179.00         780.32         
113.02         2984           2624           188.00         819.55         
113.06         2984           2628           185.00         806.48         
113.10         2984           2631           184.00         802.12         
HS scan finished at 01:53:06
end
