************************************************************
  HS Scan of (1) Internal mercury lamp
************************************************************
Integration time is 0.2294 seconds per sample
dh190519Izana 28.3081 16.4992 2.857833pr770
************************************************************
Dead Time -------------------------  2.7E-08 
Number of Cycles Used -------------  4 
Starting Wavelength (Angstroms) ---  2950 
Final Wavelength (Angstoms) -------  2984 
Wavelength Increment (Angstroms) --  .25 
Filter Wheel #1 Position ---------- (1) Ground quartz diffuser (ND=2.32)
Filter Wheel #2 Position ---------- (1) Neutral Density 0.494



************************************************************
HS scan start time = 02:02:01
Dark Count =  7.7 


Time (GMT)  Wavelength (Ang)  Step Number  Raw Counts  Counts/Second

  122.35        2950.00           1224          31.00       101.57
  122.42        2950.25           1227          29.00        92.85
  122.45        2950.50           1230          33.00       110.29
  122.48        2950.75           1234          48.00       175.68
  122.51        2951.00           1237          35.00       119.01
  122.55        2951.25           1240          31.00       101.57
  122.58        2951.50           1244          30.00        97.21
  122.61        2951.75           1247          24.00        71.06
  122.64        2952.00           1250          36.00       123.37
  122.67        2952.25           1254          36.00       123.37
  122.70        2952.50           1257          30.00        97.21
  122.73        2952.75           1260          31.00       101.57
  122.76        2953.00           1264          33.00       110.29
  122.80        2953.25           1267          29.00        92.85
  122.83        2953.50           1270          31.00       101.57
  122.86        2953.75           1274          31.00       101.57
  122.89        2954.00           1277          28.00        88.49
  122.92        2954.25           1280          30.00        97.21
  122.95        2954.50           1284          33.00       110.29
  122.99        2954.75           1287          30.00        97.21
  123.02        2955.00           1290          38.00       132.08
  123.05        2955.25           1294          35.00       119.01
  123.08        2955.50           1297          35.00       119.01
  123.11        2955.75           1300          30.00        97.21
  123.14        2956.00           1304          34.00       114.65
  123.17        2956.25           1307          32.00       105.93
  123.20        2956.50           1310          36.00       123.37
  123.24        2956.75           1314          37.00       127.72
  123.27        2957.00           1317          40.00       140.80
  123.30        2957.25           1320          35.00       119.01
  123.33        2957.50           1324          37.00       127.72
  123.36        2957.75           1327          37.00       127.72
  123.39        2958.00           1330          39.00       136.44
  123.42        2958.25           1334          41.00       145.16
  123.46        2958.50           1337          44.00       158.24
  123.49        2958.75           1340          38.00       132.08
  123.52        2959.00           1344          47.00       171.32
  123.55        2959.25           1347          50.00       184.39
  123.58        2959.50           1350          67.00       258.50
  123.61        2959.75           1354          83.00       328.25
  123.65        2960.00           1357         123.00       502.62
  123.68        2960.25           1360         159.00       659.56
  123.71        2960.50           1364         188.00       785.98
  123.74        2960.75           1367         244.00      1030.11
  123.77        2961.00           1370         291.00      1235.00
  123.80        2961.25           1373         335.00      1426.82
  123.84        2961.50           1377         687.00      2961.44
  123.87        2961.75           1380        1381.00      5987.45
  123.90        2962.00           1383        2658.00     11556.79
  123.93        2962.25           1387        5033.00     21919.25
  123.96        2962.50           1390        7248.00     31588.83
  124.00        2962.75           1393        9215.00     40180.01
  124.03        2963.00           1397       11966.00     52202.13
  124.06        2963.25           1400       13865.00     60505.48
  124.09        2963.50           1404       16494.00     72006.91
  124.12        2963.75           1407       18397.00     80336.66
  124.15        2964.00           1410       20363.00     88946.14
  124.19        2964.25           1414       23116.00    101008.80
  124.22        2964.50           1417       25320.00    110671.50
  124.25        2964.75           1420       27193.00    118887.10
  124.28        2965.00           1424       29703.00    129902.50
  124.31        2965.25           1427       31197.00    136462.20
  124.34        2965.50           1430       33369.00    146002.90
  124.38        2965.75           1434       36077.00    157905.00
  124.41        2966.00           1437       37811.00    165530.20
  124.44        2966.25           1440       39601.00    173405.00
  124.47        2966.50           1444       41581.00    182119.60
  124.50        2966.75           1447       42330.00    185417.20
  124.53        2967.00           1450       42717.00    187121.30
  124.57        2967.25           1454       43005.00    188389.60
  124.60        2967.50           1457       42778.00    187389.90
  124.63        2967.75           1460       42981.00    188283.90
  124.66        2968.00           1464       41821.00    183176.20
  124.69        2968.25           1467       40058.00    175416.10
  124.72        2968.50           1470       38585.00    168934.90
  124.76        2968.75           1474       36356.00    159131.70
  124.79        2969.00           1477       34558.00    151227.90
  124.82        2969.25           1480       32503.00    142198.40
  124.85        2969.50           1484       29803.00    130341.50
  124.88        2969.75           1487       27645.00    120870.30
  124.92        2970.00           1490       25598.00    111890.70
  124.95        2970.25           1494       22978.00    100403.90
  124.98        2970.50           1497       21187.00     92555.77
  125.01        2970.75           1500       19208.00     83887.69
  125.04        2971.00           1504       16345.00     71354.86
  125.07        2971.25           1507       14358.00     62661.72
  125.10        2971.50           1510       12258.00     53478.65
  125.14        2971.75           1514        9435.00     41141.14
  125.17        2972.00           1517        7605.00     33147.79
  125.20        2972.25           1520        5816.00     25336.86
  125.23        2972.50           1524        3570.00     15535.29
  125.26        2972.75           1527        2335.00     10147.94
  125.29        2973.00           1530        1123.00      4862.45
  125.33        2973.25           1534         461.00      1976.13
  125.36        2973.50           1537         301.00      1278.60
  125.39        2973.75           1540         230.00       969.08
  125.42        2974.00           1544         163.00       677.00
  125.45        2974.25           1547         142.00       585.45
  125.48        2974.50           1550          95.00       380.56
  125.51        2974.75           1554          71.00       275.94
  125.55        2975.00           1557          56.00       210.55
  125.58        2975.25           1561          56.00       210.55
  125.61        2975.50           1564          51.00       188.75
  125.64        2975.75           1567          46.00       166.96
  125.67        2976.00           1571          44.00       158.24
  125.70        2976.25           1574          47.00       171.32
  125.74        2976.50           1577          41.00       145.16
  125.77        2976.75           1581          40.00       140.80
  125.80        2977.00           1584          38.00       132.08
  125.83        2977.25           1587          40.00       140.80
  125.86        2977.50           1591          39.00       136.44
  125.89        2977.75           1594          37.00       127.72
  125.92        2978.00           1597          35.00       119.01
  125.96        2978.25           1601          36.00       123.37
  125.99        2978.50           1604          42.00       149.52
  126.02        2978.75           1607          39.00       136.44
  126.05        2979.00           1611          39.00       136.44
  126.08        2979.25           1614          35.00       119.01
  126.11        2979.50           1617          30.00        97.21
  126.15        2979.75           1621          35.00       119.01
  126.18        2980.00           1624          35.00       119.01
  126.21        2980.25           1628          31.00       101.57
  126.24        2980.50           1631          37.00       127.72
  126.27        2980.75           1634          33.00       110.29
  126.30        2981.00           1638          30.00        97.21
  126.33        2981.25           1641          34.00       114.65
  126.37        2981.50           1644          28.00        88.49
  126.40        2981.75           1648          27.00        84.13
  126.43        2982.00           1651          27.00        84.13
  126.46        2982.25           1654          35.00       119.01
  126.49        2982.50           1658          35.00       119.01
  126.52        2982.75           1661          30.00        97.21
  126.55        2983.00           1664          29.00        92.85
  126.59        2983.25           1668          33.00       110.29
  126.62        2983.50           1671          31.00       101.57
  126.65        2983.75           1674          27.00        84.13
  126.68        2984.00           1678          27.00        84.13
HS scan finished at 02:06:54
end
************************************************************
  HS Scan of (1) Internal mercury lamp
************************************************************
Integration time is 0.2294 seconds per sample
dh190519Izana 28.3081 16.4992 2.857833pr770
************************************************************
Dead Time -------------------------  2.7E-08 
Number of Cycles Used -------------  4 
Starting Wavelength (Angstroms) ---  2950 
Final Wavelength (Angstoms) -------  2984 
Wavelength Increment (Angstroms) --  .25 
Filter Wheel #1 Position ---------- (1) Ground quartz diffuser (ND=2.32)
Filter Wheel #2 Position ---------- (1) Neutral Density 0.494



************************************************************
HS scan start time = 04:42:52
Dark Count =  6.5 


Time (GMT)  Wavelength (Ang)  Step Number  Raw Counts  Counts/Second

  283.19        2950.00           1224          31.00       106.80
  283.26        2950.25           1227          37.00       132.96
  283.29        2950.50           1230          34.00       119.88
  283.32        2950.75           1234          35.00       124.24
  283.35        2951.00           1237          29.00        98.08
  283.38        2951.25           1240          27.00        89.36
  283.42        2951.50           1244          29.00        98.08
  283.45        2951.75           1247          46.00       172.19
  283.48        2952.00           1250          35.00       124.24
  283.51        2952.25           1254          30.00       102.44
  283.54        2952.50           1257          29.00        98.08
  283.57        2952.75           1260          37.00       132.96
  283.60        2953.00           1264          40.00       146.03
  283.63        2953.25           1267          31.00       106.80
  283.67        2953.50           1270          32.00       111.16
  283.70        2953.75           1274          28.00        93.72
  283.73        2954.00           1277          30.00       102.44
  283.76        2954.25           1280          38.00       137.32
  283.79        2954.50           1284          35.00       124.24
  283.82        2954.75           1287          31.00       106.80
  283.85        2955.00           1290          36.00       128.60
  283.88        2955.25           1294          39.00       141.67
  283.92        2955.50           1297          34.00       119.88
  283.95        2955.75           1300          35.00       124.24
  283.98        2956.00           1304          39.00       141.67
  284.01        2956.25           1307          42.00       154.75
  284.04        2956.50           1310          35.00       124.24
  284.07        2956.75           1314          45.00       167.83
  284.11        2957.00           1317          39.00       141.67
  284.14        2957.25           1320          39.00       141.67
  284.17        2957.50           1324          40.00       146.03
  284.20        2957.75           1327          41.00       150.39
  284.23        2958.00           1330          40.00       146.03
  284.26        2958.25           1334          41.00       150.39
  284.30        2958.50           1337          43.00       159.11
  284.33        2958.75           1340          48.00       180.91
  284.36        2959.00           1344          52.00       198.34
  284.39        2959.25           1347          52.00       198.34
  284.42        2959.50           1350          73.00       289.89
  284.45        2959.75           1354          88.00       355.28
  284.49        2960.00           1357         123.00       507.85
  284.52        2960.25           1360         161.00       673.51
  284.55        2960.50           1364         199.00       839.16
  284.58        2960.75           1367         255.00      1083.29
  284.61        2961.00           1370         295.00      1257.67
  284.64        2961.25           1373         345.00      1475.65
  284.68        2961.50           1377         761.00      3289.31
  284.71        2961.75           1380        1516.00      6581.38
  284.74        2962.00           1383        2638.00     11474.78
  284.77        2962.25           1387        4951.00     21566.61
  284.80        2962.50           1390        7117.00     31022.05
  284.83        2962.75           1393        9292.00     40521.64
  284.87        2963.00           1397       11885.00     51853.28
  284.90        2963.25           1400       13979.00     61009.32
  284.93        2963.50           1404       16668.00     72773.63
  284.96        2963.75           1407       18625.00     81340.16
  284.99        2964.00           1410       20347.00     88881.31
  285.03        2964.25           1414       22536.00     98472.02
  285.06        2964.50           1417       24264.00    106046.50
  285.09        2964.75           1420       26264.00    114817.00
  285.12        2965.00           1424       28474.00    124513.40
  285.15        2965.25           1427       29885.00    130706.80
  285.18        2965.50           1430       31704.00    138694.10
  285.22        2965.75           1434       34274.00    149985.00
  285.25        2966.00           1437       35995.00    157549.80
  285.28        2966.25           1440       37762.00    165320.00
  285.31        2966.50           1444       39880.00    174638.00
  285.34        2966.75           1447       40606.00    177833.10
  285.37        2967.00           1450       41105.00    180029.50
  285.41        2967.25           1454       41219.00    180531.30
  285.44        2967.50           1457       41230.00    180579.70
  285.47        2967.75           1460       40929.00    179254.80
  285.50        2968.00           1464       39741.00    174026.30
  285.53        2968.25           1467       38118.00    166885.90
  285.57        2968.50           1470       36585.00    160143.90
  285.60        2968.75           1474       34458.00    150793.60
  285.63        2969.00           1477       32847.00    143714.80
  285.66        2969.25           1480       31004.00    135619.90
  285.69        2969.50           1484       28659.00    125325.30
  285.72        2969.75           1487       26309.00    115014.40
  285.75        2970.00           1490       24335.00    106357.70
  285.79        2970.25           1494       21588.00     94317.92
  285.82        2970.50           1497       19973.00     87243.19
  285.85        2970.75           1500       17832.00     77868.43
  285.88        2971.00           1504       15191.00     66310.86
  285.91        2971.25           1507       13562.00     59185.62
  285.95        2971.50           1510       11696.00     51027.10
  285.98        2971.75           1514        9339.00     40726.97
  286.01        2972.00           1517        7488.00     32642.10
  286.04        2972.25           1520        5499.00     23958.39
  286.07        2972.50           1524        3162.00     13760.56
  286.10        2972.75           1527        1969.00      8556.90
  286.14        2973.00           1530         903.00      3908.43
  286.17        2973.25           1534         432.00      1854.93
  286.20        2973.50           1537         271.00      1153.04
  286.23        2973.75           1540         192.00       808.65
  286.26        2974.00           1544         143.00       595.04
  286.29        2974.25           1547         109.00       446.82
  286.33        2974.50           1550          86.00       346.56
  286.36        2974.75           1554          58.00       224.50
  286.39        2975.00           1557          54.00       207.06
  286.42        2975.25           1561          52.00       198.34
  286.45        2975.50           1564          42.00       154.75
  286.48        2975.75           1567          52.00       198.34
  286.51        2976.00           1571          47.00       176.55
  286.54        2976.25           1574          43.00       159.11
  286.58        2976.50           1577          48.00       180.91
  286.61        2976.75           1581          41.00       150.39
  286.64        2977.00           1584          39.00       141.67
  286.67        2977.25           1587          40.00       146.03
  286.70        2977.50           1591          40.00       146.03
  286.73        2977.75           1594          43.00       159.11
  286.76        2978.00           1597          37.00       132.96
  286.80        2978.25           1601          38.00       137.32
  286.83        2978.50           1604          37.00       132.96
  286.86        2978.75           1607          36.00       128.60
  286.89        2979.00           1611          34.00       119.88
  286.92        2979.25           1614          37.00       132.96
  286.95        2979.50           1617          34.00       119.88
  286.99        2979.75           1621          29.00        98.08
  287.02        2980.00           1624          33.00       115.52
  287.05        2980.25           1628          40.00       146.03
  287.08        2980.50           1631          28.00        93.72
  287.11        2980.75           1634          36.00       128.60
  287.14        2981.00           1638          34.00       119.88
  287.17        2981.25           1641          31.00       106.80
  287.20        2981.50           1644          32.00       111.16
  287.24        2981.75           1648          32.00       111.16
  287.27        2982.00           1651          31.00       106.80
  287.30        2982.25           1654          26.00        85.00
