************************************************************
  HS Scan of (1) Internal mercury lamp
************************************************************
Integration time is 0.2294 seconds per sample
dh020619Izana 28.3081 16.4992 2.804185pr770
************************************************************
Dead Time -------------------------  2.7E-08 
Number of Cycles Used -------------  4 
Starting Wavelength (Angstroms) ---  2950 
Final Wavelength (Angstoms) -------  2984 
Wavelength Increment (Angstroms) --  .25 
Filter Wheel #1 Position ---------- (1) Ground quartz diffuser (ND=2.32)
Filter Wheel #2 Position ---------- (1) Neutral Density 0.494



************************************************************
HS scan start time = 02:04:14
Dark Count =  4.2 


Time (GMT)  Wavelength (Ang)  Step Number  Raw Counts  Counts/Second

  124.56        2950.00           1224          33.00       125.55
  124.62        2950.25           1227          33.00       125.55
  124.66        2950.50           1230          35.00       134.26
  124.69        2950.75           1234          29.00       108.11
  124.72        2951.00           1237          33.00       125.55
  124.75        2951.25           1240          37.00       142.98
  124.78        2951.50           1244          33.00       125.55
  124.81        2951.75           1247          32.00       121.19
  124.85        2952.00           1250          33.00       125.55
  124.88        2952.25           1254          26.00        95.03
  124.91        2952.50           1257          36.00       138.62
  124.94        2952.75           1260          36.00       138.62
  124.97        2953.00           1264          30.00       112.47
  125.01        2953.25           1267          33.00       125.55
  125.04        2953.50           1270          35.00       134.26
  125.07        2953.75           1274          34.00       129.90
  125.10        2954.00           1277          37.00       142.98
  125.13        2954.25           1280          31.00       116.83
  125.16        2954.50           1284          32.00       121.19
  125.20        2954.75           1287          34.00       129.90
  125.23        2955.00           1290          32.00       121.19
  125.26        2955.25           1294          36.00       138.62
  125.29        2955.50           1297          32.00       121.19
  125.32        2955.75           1300          34.00       129.90
  125.36        2956.00           1304          33.00       125.55
  125.39        2956.25           1307          31.00       116.83
  125.42        2956.50           1310          37.00       142.98
  125.45        2956.75           1314          34.00       129.90
  125.48        2957.00           1317          38.00       147.34
  125.51        2957.25           1320          36.00       138.62
  125.55        2957.50           1324          33.00       125.55
  125.58        2957.75           1327          37.00       142.98
  125.61        2958.00           1330          36.00       138.62
  125.64        2958.25           1334          37.00       142.98
  125.67        2958.50           1337          45.00       177.86
  125.71        2958.75           1340          44.00       173.50
  125.74        2959.00           1344          47.00       186.57
  125.77        2959.25           1347          56.00       225.81
  125.80        2959.50           1350          66.00       269.40
  125.83        2959.75           1354          92.00       382.74
  125.86        2960.00           1357         126.00       530.96
  125.90        2960.25           1360         166.00       705.33
  125.93        2960.50           1364         190.00       809.96
  125.96        2960.75           1367         241.00      1032.29
  125.99        2961.00           1370         285.00      1224.10
  126.02        2961.25           1373         335.00      1442.08
  126.05        2961.50           1377         606.00      2623.55
  126.09        2961.75           1380        1221.00      5305.03
  126.12        2962.00           1383        2449.00     10660.44
  126.15        2962.25           1387        4931.00     21489.36
  126.18        2962.50           1390        7068.00     30818.14
  126.21        2962.75           1393        9147.00     39898.24
  126.25        2963.00           1397       11708.00     51089.60
  126.28        2963.25           1400       13556.00     59169.43
  126.31        2963.50           1404       16087.00     70241.20
  126.34        2963.75           1407       18015.00     78679.61
  126.37        2964.00           1410       20226.00     88361.39
  126.41        2964.25           1414       22900.00    100077.40
  126.44        2964.50           1417       24943.00    109033.70
  126.47        2964.75           1420       26774.00    117064.30
  126.50        2965.00           1424       29200.00    127709.90
  126.53        2965.25           1427       30905.00    135195.30
  126.57        2965.50           1430       32916.00    144028.10
  126.60        2965.75           1434       35630.00    155955.20
  126.63        2966.00           1437       37234.00    163007.90
  126.66        2966.25           1440       39008.00    170811.30
  126.69        2966.50           1444       41118.00    180096.80
  126.73        2966.75           1447       41757.00    182909.80
  126.76        2967.00           1450       42383.00    185666.00
  126.79        2967.25           1454       42394.00    185714.40
  126.82        2967.50           1457       42699.00    187057.50
  126.85        2967.75           1460       42558.00    186436.60
  126.89        2968.00           1464       41274.00    180783.50
  126.92        2968.25           1467       40016.00    175246.60
  126.95        2968.50           1470       38451.00    168360.80
  126.98        2968.75           1474       35786.00    156641.00
  127.01        2969.00           1477       34516.00    151058.60
  127.05        2969.25           1480       32414.00    141822.80
  127.08        2969.50           1484       29832.00    130484.20
  127.11        2969.75           1487       27861.00    121833.40
  127.14        2970.00           1490       25737.00    112515.70
  127.17        2970.25           1494       22922.00    100173.80
  127.21        2970.50           1497       21006.00     91778.16
  127.24        2970.75           1500       19165.00     83714.74
  127.27        2971.00           1504       16352.00     71400.81
  127.30        2971.25           1507       14273.00     62305.25
  127.34        2971.50           1510       12143.00     52991.20
  127.37        2971.75           1514        9556.00     41685.08
  127.40        2972.00           1517        7704.00     33595.42
  127.43        2972.25           1520        6058.00     26408.54
  127.46        2972.50           1524        3786.00     16492.96
  127.49        2972.75           1527        2505.00     10904.69
  127.53        2973.00           1530        1181.00      5130.61
  127.56        2973.25           1534         499.00      2157.06
  127.59        2973.50           1537         284.00      1219.74
  127.62        2973.75           1540         228.00       975.61
  127.65        2974.00           1544         147.00       622.50
  127.68        2974.25           1547         130.00       548.40
  127.72        2974.50           1550          86.00       356.59
  127.75        2974.75           1554          72.00       295.56
  127.78        2975.00           1557          58.00       234.53
  127.81        2975.25           1561          53.00       212.73
  127.84        2975.50           1564          53.00       212.73
  127.87        2975.75           1567          51.00       204.01
  127.90        2976.00           1571          51.00       204.01
  127.94        2976.25           1574          40.00       156.06
  127.97        2976.50           1577          44.00       173.50
  128.00        2976.75           1581          37.00       142.98
  128.03        2977.00           1584          41.00       160.42
  128.06        2977.25           1587          34.00       129.90
  128.10        2977.50           1591          37.00       142.98
  128.13        2977.75           1594          41.00       160.42
  128.16        2978.00           1597          39.00       151.70
  128.19        2978.25           1601          39.00       151.70
  128.22        2978.50           1604          39.00       151.70
  128.26        2978.75           1607          31.00       116.83
  128.29        2979.00           1611          42.00       164.78
  128.32        2979.25           1614          29.00       108.11
  128.35        2979.50           1617          41.00       160.42
  128.38        2979.75           1621          41.00       160.42
  128.41        2980.00           1624          40.00       156.06
  128.44        2980.25           1628          30.00       112.47
  128.48        2980.50           1631          34.00       129.90
  128.51        2980.75           1634          31.00       116.83
  128.54        2981.00           1638          26.00        95.03
  128.57        2981.25           1641          36.00       138.62
  128.60        2981.50           1644          34.00       129.90
  128.63        2981.75           1648          31.00       116.83
  128.67        2982.00           1651          38.00       147.34
  128.70        2982.25           1654          37.00       142.98
  128.73        2982.50           1658          33.00       125.55
  128.76        2982.75           1661          30.00       112.47
  128.79        2983.00           1664          29.00       108.11
  128.82        2983.25           1668          29.00       108.11
  128.85        2983.50           1671          43.00       169.14
  128.89        2983.75           1674          32.00       121.19
  128.92        2984.00           1678          27.00        99.39
HS scan finished at 02:09:08
end
************************************************************
  HS Scan of (1) Internal mercury lamp
************************************************************
Integration time is 0.2294 seconds per sample
dh020619Izana 28.3081 16.4992 2.857833pr770
************************************************************
Dead Time -------------------------  2.7E-08 
Number of Cycles Used -------------  4 
Starting Wavelength (Angstroms) ---  2950 
Final Wavelength (Angstoms) -------  2984 
Wavelength Increment (Angstroms) --  .25 
Filter Wheel #1 Position ---------- (1) Ground quartz diffuser (ND=2.32)
Filter Wheel #2 Position ---------- (1) Neutral Density 0.494



************************************************************
HS scan start time = 04:36:59
Dark Count =  5.7 


Time (GMT)  Wavelength (Ang)  Step Number  Raw Counts  Counts/Second

  277.31        2950.00           1224          33.00       119.01
  277.37        2950.25           1227          31.00       110.29
  277.41        2950.50           1230          31.00       110.29
  277.44        2950.75           1234          36.00       132.08
  277.47        2951.00           1237          31.00       110.29
  277.50        2951.25           1240          30.00       105.93
  277.53        2951.50           1244          29.00       101.57
  277.56        2951.75           1247          30.00       105.93
  277.59        2952.00           1250          30.00       105.93
  277.63        2952.25           1254          36.00       132.08
  277.66        2952.50           1257          35.00       127.72
  277.69        2952.75           1260          35.00       127.72
  277.72        2953.00           1264          33.00       119.01
  277.76        2953.25           1267          43.00       162.60
  277.79        2953.50           1270          25.00        84.13
  277.82        2953.75           1274          27.00        92.85
  277.85        2954.00           1277          34.00       123.37
  277.88        2954.25           1280          32.00       114.65
  277.92        2954.50           1284          40.00       149.52
  277.95        2954.75           1287          41.00       153.88
  277.98        2955.00           1290          34.00       123.37
  278.01        2955.25           1294          37.00       136.44
  278.04        2955.50           1297          36.00       132.08
  278.07        2955.75           1300          36.00       132.08
  278.11        2956.00           1304          33.00       119.01
  278.14        2956.25           1307          37.00       136.44
  278.17        2956.50           1310          37.00       136.44
  278.20        2956.75           1314          39.00       145.16
  278.23        2957.00           1317          37.00       136.44
  278.26        2957.25           1320          38.00       140.80
  278.30        2957.50           1324          49.00       188.75
  278.33        2957.75           1327          31.00       110.29
  278.36        2958.00           1330          40.00       149.52
  278.39        2958.25           1334          43.00       162.60
  278.42        2958.50           1337          43.00       162.60
  278.45        2958.75           1340          45.00       171.32
  278.49        2959.00           1344          50.00       193.11
  278.52        2959.25           1347          55.00       214.91
  278.55        2959.50           1350          70.00       280.30
  278.58        2959.75           1354          91.00       371.84
  278.62        2960.00           1357         135.00       563.65
  278.65        2960.25           1360         158.00       663.92
  278.68        2960.50           1364         200.00       847.01
  278.71        2960.75           1367         245.00      1043.19
  278.74        2961.00           1370         295.00      1261.16
  278.77        2961.25           1373         334.00      1431.18
  278.81        2961.50           1377         736.00      3183.80
  278.84        2961.75           1380        1469.00      6379.91
  278.87        2962.00           1383        2828.00     12307.05
  278.90        2962.25           1387        5470.00     23835.30
  278.93        2962.50           1390        7394.00     32235.11
  278.97        2962.75           1393        9334.00     40708.63
  279.00        2963.00           1397       12090.00     52752.94
  279.03        2963.25           1400       14058.00     61358.33
  279.06        2963.50           1404       16576.00     72374.51
  279.09        2963.75           1407       18534.00     80945.25
  279.12        2964.00           1410       20119.00     87886.16
  279.16        2964.25           1414       22346.00     97642.88
  279.19        2964.50           1417       24189.00    105721.10
  279.22        2964.75           1420       25666.00    112197.70
  279.25        2965.00           1424       27942.00    122182.30
  279.28        2965.25           1427       29244.00    127896.40
  279.32        2965.50           1430       31019.00    135689.30
  279.35        2965.75           1434       33914.00    148406.50
  279.38        2966.00           1437       35531.00    155513.40
  279.41        2966.25           1440       37701.00    165055.20
  279.44        2966.50           1444       39625.00    173519.40
  279.48        2966.75           1447       40221.00    176142.20
  279.51        2967.00           1450       40661.00    178078.70
  279.54        2967.25           1454       40694.00    178223.90
  279.57        2967.50           1457       40838.00    178857.70
  279.60        2967.75           1460       40393.00    176899.10
  279.64        2968.00           1464       39073.00    171090.60
  279.67        2968.25           1467       38073.00    166691.40
  279.70        2968.50           1470       36191.00    158415.00
  279.73        2968.75           1474       34484.00    150911.40
  279.76        2969.00           1477       32513.00    142251.10
  279.80        2969.25           1480       30520.00    133498.20
  279.83        2969.50           1484       28055.00    122678.10
  279.86        2969.75           1487       26141.00    114281.00
  279.89        2970.00           1490       24034.00    105041.60
  279.92        2970.25           1494       21541.00     94115.50
  279.96        2970.50           1497       19598.00     85604.34
  279.99        2970.75           1500       17683.00     77219.68
  280.02        2971.00           1504       15382.00     67149.98
  280.05        2971.25           1507       13680.00     59705.15
  280.08        2971.50           1510       11796.00     51467.72
  280.11        2971.75           1514        9110.00     39730.04
  280.15        2972.00           1517        7289.00     31776.60
  280.18        2972.25           1520        5501.00     23970.61
  280.21        2972.50           1524        3135.00     13646.27
  280.24        2972.75           1527        2081.00      9048.85
  280.28        2973.00           1530        1060.00      4596.47
  280.31        2973.25           1534         446.00      1919.45
  280.34        2973.50           1537         258.00      1099.86
  280.37        2973.75           1540         212.00       899.32
  280.40        2974.00           1544         144.00       602.89
  280.43        2974.25           1547         117.00       485.19
  280.47        2974.50           1550          80.00       323.89
  280.50        2974.75           1554          59.00       232.35
  280.53        2975.00           1557          53.00       206.19
  280.56        2975.25           1561          46.00       175.68
  280.59        2975.50           1564          45.00       171.32
  280.63        2975.75           1567          44.00       166.96
  280.66        2976.00           1571          40.00       149.52
  280.69        2976.25           1574          53.00       206.19
  280.72        2976.50           1577          46.00       175.68
  280.75        2976.75           1581          47.00       180.04
  280.78        2977.00           1584          41.00       153.88
  280.82        2977.25           1587          42.00       158.24
  280.85        2977.50           1591          37.00       136.44
  280.88        2977.75           1594          38.00       140.80
  280.91        2978.00           1597          36.00       132.08
  280.94        2978.25           1601          34.00       123.37
  280.97        2978.50           1604          39.00       145.16
  281.01        2978.75           1607          33.00       119.01
  281.04        2979.00           1611          38.00       140.80
  281.07        2979.25           1614          34.00       123.37
  281.10        2979.50           1617          33.00       119.01
  281.13        2979.75           1621          31.00       110.29
  281.16        2980.00           1624          38.00       140.80
  281.19        2980.25           1628          31.00       110.29
  281.23        2980.50           1631          40.00       149.52
  281.26        2980.75           1634          38.00       140.80
  281.29        2981.00           1638          39.00       145.16
  281.32        2981.25           1641          31.00       110.29
  281.35        2981.50           1644          33.00       119.01
  281.38        2981.75           1648          30.00       105.93
  281.42        2982.00           1651          35.00       127.72
  281.45        2982.25           1654          34.00       123.37
