************************************************************
  HS Scan of (1) Internal mercury lamp
************************************************************
Integration time is 0.2294 seconds per sample
dh090619Izana 28.3081 16.4992 2.857833pr770
************************************************************
Dead Time -------------------------  2.7E-08 
Number of Cycles Used -------------  4 
Starting Wavelength (Angstroms) ---  2950 
Final Wavelength (Angstoms) -------  2984 
Wavelength Increment (Angstroms) --  .25 
Filter Wheel #1 Position ---------- (1) Ground quartz diffuser (ND=2.32)
Filter Wheel #2 Position ---------- (1) Neutral Density 0.494



************************************************************
HS scan start time = 02:05:11
Dark Count =  5.9 


Time (GMT)  Wavelength (Ang)  Step Number  Raw Counts  Counts/Second

  125.51        2950.00           1224          28.00        96.34
  125.58        2950.25           1227          27.00        91.98
  125.61        2950.50           1230          33.00       118.13
  125.64        2950.75           1234          32.00       113.78
  125.68        2951.00           1237          29.00       100.70
  125.71        2951.25           1240          36.00       131.21
  125.74        2951.50           1244          33.00       118.13
  125.77        2951.75           1247          33.00       118.13
  125.80        2952.00           1250          30.00       105.06
  125.83        2952.25           1254          38.00       139.93
  125.87        2952.50           1257          29.00       100.70
  125.90        2952.75           1260          37.00       135.57
  125.93        2953.00           1264          33.00       118.13
  125.96        2953.25           1267          28.00        96.34
  125.99        2953.50           1270          37.00       135.57
  126.02        2953.75           1274          36.00       131.21
  126.06        2954.00           1277          41.00       153.01
  126.09        2954.25           1280          32.00       113.78
  126.12        2954.50           1284          38.00       139.93
  126.15        2954.75           1287          32.00       113.78
  126.18        2955.00           1290          32.00       113.78
  126.21        2955.25           1294          24.00        78.90
  126.24        2955.50           1297          28.00        96.34
  126.28        2955.75           1300          26.00        87.62
  126.31        2956.00           1304          37.00       135.57
  126.34        2956.25           1307          42.00       157.37
  126.37        2956.50           1310          33.00       118.13
  126.40        2956.75           1314          36.00       131.21
  126.43        2957.00           1317          36.00       131.21
  126.46        2957.25           1320          37.00       135.57
  126.49        2957.50           1324          43.00       161.73
  126.53        2957.75           1327          38.00       139.93
  126.56        2958.00           1330          38.00       139.93
  126.59        2958.25           1334          47.00       179.16
  126.62        2958.50           1337          46.00       174.80
  126.65        2958.75           1340          53.00       205.32
  126.68        2959.00           1344          43.00       161.73
  126.72        2959.25           1347          51.00       196.60
  126.75        2959.50           1350          60.00       235.83
  126.78        2959.75           1354          92.00       375.33
  126.81        2960.00           1357         111.00       458.16
  126.84        2960.25           1360         163.00       684.84
  126.87        2960.50           1364         207.00       876.66
  126.91        2960.75           1367         234.00       994.36
  126.94        2961.00           1370         294.00      1255.93
  126.97        2961.25           1373         329.00      1408.51
  127.00        2961.50           1377         597.00      2576.90
  127.03        2961.75           1380        1152.00      4996.75
  127.06        2962.00           1383        2324.00     10107.82
  127.10        2962.25           1387        4839.00     21080.43
  127.13        2962.50           1390        7045.00     30710.29
  127.16        2962.75           1393        9180.00     40034.97
  127.19        2963.00           1397       11810.00     51528.05
  127.22        2963.25           1400       13644.00     59546.84
  127.25        2963.50           1404       16317.00     71240.21
  127.29        2963.75           1407       18168.00     79341.98
  127.32        2964.00           1410       20264.00     88520.38
  127.35        2964.25           1414       23075.00    100836.90
  127.38        2964.50           1417       25135.00    109868.20
  127.41        2964.75           1420       26959.00    117868.40
  127.44        2965.00           1424       29369.00    128444.20
  127.48        2965.25           1427       31207.00    136514.00
  127.51        2965.50           1430       33045.00    144587.30
  127.54        2965.75           1434       36020.00    157662.30
  127.57        2966.00           1437       37773.00    165371.00
  127.60        2966.25           1440       39555.00    173210.50
  127.64        2966.50           1444       41726.00    182765.90
  127.67        2966.75           1447       42618.00    186693.30
  127.70        2967.00           1450       43068.00    188674.90
  127.73        2967.25           1454       43248.00    189467.70
  127.76        2967.50           1457       43349.00    189912.50
  127.80        2967.75           1460       43206.00    189282.70
  127.83        2968.00           1464       42336.00    185451.60
  127.86        2968.25           1467       40841.00    178870.10
  127.89        2968.50           1470       39254.00    171886.10
  127.92        2968.75           1474       36865.00    161377.80
  127.95        2969.00           1477       35066.00    153468.50
  127.99        2969.25           1480       33342.00    145892.20
  128.02        2969.50           1484       30411.00    133018.70
  128.05        2969.75           1487       28472.00    124507.20
  128.08        2970.00           1490       26037.00    113824.00
  128.11        2970.25           1494       23494.00    102673.50
  128.15        2970.50           1497       21615.00     94438.84
  128.18        2970.75           1500       19646.00     85813.69
  128.21        2971.00           1504       16983.00     74154.86
  128.24        2971.25           1507       14776.00     64498.01
  128.27        2971.50           1510       12779.00     55764.37
  128.30        2971.75           1514        9898.00     43171.92
  128.34        2972.00           1517        8047.00     35085.97
  128.37        2972.25           1520        6086.00     26523.35
  128.40        2972.50           1524        3975.00     17310.18
  128.43        2972.75           1527        2608.00     11346.55
  128.46        2973.00           1530        1271.00      5515.64
  128.49        2973.25           1534         540.00      2328.39
  128.53        2973.50           1537         298.00      1273.37
  128.56        2973.75           1540         228.00       968.20
  128.59        2974.00           1544         162.00       680.48
  128.62        2974.25           1547         115.00       475.59
  128.65        2974.50           1550          89.00       362.25
  128.68        2974.75           1554          64.00       253.27
  128.71        2975.00           1557          56.00       218.40
  128.75        2975.25           1561          53.00       205.32
  128.78        2975.50           1564          45.00       170.45
  128.81        2975.75           1567          46.00       174.80
  128.84        2976.00           1571          51.00       196.60
  128.87        2976.25           1574          58.00       227.12
  128.90        2976.50           1577          39.00       144.29
  128.93        2976.75           1581          40.00       148.65
  128.96        2977.00           1584          41.00       153.01
  129.00        2977.25           1587          46.00       174.80
  129.03        2977.50           1591          37.00       135.57
  129.06        2977.75           1594          39.00       144.29
  129.09        2978.00           1597          34.00       122.49
  129.12        2978.25           1601          36.00       131.21
  129.15        2978.50           1604          41.00       153.01
  129.19        2978.75           1607          40.00       148.65
  129.22        2979.00           1611          33.00       118.13
  129.25        2979.25           1614          37.00       135.57
  129.28        2979.50           1617          30.00       105.06
  129.31        2979.75           1621          30.00       105.06
  129.34        2980.00           1624          29.00       100.70
  129.38        2980.25           1628          39.00       144.29
  129.41        2980.50           1631          35.00       126.85
  129.44        2980.75           1634          36.00       131.21
  129.47        2981.00           1638          29.00       100.70
  129.50        2981.25           1641          29.00       100.70
  129.53        2981.50           1644          34.00       122.49
  129.56        2981.75           1648          32.00       113.78
  129.60        2982.00           1651          34.00       122.49
  129.63        2982.25           1654          34.00       122.49
  129.66        2982.50           1658          29.00       100.70
  129.69        2982.75           1661          34.00       122.49
  129.72        2983.00           1664          30.00       105.06
  129.75        2983.25           1668          37.00       135.57
  129.78        2983.50           1671          28.00        96.34
  129.82        2983.75           1674          32.00       113.78
  129.85        2984.00           1678          32.00       113.78
HS scan finished at 02:10:04
end
************************************************************
  HS Scan of (1) Internal mercury lamp
************************************************************
Integration time is 0.2294 seconds per sample
dh090619Izana 28.3081 16.4992 2.911481pr770
************************************************************
Dead Time -------------------------  2.7E-08 
Number of Cycles Used -------------  4 
Starting Wavelength (Angstroms) ---  2950 
Final Wavelength (Angstoms) -------  2984 
Wavelength Increment (Angstroms) --  .25 
Filter Wheel #1 Position ---------- (1) Ground quartz diffuser (ND=2.32)
Filter Wheel #2 Position ---------- (1) Neutral Density 0.494



************************************************************
HS scan start time = 04:35:47
Dark Count =  7.1 


Time (GMT)  Wavelength (Ang)  Step Number  Raw Counts  Counts/Second

  276.12        2950.00           1224          40.00       143.42
  276.18        2950.25           1227          31.00       104.19
  276.22        2950.50           1230          34.00       117.26
  276.25        2950.75           1234          37.00       130.34
  276.28        2951.00           1237          37.00       130.34
  276.31        2951.25           1240          35.00       121.62
  276.34        2951.50           1244          35.00       121.62
  276.37        2951.75           1247          39.00       139.06
  276.40        2952.00           1250          29.00        95.47
  276.43        2952.25           1254          32.00       108.54
  276.47        2952.50           1257          39.00       139.06
  276.50        2952.75           1260          34.00       117.26
  276.53        2953.00           1264          28.00        91.11
  276.56        2953.25           1267          36.00       125.98
  276.59        2953.50           1270          33.00       112.90
  276.62        2953.75           1274          35.00       121.62
  276.65        2954.00           1277          33.00       112.90
  276.69        2954.25           1280          38.00       134.70
  276.72        2954.50           1284          38.00       134.70
  276.75        2954.75           1287          32.00       108.54
  276.78        2955.00           1290          36.00       125.98
  276.81        2955.25           1294          37.00       130.34
  276.84        2955.50           1297          44.00       160.86
  276.87        2955.75           1300          32.00       108.54
  276.91        2956.00           1304          37.00       130.34
  276.94        2956.25           1307          36.00       125.98
  276.97        2956.50           1310          39.00       139.06
  277.00        2956.75           1314          35.00       121.62
  277.03        2957.00           1317          46.00       169.57
  277.06        2957.25           1320          41.00       147.78
  277.09        2957.50           1324          43.00       156.50
  277.13        2957.75           1327          38.00       134.70
  277.16        2958.00           1330          36.00       125.98
  277.19        2958.25           1334          42.00       152.14
  277.22        2958.50           1337          46.00       169.57
  277.25        2958.75           1340          42.00       152.14
  277.28        2959.00           1344          53.00       200.09
  277.31        2959.25           1347          60.00       230.60
  277.35        2959.50           1350          77.00       304.71
  277.38        2959.75           1354          92.00       370.10
  277.41        2960.00           1357         134.00       553.19
  277.44        2960.25           1360         156.00       649.10
  277.47        2960.50           1364         201.00       845.27
  277.50        2960.75           1367         260.00      1102.47
  277.54        2961.00           1370         303.00      1289.93
  277.57        2961.25           1373         344.00      1468.67
  277.60        2961.50           1377         667.00      2876.86
  277.63        2961.75           1380        1411.00      6120.89
  277.66        2962.00           1383        2820.00     12266.05
  277.69        2962.25           1387        5397.00     23510.56
  277.73        2962.50           1390        7251.00     31604.55
  277.76        2962.75           1393        9214.00     40178.27
  277.79        2963.00           1397       12084.00     52720.59
  277.82        2963.25           1400       14067.00     61391.57
  277.85        2963.50           1404       16785.00     73283.04
  277.88        2963.75           1407       18447.00     80558.21
  277.91        2964.00           1410       20259.00     88493.24
  277.95        2964.25           1414       22444.00     98066.21
  277.98        2964.50           1417       24197.00    105750.10
  278.01        2964.75           1420       25857.00    113029.30
  278.04        2965.00           1424       28048.00    122641.30
  278.07        2965.25           1427       29404.00    128592.60
  278.10        2965.50           1430       31401.00    137360.70
  278.13        2965.75           1434       34002.00    148787.00
  278.17        2966.00           1437       36096.00    157991.20
  278.20        2966.25           1440       37839.00    165656.00
  278.23        2966.50           1444       39979.00    175071.00
  278.26        2966.75           1447       40632.00    177944.90
  278.29        2967.00           1450       41200.00    180445.00
  278.32        2967.25           1454       41394.00    181299.00
  278.36        2967.50           1457       41153.00    180238.10
  278.39        2967.75           1460       40858.00    178939.60
  278.42        2968.00           1464       39831.00    174419.70
  278.45        2968.25           1467       38657.00    169254.30
  278.48        2968.50           1470       37153.00    162638.90
  278.52        2968.75           1474       35210.00    154096.20
  278.55        2969.00           1477       33377.00    146040.70
  278.58        2969.25           1480       31469.00    137659.40
  278.61        2969.50           1484       28469.00    124488.80
  278.64        2969.75           1487       26596.00    116270.70
  278.67        2970.00           1490       24599.00    107512.60
  278.71        2970.25           1494       21946.00     95883.91
  278.74        2970.50           1497       19985.00     87293.12
  278.77        2970.75           1500       18095.00     79017.15
  278.80        2971.00           1504       15846.00     69173.99
  278.83        2971.25           1507       14022.00     61194.76
  278.86        2971.50           1510       12161.00     53057.21
  278.90        2971.75           1514        9294.00     40527.76
  278.93        2972.00           1517        7419.00     32338.17
  278.96        2972.25           1520        5752.00     25060.11
  278.99        2972.50           1524        3465.00     15079.81
  279.02        2972.75           1527        2321.00     10089.50
  279.05        2973.00           1530        1154.00      5000.24
  279.08        2973.25           1534         478.00      2052.86
  279.12        2973.50           1537         293.00      1246.34
  279.15        2973.75           1540         208.00       875.78
  279.18        2974.00           1544         146.00       605.50
  279.21        2974.25           1547         102.00       413.69
  279.24        2974.50           1550          77.00       304.71
  279.27        2974.75           1554          70.00       274.20
  279.30        2975.00           1557          53.00       200.09
  279.34        2975.25           1561          48.00       178.29
  279.37        2975.50           1564          50.00       187.01
  279.40        2975.75           1567          41.00       147.78
  279.43        2976.00           1571          43.00       156.50
  279.46        2976.25           1574          48.00       178.29
  279.49        2976.50           1577          40.00       143.42
  279.52        2976.75           1581          36.00       125.98
  279.56        2977.00           1584          41.00       147.78
  279.59        2977.25           1587          43.00       156.50
  279.62        2977.50           1591          47.00       173.93
  279.65        2977.75           1594          34.00       117.26
  279.68        2978.00           1597          38.00       134.70
  279.71        2978.25           1601          43.00       156.50
  279.74        2978.50           1604          33.00       112.90
  279.78        2978.75           1607          44.00       160.86
  279.81        2979.00           1611          34.00       117.26
  279.84        2979.25           1614          31.00       104.19
  279.87        2979.50           1617          31.00       104.19
  279.90        2979.75           1621          34.00       117.26
  279.93        2980.00           1624          29.00        95.47
  279.96        2980.25           1628          38.00       134.70
  280.00        2980.50           1631          33.00       112.90
  280.03        2980.75           1634          30.00        99.83
  280.06        2981.00           1638          29.00        95.47
  280.09        2981.25           1641          29.00        95.47
  280.12        2981.50           1644          31.00       104.19
  280.15        2981.75           1648          34.00       117.26
  280.18        2982.00           1651          32.00       108.54
  280.22        2982.25           1654          27.00        86.75
