************************************************************
  HS Scan of (1) Internal mercury lamp
************************************************************
Integration time is 0.2294 seconds per sample
dh280619ElArenosillo 37.1 6.73 3.126073pr1023
************************************************************
Dead Time -------------------------  2.7E-08 
Number of Cycles Used -------------  4 
Starting Wavelength (Angstroms) ---  2950 
Final Wavelength (Angstoms) -------  2984 
Wavelength Increment (Angstroms) --  .25 
Filter Wheel #1 Position ---------- (1) Ground quartz diffuser (ND=2.32)
Filter Wheel #2 Position ---------- (1) Neutral Density 0.494



************************************************************
HS scan start time = 03:11:17
Dark Count =  5.2 


Time (GMT)  Wavelength (Ang)  Step Number  Raw Counts  Counts/Second

  191.60        2950.00           1224          33.00       121.19
  191.67        2950.25           1227          32.00       116.83
  191.70        2950.50           1230          34.00       125.55
  191.73        2950.75           1234          28.00        99.39
  191.76        2951.00           1237          28.00        99.39
  191.79        2951.25           1240          30.00       108.11
  191.82        2951.50           1244          29.00       103.75
  191.85        2951.75           1247          40.00       151.70
  191.88        2952.00           1250          27.00        95.03
  191.91        2952.25           1254          34.00       125.55
  191.94        2952.50           1257          27.00        95.03
  191.97        2952.75           1260          29.00       103.75
  192.00        2953.00           1264          29.00       103.75
  192.04        2953.25           1267          31.00       112.47
  192.07        2953.50           1270          31.00       112.47
  192.10        2953.75           1274          29.00       103.75
  192.13        2954.00           1277          35.00       129.90
  192.16        2954.25           1280          40.00       151.70
  192.19        2954.50           1284          40.00       151.70
  192.22        2954.75           1287          30.00       108.11
  192.25        2955.00           1290          33.00       121.19
  192.28        2955.25           1294          31.00       112.47
  192.31        2955.50           1297          36.00       134.26
  192.34        2955.75           1300          31.00       112.47
  192.37        2956.00           1304          38.00       142.98
  192.41        2956.25           1307          33.00       121.19
  192.44        2956.50           1310          30.00       108.11
  192.47        2956.75           1314          36.00       134.26
  192.50        2957.00           1317          40.00       151.70
  192.53        2957.25           1320          35.00       129.90
  192.56        2957.50           1324          38.00       142.98
  192.59        2957.75           1327          41.00       156.06
  192.62        2958.00           1330          42.00       160.42
  192.65        2958.25           1334          44.00       169.14
  192.68        2958.50           1337          44.00       169.14
  192.71        2958.75           1340          54.00       212.73
  192.74        2959.00           1344          44.00       169.14
  192.77        2959.25           1347          56.00       221.45
  192.80        2959.50           1350          61.00       243.24
  192.83        2959.75           1354          82.00       334.79
  192.86        2960.00           1357         118.00       491.72
  192.90        2960.25           1360         160.00       674.82
  192.93        2960.50           1364         199.00       844.83
  192.96        2960.75           1367         247.00      1054.08
  192.99        2961.00           1370         302.00      1293.86
  193.02        2961.25           1373         350.00      1503.11
  193.05        2961.50           1377         993.00      4306.52
  193.08        2961.75           1380        2020.00      8785.00
  193.11        2962.00           1383        3335.00     14520.95
  193.14        2962.25           1387        5453.00     23763.28
  193.17        2962.50           1390        7109.00     30992.80
  193.20        2962.75           1393        9352.00     40789.45
  193.23        2963.00           1397       12163.00     53074.26
  193.26        2963.25           1400       14371.00     62729.53
  193.30        2963.50           1404       17569.00     76722.85
  193.33        2963.75           1407       19318.00     84380.34
  193.36        2964.00           1410       21343.00     93250.18
  193.39        2964.25           1414       23824.00    104123.20
  193.42        2964.50           1417       25778.00    112691.10
  193.45        2964.75           1420       28098.00    122869.00
  193.48        2965.00           1424       31025.00    135717.90
  193.51        2965.25           1427       33136.00    144990.20
  193.54        2965.50           1430       35078.00    153524.40
  193.57        2965.75           1434       37606.00    164639.60
  193.60        2966.00           1437       39331.00    172228.00
  193.63        2966.25           1440       41291.00    180853.90
  193.66        2966.50           1444       43469.00    190444.10
  193.70        2966.75           1447       44061.00    193051.60
  193.73        2967.00           1450       44808.00    196342.40
  193.76        2967.25           1454       44761.00    196135.30
  193.79        2967.50           1457       44974.00    197073.80
  193.82        2967.75           1460       44538.00    195152.90
  193.85        2968.00           1464       43453.00    190373.60
  193.88        2968.25           1467       41934.00    183684.70
  193.91        2968.50           1470       40412.00    176985.00
  193.94        2968.75           1474       37835.00    165646.80
  193.97        2969.00           1477       35617.00    155893.70
  194.00        2969.25           1480       33542.00    146774.10
  194.03        2969.50           1484       30510.00    133456.50
  194.06        2969.75           1487       28907.00    126419.50
  194.10        2970.00           1490       27204.00    118946.40
  194.13        2970.25           1494       24322.00    106306.40
  194.16        2970.50           1497       22006.00     96155.16
  194.19        2970.75           1500       19864.00     86771.50
  194.22        2971.00           1504       17142.00     74853.85
  194.25        2971.25           1507       14988.00     65428.48
  194.28        2971.50           1510       12995.00     56711.89
  194.31        2971.75           1514       10293.00     44900.96
  194.34        2972.00           1517        8336.00     36351.27
  194.37        2972.25           1520        6166.00     26875.64
  194.40        2972.50           1524        3331.00     14503.50
  194.43        2972.75           1527        1801.00      7829.90
  194.47        2973.00           1530         942.00      4084.15
  194.50        2973.25           1534         468.00      2017.55
  194.53        2973.50           1537         312.00      1337.45
  194.56        2973.75           1540         215.00       914.58
  194.59        2974.00           1544         181.00       766.36
  194.62        2974.25           1547         140.00       587.63
  194.65        2974.50           1550         102.00       421.98
  194.68        2974.75           1554          68.00       273.76
  194.71        2975.00           1557          57.00       225.81
  194.74        2975.25           1561          60.00       238.89
  194.77        2975.50           1564          42.00       160.42
  194.80        2975.75           1567          46.00       177.86
  194.83        2976.00           1571          45.00       173.50
  194.86        2976.25           1574          42.00       160.42
  194.89        2976.50           1577          47.00       182.22
  194.92        2976.75           1581          38.00       142.98
  194.96        2977.00           1584          47.00       182.22
  194.99        2977.25           1587          37.00       138.62
  195.02        2977.50           1591          36.00       134.26
  195.05        2977.75           1594          39.00       147.34
  195.08        2978.00           1597          40.00       151.70
  195.11        2978.25           1601          41.00       156.06
  195.14        2978.50           1604          39.00       147.34
  195.17        2978.75           1607          39.00       147.34
  195.20        2979.00           1611          33.00       121.19
  195.23        2979.25           1614          30.00       108.11
  195.26        2979.50           1617          30.00       108.11
  195.29        2979.75           1621          32.00       116.83
  195.32        2980.00           1624          32.00       116.83
  195.36        2980.25           1628          36.00       134.26
  195.39        2980.50           1631          29.00       103.75
  195.43        2980.75           1634          30.00       108.11
  195.46        2981.00           1638          32.00       116.83
  195.49        2981.25           1641          37.00       138.62
  195.52        2981.50           1644          26.00        90.67
  195.55        2981.75           1648          34.00       125.55
  195.59        2982.00           1651          33.00       121.19
  195.62        2982.25           1654          28.00        99.39
  195.65        2982.50           1658          32.00       116.83
  195.68        2982.75           1661          30.00       108.11
  195.71        2983.00           1664          29.00       103.75
  195.74        2983.25           1668          29.00       103.75
  195.77        2983.50           1671          33.00       121.19
  195.80        2983.75           1674          30.00       108.11
  195.83        2984.00           1678          29.00       103.75
HS scan finished at 03:16:03
end
