************************************************************
  HS Scan of (1) Internal mercury lamp
************************************************************
Integration time is 0.2294 seconds per sample
dh210619ElArenosillo 37.1 6.73 2.911481pr1023
************************************************************
Dead Time -------------------------  2.7E-08 
Number of Cycles Used -------------  4 
Starting Wavelength (Angstroms) ---  2950 
Final Wavelength (Angstoms) -------  2984 
Wavelength Increment (Angstroms) --  .25 
Filter Wheel #1 Position ---------- (1) Ground quartz diffuser (ND=2.32)
Filter Wheel #2 Position ---------- (1) Neutral Density 0.494



************************************************************
HS scan start time = 03:01:02
Dark Count =  6.1 


Time (GMT)  Wavelength (Ang)  Step Number  Raw Counts  Counts/Second

  181.36        2950.00           1224          35.00       125.98
  181.42        2950.25           1227          37.00       134.70
  181.45        2950.50           1230          30.00       104.19
  181.49        2950.75           1234          34.00       121.62
  181.52        2951.00           1237          39.00       143.42
  181.55        2951.25           1240          29.00        99.83
  181.58        2951.50           1244          34.00       121.62
  181.61        2951.75           1247          30.00       104.19
  181.64        2952.00           1250          29.00        99.83
  181.67        2952.25           1254          37.00       134.70
  181.70        2952.50           1257          29.00        99.83
  181.73        2952.75           1260          32.00       112.90
  181.76        2953.00           1264          33.00       117.26
  181.79        2953.25           1267          36.00       130.34
  181.82        2953.50           1270          36.00       130.34
  181.85        2953.75           1274          37.00       134.70
  181.88        2954.00           1277          35.00       125.98
  181.91        2954.25           1280          33.00       117.26
  181.94        2954.50           1284          32.00       112.90
  181.98        2954.75           1287          31.00       108.54
  182.01        2955.00           1290          35.00       125.98
  182.04        2955.25           1294          31.00       108.54
  182.07        2955.50           1297          29.00        99.83
  182.10        2955.75           1300          37.00       134.70
  182.13        2956.00           1304          35.00       125.98
  182.16        2956.25           1307          36.00       130.34
  182.19        2956.50           1310          35.00       125.98
  182.22        2956.75           1314          38.00       139.06
  182.25        2957.00           1317          29.00        99.83
  182.28        2957.25           1320          35.00       125.98
  182.31        2957.50           1324          43.00       160.86
  182.34        2957.75           1327          39.00       143.42
  182.37        2958.00           1330          41.00       152.14
  182.41        2958.25           1334          42.00       156.50
  182.44        2958.50           1337          44.00       165.21
  182.47        2958.75           1340          46.00       173.93
  182.50        2959.00           1344          47.00       178.29
  182.53        2959.25           1347          51.00       195.73
  182.56        2959.50           1350          66.00       261.12
  182.59        2959.75           1354          90.00       365.74
  182.62        2960.00           1357         122.00       505.24
  182.65        2960.25           1360         162.00       679.61
  182.68        2960.50           1364         192.00       810.39
  182.71        2960.75           1367         251.00      1067.60
  182.74        2961.00           1370         271.00      1154.79
  182.78        2961.25           1373         320.00      1368.40
  182.81        2961.50           1377         691.00      2985.86
  182.84        2961.75           1380        1382.00      5998.79
  182.87        2962.00           1383        2393.00     10407.89
  182.90        2962.25           1387        4403.00     19176.89
  182.93        2962.50           1390        6540.00     28504.50
  182.96        2962.75           1393        8644.00     37692.66
  182.99        2963.00           1397       11366.00     49586.40
  183.02        2963.25           1400       13234.00     57753.03
  183.05        2963.50           1404       15642.00     68285.77
  183.08        2963.75           1407       17412.00     76031.69
  183.11        2964.00           1410       19191.00     83820.27
  183.14        2964.25           1414       22047.00     96330.88
  183.18        2964.50           1417       23918.00    104531.30
  183.21        2964.75           1420       26095.00    114077.50
  183.24        2965.00           1424       28352.00    123979.70
  183.27        2965.25           1427       30227.00    132210.00
  183.30        2965.50           1430       31890.00    139512.80
  183.33        2965.75           1434       34322.00    150197.70
  183.36        2966.00           1437       36223.00    158553.90
  183.39        2966.25           1440       38028.00    166491.70
  183.42        2966.50           1444       39740.00    174023.70
  183.45        2966.75           1447       40839.00    178860.40
  183.48        2967.00           1450       41200.00    180449.40
  183.51        2967.25           1454       41400.00    181329.80
  183.54        2967.50           1457       41443.00    181519.10
  183.57        2967.75           1460       41443.00    181519.10
  183.60        2968.00           1464       40240.00    176224.00
  183.63        2968.25           1467       38935.00    170481.70
  183.67        2968.50           1470       37586.00    164547.70
  183.70        2968.75           1474       35089.00    153568.70
  183.73        2969.00           1477       33242.00    145452.00
  183.76        2969.25           1480       31774.00    139003.30
  183.79        2969.50           1484       29534.00    129167.70
  183.82        2969.75           1487       27507.00    120271.80
  183.85        2970.00           1490       25368.00    110889.10
  183.88        2970.25           1494       22528.00     98438.71
  183.91        2970.50           1497       20657.00     90240.98
  183.94        2970.75           1500       18662.00     81503.93
  183.97        2971.00           1504       16292.00     71129.94
  184.00        2971.25           1507       14466.00     63141.12
  184.03        2971.50           1510       12227.00     53350.12
  184.06        2971.75           1514        9554.00     41668.04
  184.09        2972.00           1517        7709.00     33608.95
  184.12        2972.25           1520        5926.00     25824.02
  184.15        2972.50           1524        3656.00     15917.48
  184.18        2972.75           1527        2210.00      9609.73
  184.22        2973.00           1530        1205.00      5226.98
  184.25        2973.25           1534         509.00      2192.37
  184.28        2973.50           1537         298.00      1272.49
  184.31        2973.75           1540         214.00       906.30
  184.34        2974.00           1544         164.00       688.33
  184.37        2974.25           1547         107.00       439.85
  184.40        2974.50           1550          84.00       339.58
  184.43        2974.75           1554          64.00       252.40
  184.46        2975.00           1557          49.00       187.01
  184.49        2975.25           1561          51.00       195.73
  184.52        2975.50           1564          52.00       200.09
  184.55        2975.75           1567          48.00       182.65
  184.59        2976.00           1571          45.00       169.57
  184.62        2976.25           1574          46.00       173.93
  184.65        2976.50           1577          43.00       160.86
  184.68        2976.75           1581          46.00       173.93
  184.71        2977.00           1584          41.00       152.14
  184.74        2977.25           1587          40.00       147.78
  184.77        2977.50           1591          39.00       143.42
  184.80        2977.75           1594          33.00       117.26
  184.83        2978.00           1597          37.00       134.70
  184.86        2978.25           1601          36.00       130.34
  184.89        2978.50           1604          36.00       130.34
  184.92        2978.75           1607          31.00       108.54
  184.95        2979.00           1611          36.00       130.34
  184.98        2979.25           1614          37.00       134.70
  185.01        2979.50           1617          31.00       108.54
  185.04        2979.75           1621          34.00       121.62
  185.07        2980.00           1624          46.00       173.93
  185.11        2980.25           1628          34.00       121.62
  185.14        2980.50           1631          28.00        95.47
  185.17        2980.75           1634          36.00       130.34
  185.20        2981.00           1638          28.00        95.47
  185.23        2981.25           1641          34.00       121.62
  185.26        2981.50           1644          30.00       104.19
  185.29        2981.75           1648          30.00       104.19
  185.32        2982.00           1651          37.00       134.70
  185.35        2982.25           1654          31.00       108.54
  185.39        2982.50           1658          39.00       143.42
  185.42        2982.75           1661          29.00        99.83
  185.45        2983.00           1664          29.00        99.83
  185.49        2983.25           1668          31.00       108.54
  185.52        2983.50           1671          29.00        99.83
  185.55        2983.75           1674          28.00        95.47
  185.58        2984.00           1678          29.00        99.83
HS scan finished at 03:05:47
end
