************************************************************
  HL Scan of (1) Internal mercury lamp
************************************************************
Integration time is 0.2294 seconds per sample
dh050117Manchester 53.47 2.23 2.750537pr1000
************************************************************
Dead Time -------------------------  3E-08 
Number of Cycles Used -------------  4 
Starting Wavelength (Angstroms) ---  3331 
Final Wavelength (Angstoms) -------  3351 
Wavelength Increment (Angstroms) --  .25 
Filter Wheel #1 Position ---------- (1) Ground quartz diffuser (ND=2.32)
Filter Wheel #2 Position ---------- 



************************************************************
HL scan start time = 01:00:03
Dark Count =  6.5 


Time (GMT)  Wavelength (Ang)  Step Number  Raw Counts  Counts/Second

   60.57        3331.00           6610          49.00       185.27
   60.79        3331.25           6614          48.00       180.91
   60.83        3331.50           6618          50.00       189.63
   60.86        3331.75           6622          54.00       207.06
   60.89        3332.00           6626          44.00       163.47
   60.92        3332.25           6629          48.00       180.91
   60.95        3332.50           6633          53.00       202.70
   60.98        3332.75           6637          54.00       207.06
   61.01        3333.00           6641          53.00       202.70
   61.04        3333.25           6644          57.00       220.14
   61.07        3333.50           6648          57.00       220.14
   61.10        3333.75           6652          55.00       211.42
   61.14        3334.00           6656          62.00       241.94
   61.17        3334.25           6659          60.00       233.22
   61.20        3334.50           6663          69.00       272.45
   61.23        3334.75           6667          81.00       324.76
   61.26        3335.00           6671          99.00       403.23
   61.29        3335.25           6674         124.00       512.21
   61.32        3335.50           6678         143.00       595.04
   61.35        3335.75           6682         163.00       682.23
   61.38        3336.00           6686         188.00       791.21
   61.41        3336.25           6689         233.00       987.39
   61.44        3336.50           6693         376.00      1610.80
   61.47        3336.75           6697        1050.00      4549.44
   61.50        3337.00           6701        2387.00     10380.30
   61.53        3337.25           6704        3542.00     15419.07
   61.56        3337.50           6708        4963.00     21620.39
   61.59        3337.75           6712        6452.00     28120.93
   61.63        3338.00           6716        7877.00     34344.44
   61.66        3338.25           6719        9067.00     39543.40
   61.69        3338.50           6723       10372.00     45246.64
   61.72        3338.75           6727       11706.00     51078.65
   61.75        3339.00           6731       13173.00     57494.46
   61.78        3339.25           6734       14273.00     62306.86
   61.81        3339.50           6738       15658.00     68368.06
   61.84        3339.75           6742       17063.00     74519.07
   61.87        3340.00           6746       18399.00     80370.10
   61.91        3340.25           6750       19904.00     86963.72
   61.94        3340.50           6753       21003.00     91780.26
   61.97        3340.75           6757       22507.00     98374.02
   62.00        3341.00           6761       23729.00    103733.40
   62.03        3341.25           6765       25012.00    109362.10
   62.06        3341.50           6768       25512.00    111556.20
   62.09        3341.75           6772       25479.00    111411.40
   62.12        3342.00           6776       25407.00    111095.50
   62.15        3342.25           6780       24704.00    108010.70
   62.18        3342.50           6783       23889.00    104435.20
   62.22        3342.75           6787       22559.00     98602.06
   62.25        3343.00           6791       21101.00     92209.82
   62.28        3343.25           6795       19577.00     85530.87
   62.31        3343.50           6798       18415.00     80440.18
   62.34        3343.75           6802       17118.00     74759.90
   62.37        3344.00           6806       15689.00     68503.76
   62.40        3344.25           6810       14208.00     62022.45
   62.43        3344.50           6814       12739.00     55596.14
   62.46        3344.75           6817       11482.00     50099.22
   62.50        3345.00           6821       10154.00     44293.78
   62.53        3345.25           6825        8887.00     38756.90
   62.56        3345.50           6829        7396.00     32243.47
   62.59        3345.75           6832        6240.00     27195.24
   62.62        3346.00           6836        4681.00     20389.54
   62.65        3346.25           6840        3253.00     14158.15
   62.68        3346.50           6844        1834.00      7968.34
   62.71        3346.75           6847         957.00      4143.93
   62.74        3347.00           6851         306.00      1305.63
   62.77        3347.25           6855         181.00       760.70
   62.81        3347.50           6859         142.00       590.68
   62.84        3347.75           6863         112.00       459.90
   62.87        3348.00           6866          95.00       385.79
   62.90        3348.25           6870          69.00       272.45
   62.93        3348.50           6874          66.00       259.37
   62.96        3348.75           6878          53.00       202.70
   62.99        3349.00           6881          59.00       228.86
   63.02        3349.25           6885          55.00       211.42
   63.05        3349.50           6889          48.00       180.91
   63.08        3349.75           6893          48.00       180.91
   63.11        3350.00           6896          52.00       198.34
   63.14        3350.25           6900          54.00       207.06
   63.17        3350.50           6904          64.00       250.66
   63.21        3350.75           6908          62.00       241.94
   63.24        3351.00           6912          55.00       211.42
HL scan finished at 01:03:54
end
