************************************************************
  HL Scan of (1) Internal mercury lamp
************************************************************
Integration time is 0.2294 seconds per sample
dh160319Manchester 53.47 2.23 2.804185pr1000
************************************************************
Dead Time -------------------------  3E-08 
Number of Cycles Used -------------  4 
Starting Wavelength (Angstroms) ---  3331 
Final Wavelength (Angstoms) -------  3351 
Wavelength Increment (Angstroms) --  .25 
Filter Wheel #1 Position ---------- (1) Ground quartz diffuser (ND=2.32)
Filter Wheel #2 Position ---------- 



************************************************************
HL scan start time = 01:04:02
Dark Count =  7.2 


Time (GMT)  Wavelength (Ang)  Step Number  Raw Counts  Counts/Second

   64.56        3331.00           6610          43.00       156.06
   64.79        3331.25           6614          44.00       160.42
   64.82        3331.50           6618          44.00       160.42
   64.85        3331.75           6622          41.00       147.34
   64.88        3332.00           6626          44.00       160.42
   64.91        3332.25           6629          44.00       160.42
   64.94        3332.50           6633          44.00       160.42
   64.97        3332.75           6637          45.00       164.78
   65.00        3333.00           6641          52.00       195.29
   65.03        3333.25           6644          44.00       160.42
   65.06        3333.50           6648          43.00       156.06
   65.10        3333.75           6652          53.00       199.65
   65.13        3334.00           6656          45.00       164.78
   65.16        3334.25           6659          51.00       190.93
   65.19        3334.50           6663          67.00       260.68
   65.22        3334.75           6667          84.00       334.79
   65.25        3335.00           6671         112.00       456.85
   65.28        3335.25           6674         123.00       504.80
   65.31        3335.50           6678         129.00       530.96
   65.34        3335.75           6682         149.00       618.15
   65.37        3336.00           6686         179.00       748.93
   65.40        3336.25           6689         194.00       814.32
   65.44        3336.50           6693         307.00      1306.94
   65.47        3336.75           6697         844.00      3648.18
   65.50        3337.00           6701        1948.00      8462.48
   65.53        3337.25           6704        2772.00     12056.67
   65.56        3337.50           6708        3923.00     17078.50
   65.59        3337.75           6712        5047.00     21983.98
   65.62        3338.00           6716        6234.00     27165.98
   65.65        3338.25           6719        7000.00     30510.92
   65.68        3338.50           6723        8148.00     35525.20
   65.71        3338.75           6727        9309.00     40597.80
   65.75        3339.00           6731       10407.00     45396.57
   65.78        3339.25           6734       11179.00     48771.40
   65.81        3339.50           6738       12331.00     53808.67
   65.84        3339.75           6742       13516.00     58991.85
   65.87        3340.00           6746       14819.00     64693.00
   65.90        3340.25           6750       15901.00     69428.68
   65.93        3340.50           6753       16612.00     72541.31
   65.96        3340.75           6757       17681.00     77222.28
   65.99        3341.00           6761       18858.00     82377.71
   66.03        3341.25           6765       19655.00     85869.58
   66.06        3341.50           6768       19990.00     87337.52
   66.09        3341.75           6772       20037.00     87543.49
   66.12        3342.00           6776       19865.00     86789.77
   66.15        3342.25           6780       19389.00     84704.09
   66.18        3342.50           6783       18770.00     81992.20
   66.21        3342.75           6787       17432.00     76131.84
   66.24        3343.00           6791       16461.00     71880.21
   66.27        3343.25           6795       15427.00     67353.91
   66.31        3343.50           6798       14468.00     63157.04
   66.34        3343.75           6802       13375.00     58375.03
   66.37        3344.00           6806       12191.00     53196.43
   66.40        3344.25           6810       11170.00     48732.05
   66.43        3344.50           6814       10018.00     43696.31
   66.46        3344.75           6817        9091.00     39645.21
   66.49        3345.00           6821        8078.00     35219.41
   66.52        3345.25           6825        6883.00     29999.96
   66.55        3345.50           6829        5680.00     24747.22
   66.59        3345.75           6832        4812.00     20958.25
   66.62        3346.00           6836        3670.00     15974.53
   66.65        3346.25           6840        2621.00     11397.97
   66.68        3346.50           6844        1459.00      6329.89
   66.71        3346.75           6847         757.00      3268.85
   66.74        3347.00           6851         244.00      1032.29
   66.77        3347.25           6855         124.00       509.16
   66.80        3347.50           6859          90.00       360.95
   66.83        3347.75           6863          96.00       387.10
   66.87        3348.00           6866          58.00       221.45
   66.90        3348.25           6870          43.00       156.06
   66.93        3348.50           6874          56.00       212.73
   66.96        3348.75           6878          43.00       156.06
   66.99        3349.00           6881          42.00       151.70
   67.02        3349.25           6885          47.00       173.50
   67.05        3349.50           6889          50.00       186.57
   67.08        3349.75           6893          50.00       186.57
   67.11        3350.00           6896          51.00       190.93
   67.14        3350.25           6900          47.00       173.50
   67.18        3350.50           6904          51.00       190.93
   67.21        3350.75           6908          42.00       151.70
   67.24        3351.00           6912          48.00       177.86
HL scan finished at 01:07:54
end
