************************************************************
  HL Scan of (1) Internal mercury lamp
************************************************************
Integration time is 0.2294 seconds per sample
dh230317Manchester 53.47 2.23 2.750537pr1000
************************************************************
Dead Time -------------------------  3E-08 
Number of Cycles Used -------------  4 
Starting Wavelength (Angstroms) ---  3331 
Final Wavelength (Angstoms) -------  3351 
Wavelength Increment (Angstroms) --  .25 
Filter Wheel #1 Position ---------- (1) Ground quartz diffuser (ND=2.32)
Filter Wheel #2 Position ---------- 



************************************************************
HL scan start time = 01:01:30
Dark Count =  6.8 


Time (GMT)  Wavelength (Ang)  Step Number  Raw Counts  Counts/Second

   62.03        3331.00           6610          48.00       179.60
   62.25        3331.25           6614          52.00       197.04
   62.29        3331.50           6618          59.00       227.55
   62.32        3331.75           6622          56.00       214.47
   62.35        3332.00           6626          52.00       197.04
   62.38        3332.25           6629          49.00       183.96
   62.41        3332.50           6633          47.00       175.24
   62.44        3332.75           6637          60.00       231.91
   62.47        3333.00           6641          51.00       192.68
   62.50        3333.25           6644          55.00       210.11
   62.53        3333.50           6648          55.00       210.11
   62.56        3333.75           6652          58.00       223.19
   62.59        3334.00           6656          66.00       258.07
   62.63        3334.25           6659          49.00       183.96
   62.66        3334.50           6663          68.00       266.79
   62.69        3334.75           6667         104.00       423.72
   62.72        3335.00           6671         114.00       467.31
   62.75        3335.25           6674         118.00       484.75
   62.78        3335.50           6678         155.00       646.05
   62.81        3335.75           6682         182.00       763.75
   62.84        3336.00           6686         199.00       837.86
   62.87        3336.25           6689         254.00      1077.63
   62.90        3336.50           6693         586.00      2525.04
   62.94        3336.75           6697        1610.00      6990.13
   62.97        3337.00           6701        3049.00     13266.83
   63.00        3337.25           6704        4142.00     18035.91
   63.03        3337.50           6708        5651.00     24622.37
   63.06        3337.75           6712        7083.00     30875.15
   63.09        3338.00           6716        8620.00     37589.01
   63.12        3338.25           6719        9727.00     42426.24
   63.15        3338.50           6723       10926.00     47667.07
   63.18        3338.75           6727       12296.00     53657.36
   63.22        3339.00           6731       13748.00     60008.55
   63.25        3339.25           6734       14863.00     64887.30
   63.28        3339.50           6738       16521.00     72144.65
   63.31        3339.75           6742       17853.00     77977.32
   63.34        3340.00           6746       19448.00     84964.33
   63.37        3340.25           6750       20809.00     90928.61
   63.40        3340.50           6753       21830.00     95404.32
   63.43        3340.75           6757       23101.00    100977.60
   63.46        3341.00           6761       24534.00    107263.50
   63.49        3341.25           6765       25473.00    111383.80
   63.53        3341.50           6768       25743.00    112568.70
   63.56        3341.75           6772       25725.00    112489.70
   63.59        3342.00           6776       25646.00    112143.00
   63.62        3342.25           6780       24394.00    106649.30
   63.65        3342.50           6783       23713.00    103661.90
   63.68        3342.75           6787       22136.00     96745.94
   63.71        3343.00           6791       20635.00     90165.98
   63.74        3343.25           6795       19154.00     83676.22
   63.77        3343.50           6798       18028.00     78743.78
   63.80        3343.75           6802       16588.00     72437.98
   63.83        3344.00           6806       15215.00     66427.81
   63.87        3344.25           6810       13692.00     59763.55
   63.90        3344.50           6814       12329.00     53801.68
   63.93        3344.75           6817       11147.00     48633.24
   63.96        3345.00           6821        9720.00     42395.65
   63.99        3345.25           6825        8361.00     36457.47
   64.02        3345.50           6829        6759.00     29460.20
   64.05        3345.75           6832        5645.00     24596.18
   64.08        3346.00           6836        4161.00     18118.83
   64.11        3346.25           6840        2753.00     11975.53
   64.15        3346.50           6844        1437.00      6235.69
   64.18        3346.75           6847         662.00      2856.39
   64.21        3347.00           6851         255.00      1081.99
   64.24        3347.25           6855         156.00       650.41
   64.27        3347.50           6859         139.00       576.30
   64.30        3347.75           6863         106.00       432.44
   64.33        3348.00           6866          87.00       349.61
   64.36        3348.25           6870          77.00       306.02
   64.39        3348.50           6874          62.00       240.63
   64.42        3348.75           6878          53.00       201.40
   64.45        3349.00           6881          60.00       231.91
   64.48        3349.25           6885          51.00       192.68
   64.52        3349.50           6889          58.00       223.19
   64.55        3349.75           6893          55.00       210.11
   64.58        3350.00           6896          62.00       240.63
   64.61        3350.25           6900          56.00       214.47
   64.64        3350.50           6904          57.00       218.83
   64.67        3350.75           6908          53.00       201.40
   64.70        3351.00           6912          54.00       205.76
HL scan finished at 01:05:22
end
