************************************************************
  HL Scan of (1) Internal mercury lamp
************************************************************
Integration time is 0.2294 seconds per sample
dh060417Manchester 53.47 2.23 2.804185pr1000
************************************************************
Dead Time -------------------------  3E-08 
Number of Cycles Used -------------  4 
Starting Wavelength (Angstroms) ---  3331 
Final Wavelength (Angstoms) -------  3351 
Wavelength Increment (Angstroms) --  .25 
Filter Wheel #1 Position ---------- (1) Ground quartz diffuser (ND=2.32)
Filter Wheel #2 Position ---------- 



************************************************************
HL scan start time = 00:57:55
Dark Count =  6.2 


Time (GMT)  Wavelength (Ang)  Step Number  Raw Counts  Counts/Second

   58.44        3331.00           6610          54.00       208.37
   58.66        3331.25           6614          50.00       190.93
   58.70        3331.50           6618          57.00       221.45
   58.73        3331.75           6622          58.00       225.81
   58.76        3332.00           6626          57.00       221.45
   58.79        3332.25           6629          49.00       186.57
   58.82        3332.50           6633          55.00       212.73
   58.85        3332.75           6637          58.00       225.81
   58.88        3333.00           6641          52.00       199.65
   58.91        3333.25           6644          55.00       212.73
   58.94        3333.50           6648          53.00       204.01
   58.97        3333.75           6652          47.00       177.86
   59.00        3334.00           6656          55.00       212.73
   59.03        3334.25           6659          53.00       204.01
   59.06        3334.50           6663          72.00       286.84
   59.10        3334.75           6667          88.00       356.59
   59.13        3335.00           6671         120.00       496.08
   59.16        3335.25           6674         129.00       535.32
   59.19        3335.50           6678         159.00       666.10
   59.22        3335.75           6682         161.00       674.82
   59.25        3336.00           6686         195.00       823.04
   59.28        3336.25           6689         263.00      1119.48
   59.31        3336.50           6693         448.00      1926.01
   59.34        3336.75           6697        1211.00      5252.79
   59.37        3337.00           6701        2548.00     11083.90
   59.40        3337.25           6704        3650.00     15891.62
   59.43        3337.50           6708        5078.00     22123.66
   59.47        3337.75           6712        6653.00     28999.94
   59.50        3338.00           6716        8066.00     35171.35
   59.53        3338.25           6719        9197.00     40112.76
   59.56        3338.50           6723       10659.00     46502.49
   59.59        3338.75           6727       12117.00     52877.19
   59.62        3339.00           6731       13443.00     58676.88
   59.65        3339.25           6734       14507.00     63332.07
   59.68        3339.50           6738       15954.00     69665.06
   59.71        3339.75           6742       17460.00     76258.83
   59.74        3340.00           6746       18910.00     82609.90
   59.78        3340.25           6750       20241.00     88441.85
   59.81        3340.50           6753       21245.00     92842.37
   59.84        3340.75           6757       22725.00     99331.31
   59.87        3341.00           6761       24097.00    105349.00
   59.90        3341.25           6765       25347.00    110833.50
   59.93        3341.50           6768       25734.00    112531.80
   59.96        3341.75           6772       25766.00    112672.30
   59.99        3342.00           6776       25706.00    112409.00
   60.02        3342.25           6780       24879.00    108779.90
   60.06        3342.50           6783       24023.00    105024.40
   60.09        3342.75           6787       22496.00     98327.11
   60.12        3343.00           6791       21192.00     92610.04
   60.15        3343.25           6795       19598.00     85624.21
   60.18        3343.50           6798       18644.00     81444.62
   60.21        3343.75           6802       17186.00     75058.98
   60.24        3344.00           6806       15614.00     68176.80
   60.27        3344.25           6810       14250.00     62207.53
   60.30        3344.50           6814       12767.00     55719.92
   60.34        3344.75           6817       11794.00     51464.76
   60.37        3345.00           6821       10427.00     45488.36
   60.40        3345.25           6825        8821.00     38469.83
   60.43        3345.50           6829        7377.00     32161.79
   60.46        3345.75           6832        6368.00     27755.45
   60.49        3346.00           6836        4916.00     21416.54
   60.52        3346.25           6840        3420.00     14888.08
   60.55        3346.50           6844        2016.00      8763.42
   60.58        3346.75           6847        1011.00      4380.70
   60.61        3347.00           6851         333.00      1424.65
   60.64        3347.25           6855         194.00       818.68
   60.68        3347.50           6859         145.00       605.07
   60.71        3347.75           6863         106.00       435.05
   60.74        3348.00           6866          96.00       391.46
   60.77        3348.25           6870          68.00       269.40
   60.80        3348.50           6874          64.00       251.96
   60.83        3348.75           6878          60.00       234.53
   60.86        3349.00           6881          59.00       230.17
   60.89        3349.25           6885          58.00       225.81
   60.92        3349.50           6889          61.00       238.89
   60.96        3349.75           6893          59.00       230.17
   60.99        3350.00           6896          50.00       190.93
   61.02        3350.25           6900          48.00       182.22
   61.05        3350.50           6904          55.00       212.73
   61.08        3350.75           6908          66.00       260.68
   61.11        3351.00           6912          46.00       173.50
HL scan finished at 01:01:46
end
