************************************************************
  HL Scan of (1) Internal mercury lamp
************************************************************
Integration time is 0.2294 seconds per sample
dh060418Manchester 53.47 2.23 2.804185pr1000
************************************************************
Dead Time -------------------------  3E-08 
Number of Cycles Used -------------  4 
Starting Wavelength (Angstroms) ---  3331 
Final Wavelength (Angstoms) -------  3351 
Wavelength Increment (Angstroms) --  .25 
Filter Wheel #1 Position ---------- (1) Ground quartz diffuser (ND=2.32)
Filter Wheel #2 Position ---------- 



************************************************************
HL scan start time = 00:57:31
Dark Count =  8.3 


Time (GMT)  Wavelength (Ang)  Step Number  Raw Counts  Counts/Second

   58.04        3331.00           6610          55.00       203.58
   58.27        3331.25           6614          50.00       181.78
   58.30        3331.50           6618          51.00       186.14
   58.33        3331.75           6622          53.00       194.86
   58.36        3332.00           6626          49.00       177.42
   58.39        3332.25           6629          53.00       194.86
   58.42        3332.50           6633          57.00       212.29
   58.45        3332.75           6637          47.00       168.70
   58.48        3333.00           6641          61.00       229.73
   58.51        3333.25           6644          50.00       181.78
   58.54        3333.50           6648          51.00       186.14
   58.57        3333.75           6652          58.00       216.65
   58.60        3334.00           6656          61.00       229.73
   58.64        3334.25           6659          60.00       225.37
   58.67        3334.50           6663          75.00       290.76
   58.70        3334.75           6667          92.00       364.87
   58.73        3335.00           6671         115.00       465.13
   58.76        3335.25           6674         139.00       569.76
   58.79        3335.50           6678         154.00       635.15
   58.82        3335.75           6682         171.00       709.26
   58.85        3336.00           6686         206.00       861.84
   58.88        3336.25           6689         268.00      1132.12
   58.91        3336.50           6693         435.00      1860.17
   58.94        3336.75           6697        1333.00      5775.63
   58.98        3337.00           6701        2714.00     11798.86
   59.01        3337.25           6704        3831.00     16672.24
   59.04        3337.50           6708        5354.00     23319.27
   59.07        3337.75           6712        6897.00     30056.30
   59.10        3338.00           6716        8194.00     35721.35
   59.13        3338.25           6719        9216.00     40186.61
   59.16        3338.50           6723       10805.00     47131.55
   59.19        3338.75           6727       12272.00     53545.85
   59.22        3339.00           6731       13830.00     60360.73
   59.25        3339.25           6734       14952.00     65270.23
   59.29        3339.50           6738       16246.00     70934.15
   59.32        3339.75           6742       17817.00     77813.08
   59.35        3340.00           6746       19400.00     84747.46
   59.38        3340.25           6750       20846.00     91084.21
   59.41        3340.50           6753       21889.00     95656.41
   59.44        3340.75           6757       23294.00    101817.50
   59.47        3341.00           6761       24690.00    107941.40
   59.50        3341.25           6765       25559.00    111754.60
   59.53        3341.50           6768       26053.00    113922.70
   59.57        3341.75           6772       25994.00    113663.70
   59.60        3342.00           6776       25737.00    112535.80
   59.63        3342.25           6780       24890.00    108818.90
   59.66        3342.50           6783       23973.00    104795.80
   59.69        3342.75           6787       22647.00     98980.05
   59.72        3343.00           6791       21209.00     92675.35
   59.75        3343.25           6795       19735.00     86215.29
   59.78        3343.50           6798       18530.00     80936.04
   59.81        3343.75           6802       17045.00     74432.36
   59.84        3344.00           6806       15727.00     68662.22
   59.87        3344.25           6810       14031.00     61240.14
   59.90        3344.50           6814       12675.00     55308.35
   59.94        3344.75           6817       11643.00     50795.31
   59.97        3345.00           6821       10103.00     44063.01
   60.00        3345.25           6825        8584.00     37425.17
   60.03        3345.50           6829        7051.00     30728.84
   60.06        3345.75           6832        5903.00     25716.00
   60.09        3346.00           6836        4387.00     19098.56
   60.12        3346.25           6840        3092.00     13447.88
   60.15        3346.50           6844        1670.00      7245.25
   60.18        3346.75           6847         760.00      3277.13
   60.21        3347.00           6851         262.00      1105.97
   60.24        3347.25           6855         163.00       674.38
   60.27        3347.50           6859         119.00       482.57
   60.30        3347.75           6863         101.00       404.10
   60.34        3348.00           6866          76.00       295.12
   60.37        3348.25           6870          64.00       242.81
   60.40        3348.50           6874          55.00       203.58
   60.43        3348.75           6878          60.00       225.37
   60.46        3349.00           6881          49.00       177.42
   60.49        3349.25           6885          57.00       212.29
   60.52        3349.50           6889          62.00       234.09
   60.55        3349.75           6893          56.00       207.94
   60.58        3350.00           6896          49.00       177.42
   60.61        3350.25           6900          49.00       177.42
   60.64        3350.50           6904          53.00       194.86
   60.67        3350.75           6908          54.00       199.22
   60.70        3351.00           6912          55.00       203.58
HL scan finished at 01:01:22
end
