************************************************************
  HL Scan of (1) Internal mercury lamp
************************************************************
Integration time is 0.2294 seconds per sample
dh180518Manchester 53.47 2.23 2.804185pr1000
************************************************************
Dead Time -------------------------  3E-08 
Number of Cycles Used -------------  4 
Starting Wavelength (Angstroms) ---  3331 
Final Wavelength (Angstoms) -------  3351 
Wavelength Increment (Angstroms) --  .25 
Filter Wheel #1 Position ---------- (1) Ground quartz diffuser (ND=2.32)
Filter Wheel #2 Position ---------- 



************************************************************
HL scan start time = 00:51:32
Dark Count =  7 


Time (GMT)  Wavelength (Ang)  Step Number  Raw Counts  Counts/Second

   52.06        3331.00           6610          55.00       209.24
   52.29        3331.25           6614          45.00       165.65
   52.32        3331.50           6618          57.00       217.96
   52.35        3331.75           6622          60.00       231.04
   52.38        3332.00           6626          50.00       187.45
   52.41        3332.25           6629          53.00       200.52
   52.44        3332.50           6633          45.00       165.65
   52.47        3332.75           6637          53.00       200.52
   52.50        3333.00           6641          49.00       183.09
   52.53        3333.25           6644          48.00       178.73
   52.56        3333.50           6648          59.00       226.68
   52.59        3333.75           6652          57.00       217.96
   52.63        3334.00           6656          50.00       187.45
   52.66        3334.25           6659          59.00       226.68
   52.69        3334.50           6663          72.00       283.35
   52.72        3334.75           6667          83.00       331.30
   52.75        3335.00           6671         114.00       466.44
   52.78        3335.25           6674         133.00       549.27
   52.81        3335.50           6678         141.00       584.14
   52.84        3335.75           6682         178.00       745.44
   52.87        3336.00           6686         200.00       841.35
   52.90        3336.25           6689         254.00      1076.76
   52.93        3336.50           6693         330.00      1408.08
   52.96        3336.75           6697         915.00      3958.62
   53.00        3337.00           6701        2199.00      9558.10
   53.03        3337.25           6704        3296.00     14343.57
   53.06        3337.50           6708        4739.00     20640.50
   53.09        3337.75           6712        6168.00     26878.68
   53.12        3338.00           6716        7558.00     32948.86
   53.15        3338.25           6719        8596.00     37483.28
   53.18        3338.50           6723       10069.00     43920.08
   53.21        3338.75           6727       11489.00     50127.64
   53.24        3339.00           6731       12783.00     55786.40
   53.27        3339.25           6734       13946.00     60873.92
   53.31        3339.50           6738       15320.00     66886.48
   53.34        3339.75           6742       16886.00     73741.86
   53.37        3340.00           6746       18273.00     79816.00
   53.40        3340.25           6750       19667.00     85923.03
   53.43        3340.50           6753       20804.00     90905.81
   53.46        3340.75           6757       22183.00     96951.16
   53.49        3341.00           6761       23483.00    102652.20
   53.52        3341.25           6765       24690.00    107947.10
   53.55        3341.50           6768       25276.00    110518.40
   53.58        3341.75           6772       25268.00    110483.30
   53.62        3342.00           6776       25349.00    110838.70
   53.65        3342.25           6780       24916.00    108938.70
   53.68        3342.50           6783       24105.00    105380.60
   53.71        3342.75           6787       22623.00     98880.51
   53.74        3343.00           6791       21495.00     93934.79
   53.77        3343.25           6795       19932.00     87084.24
   53.80        3343.50           6798       18845.00     82321.63
   53.83        3343.75           6802       17349.00     75769.25
   53.86        3344.00           6806       15930.00     69556.50
   53.89        3344.25           6810       14569.00     63599.88
   53.93        3344.50           6814       13209.00     57649.76
   53.96        3344.75           6817       12049.00     52576.33
   53.99        3345.00           6821       10598.00     46232.35
   54.02        3345.25           6825        9290.00     40515.65
   54.05        3345.50           6829        7724.00     33673.93
   54.08        3345.75           6832        6617.00     28839.24
   54.11        3346.00           6836        5163.00     22491.20
   54.14        3346.25           6840        3862.00     16813.19
   54.17        3346.50           6844        2451.00     10657.29
   54.20        3346.75           6847        1380.00      5986.25
   54.24        3347.00           6851         461.00      1979.19
   54.27        3347.25           6855         207.00       871.86
   54.30        3347.50           6859         127.00       523.11
   54.33        3347.75           6863         109.00       444.64
   54.36        3348.00           6866          81.00       322.58
   54.39        3348.25           6870          67.00       261.55
   54.42        3348.50           6874          62.00       239.76
   54.45        3348.75           6878          59.00       226.68
   54.48        3349.00           6881          54.00       204.88
   54.51        3349.25           6885          64.00       248.48
   54.54        3349.50           6889          60.00       231.04
   54.57        3349.75           6893          50.00       187.45
   54.61        3350.00           6896          55.00       209.24
   54.64        3350.25           6900          49.00       183.09
   54.67        3350.50           6904          54.00       204.88
   54.70        3350.75           6908          53.00       200.52
   54.73        3351.00           6912          41.00       148.21
HL scan finished at 00:55:23
end
