************************************************************
  HL Scan of (1) Internal mercury lamp
************************************************************
Integration time is 0.2294 seconds per sample
dh220618Manchester 53.47 2.23 2.804185pr1000
************************************************************
Dead Time -------------------------  3E-08 
Number of Cycles Used -------------  4 
Starting Wavelength (Angstroms) ---  3331 
Final Wavelength (Angstoms) -------  3351 
Wavelength Increment (Angstroms) --  .25 
Filter Wheel #1 Position ---------- (1) Ground quartz diffuser (ND=2.32)
Filter Wheel #2 Position ---------- 



************************************************************
HL scan start time = 00:57:29
Dark Count =  7.5 


Time (GMT)  Wavelength (Ang)  Step Number  Raw Counts  Counts/Second

   58.01        3331.00           6610          59.00       224.50
   58.24        3331.25           6614          58.00       220.14
   58.27        3331.50           6618          52.00       193.99
   58.30        3331.75           6622          50.00       185.27
   58.33        3332.00           6626          42.00       150.39
   58.36        3332.25           6629          47.00       172.19
   58.39        3332.50           6633          53.00       198.34
   58.42        3332.75           6637          48.00       176.55
   58.45        3333.00           6641          52.00       193.99
   58.48        3333.25           6644          51.00       189.63
   58.51        3333.50           6648          55.00       207.06
   58.55        3333.75           6652          49.00       180.91
   58.58        3334.00           6656          54.00       202.70
   58.61        3334.25           6659          64.00       246.30
   58.64        3334.50           6663          91.00       364.00
   58.67        3334.75           6667          97.00       390.15
   58.70        3335.00           6671         114.00       464.26
   58.73        3335.25           6674         133.00       547.09
   58.76        3335.50           6678         166.00       690.95
   58.79        3335.75           6682         184.00       769.42
   58.82        3336.00           6686         194.00       813.01
   58.85        3336.25           6689         235.00       991.75
   58.89        3336.50           6693         437.00      1872.38
   58.92        3336.75           6697        1319.00      5718.07
   58.95        3337.00           6701        2658.00     11558.06
   58.98        3337.25           6704        3601.00     15672.15
   59.01        3337.50           6708        4962.00     21611.66
   59.04        3337.75           6712        6326.00     27566.38
   59.07        3338.00           6716        7618.00     33208.74
   59.10        3338.25           6719        8681.00     37852.46
   59.13        3338.50           6723       10029.00     43743.07
   59.16        3338.75           6727       11524.00     50278.49
   59.19        3339.00           6731       12829.00     55985.41
   59.23        3339.25           6734       13805.00     60254.85
   59.26        3339.50           6738       15233.00     66503.52
   59.29        3339.75           6742       16800.00     73363.13
   59.32        3340.00           6746       18006.00     78644.35
   59.35        3340.25           6750       19324.00     84417.96
   59.38        3340.50           6753       20313.00     88751.69
   59.41        3340.75           6757       21764.00     95111.89
   59.44        3341.00           6761       23001.00    100536.00
   59.47        3341.25           6765       23971.00    104790.60
   59.50        3341.50           6768       24355.00    106475.10
   59.54        3341.75           6772       24485.00    107045.50
   59.57        3342.00           6776       24348.00    106444.40
   59.60        3342.25           6780       23440.00    102461.40
   59.63        3342.50           6783       22610.00     98821.31
   59.66        3342.75           6787       21289.00     93029.54
   59.69        3343.00           6791       19871.00     86814.74
   59.72        3343.25           6795       18503.00     80821.28
   59.75        3343.50           6798       17586.00     76804.93
   59.78        3343.75           6802       16242.00     70920.13
   59.82        3344.00           6806       14793.00     64577.91
   59.85        3344.25           6810       13385.00     58417.46
   59.88        3344.50           6814       11945.00     52119.36
   59.91        3344.75           6817       11021.00     48079.33
   59.94        3345.00           6821        9674.00     42191.56
   59.97        3345.25           6825        8291.00     36148.60
   60.00        3345.50           6829        6824.00     29741.00
   60.03        3345.75           6832        5735.00     24986.03
   60.06        3346.00           6836        4342.00     18905.66
   60.09        3346.25           6840        2898.00     12605.03
   60.12        3346.50           6844        1664.00      7222.58
   60.16        3346.75           6847         799.00      3450.66
   60.19        3347.00           6851         288.00      1222.80
   60.22        3347.25           6855         152.00       629.92
   60.25        3347.50           6859         111.00       451.18
   60.28        3347.75           6863          86.00       342.20
   60.31        3348.00           6866          65.00       250.66
   60.34        3348.25           6870          57.00       215.78
   60.37        3348.50           6874          55.00       207.06
   60.40        3348.75           6878          57.00       215.78
   60.43        3349.00           6881          52.00       193.99
   60.46        3349.25           6885          50.00       185.27
   60.49        3349.50           6889          57.00       215.78
   60.53        3349.75           6893          50.00       185.27
   60.56        3350.00           6896          47.00       172.19
   60.59        3350.25           6900          54.00       202.70
   60.62        3350.50           6904          51.00       189.63
   60.65        3350.75           6908          59.00       224.50
   60.68        3351.00           6912          56.00       211.42
HL scan finished at 01:01:21
end
