************************************************************
  HL Scan of (1) Internal mercury lamp
************************************************************
Integration time is 0.2294 seconds per sample
dh290618Manchester 53.47 2.23 2.857833pr1000
************************************************************
Dead Time -------------------------  3E-08 
Number of Cycles Used -------------  4 
Starting Wavelength (Angstroms) ---  3331 
Final Wavelength (Angstoms) -------  3351 
Wavelength Increment (Angstroms) --  .25 
Filter Wheel #1 Position ---------- (1) Ground quartz diffuser (ND=2.32)
Filter Wheel #2 Position ---------- 



************************************************************
HL scan start time = 01:00:37
Dark Count =  5.9 


Time (GMT)  Wavelength (Ang)  Step Number  Raw Counts  Counts/Second

   61.15        3331.00           6610          56.00       218.40
   61.37        3331.25           6614          49.00       187.88
   61.40        3331.50           6618          51.00       196.60
   61.43        3331.75           6622          52.00       200.96
   61.46        3332.00           6626          49.00       187.88
   61.49        3332.25           6629          50.00       192.24
   61.52        3332.50           6633          50.00       192.24
   61.55        3332.75           6637          51.00       196.60
   61.59        3333.00           6641          52.00       200.96
   61.62        3333.25           6644          57.00       222.76
   61.65        3333.50           6648          55.00       214.04
   61.68        3333.75           6652          49.00       187.88
   61.71        3334.00           6656          41.00       153.01
   61.74        3334.25           6659          70.00       279.43
   61.77        3334.50           6663          88.00       357.89
   61.80        3334.75           6667         102.00       418.92
   61.83        3335.00           6671         124.00       514.83
   61.86        3335.25           6674         149.00       623.81
   61.90        3335.50           6678         177.00       745.88
   61.93        3335.75           6682         191.00       806.91
   61.96        3336.00           6686         216.00       915.89
   61.99        3336.25           6689         259.00      1103.35
   62.02        3336.50           6693         369.00      1582.90
   62.05        3336.75           6697        1158.00      5022.99
   62.08        3337.00           6701        2516.00     10945.62
   62.11        3337.25           6704        3673.00     15993.29
   62.14        3337.50           6708        5079.00     22129.34
   62.18        3337.75           6712        6461.00     28162.85
   62.21        3338.00           6716        7783.00     33936.45
   62.24        3338.25           6719        8907.00     38846.90
   62.27        3338.50           6723       10270.00     44803.42
   62.30        3338.75           6727       11571.00     50490.98
   62.33        3339.00           6731       13175.00     57505.84
   62.36        3339.25           6734       14160.00     61815.05
   62.39        3339.50           6738       15631.00     68252.52
   62.42        3339.75           6742       16902.00     73816.73
   62.46        3340.00           6746       18231.00     79636.85
   62.49        3340.25           6750       19632.00     85774.49
   62.52        3340.50           6753       20586.00     89955.16
   62.55        3340.75           6757       21969.00     96017.68
   62.58        3341.00           6761       23469.00    102595.60
   62.61        3341.25           6765       24645.00    107754.50
   62.64        3341.50           6768       25175.00    110080.00
   62.67        3341.75           6772       25228.00    110312.60
   62.70        3342.00           6776       25116.00    109821.10
   62.74        3342.25           6780       24382.00    106600.60
   62.77        3342.50           6783       23692.00    103573.70
   62.80        3342.75           6787       22279.00     97376.91
   62.83        3343.00           6791       20829.00     91020.21
   62.86        3343.25           6795       19349.00     84534.51
   62.89        3343.50           6798       18209.00     79540.49
   62.92        3343.75           6802       16951.00     74031.28
   62.95        3344.00           6806       15379.00     67149.52
   62.98        3344.25           6810       13987.00     61058.13
   63.02        3344.50           6814       12568.00     54850.87
   63.05        3344.75           6817       11516.00     50250.50
   63.08        3345.00           6821       10193.00     44466.87
   63.11        3345.25           6825        8718.00     38021.11
   63.14        3345.50           6829        7346.00     32027.71
   63.17        3345.75           6832        6213.00     27079.97
   63.20        3346.00           6836        4817.00     20985.75
   63.23        3346.25           6840        3380.00     14714.86
   63.26        3346.50           6844        1852.00      8049.46
   63.30        3346.75           6847        1017.00      4408.17
   63.33        3347.00           6851         291.00      1242.85
   63.36        3347.25           6855         155.00       649.97
   63.39        3347.50           6859         112.00       462.52
   63.42        3347.75           6863          90.00       366.61
   63.45        3348.00           6866          59.00       231.48
   63.48        3348.25           6870          55.00       214.04
   63.51        3348.50           6874          57.00       222.76
   63.54        3348.75           6878          51.00       196.60
   63.57        3349.00           6881          60.00       235.83
   63.61        3349.25           6885          56.00       218.40
   63.64        3349.50           6889          56.00       218.40
   63.67        3349.75           6893          63.00       248.91
   63.70        3350.00           6896          45.00       170.45
   63.73        3350.25           6900          56.00       218.40
   63.76        3350.50           6904          51.00       196.60
   63.79        3350.75           6908          47.00       179.16
   63.82        3351.00           6912          50.00       192.24
HL scan finished at 01:04:29
end
