************************************************************
  HL Scan of (1) Internal mercury lamp
************************************************************
Integration time is 0.2294 seconds per sample
dh290617Manchester 53.47 2.23 2.804185pr1000
************************************************************
Dead Time -------------------------  3E-08 
Number of Cycles Used -------------  4 
Starting Wavelength (Angstroms) ---  3331 
Final Wavelength (Angstoms) -------  3351 
Wavelength Increment (Angstroms) --  .25 
Filter Wheel #1 Position ---------- (1) Ground quartz diffuser (ND=2.32)
Filter Wheel #2 Position ---------- 



************************************************************
HL scan start time = 00:59:11
Dark Count =  5.9 


Time (GMT)  Wavelength (Ang)  Step Number  Raw Counts  Counts/Second

   59.71        3331.00           6610          54.00       209.68
   59.93        3331.25           6614          57.00       222.76
   59.97        3331.50           6618          49.00       187.88
   60.00        3331.75           6622          58.00       227.12
   60.03        3332.00           6626          54.00       209.68
   60.06        3332.25           6629          61.00       240.19
   60.09        3332.50           6633          58.00       227.12
   60.12        3332.75           6637          53.00       205.32
   60.15        3333.00           6641          52.00       200.96
   60.18        3333.25           6644          58.00       227.12
   60.21        3333.50           6648          55.00       214.04
   60.24        3333.75           6652          55.00       214.04
   60.27        3334.00           6656          57.00       222.76
   60.30        3334.25           6659          55.00       214.04
   60.33        3334.50           6663          83.00       336.10
   60.37        3334.75           6667          98.00       401.49
   60.40        3335.00           6671         106.00       436.36
   60.43        3335.25           6674         132.00       549.70
   60.46        3335.50           6678         146.00       610.73
   60.49        3335.75           6682         166.00       697.92
   60.52        3336.00           6686         206.00       872.30
   60.55        3336.25           6689         255.00      1085.91
   60.58        3336.50           6693         439.00      1888.08
   60.61        3336.75           6697        1271.00      5515.73
   60.64        3337.00           6701        2766.00     12036.17
   60.67        3337.25           6704        3941.00     17162.72
   60.70        3337.50           6708        5446.00     23731.36
   60.74        3337.75           6712        7011.00     30564.63
   60.77        3338.00           6716        8569.00     37370.12
   60.80        3338.25           6719        9815.00     42814.77
   60.83        3338.50           6723       11364.00     49585.92
   60.86        3338.75           6727       12758.00     55681.87
   60.89        3339.00           6731       14311.00     62475.75
   60.92        3339.25           6734       15430.00     67372.74
   60.95        3339.50           6738       16967.00     74101.34
   60.98        3339.75           6742       18619.00     81336.41
   61.02        3340.00           6746       20120.00     87912.90
   61.05        3340.25           6750       21722.00     94934.78
   61.08        3340.50           6753       22879.00    100008.00
   61.11        3340.75           6757       24563.00    107394.70
   61.14        3341.00           6761       25956.00    113507.50
   61.17        3341.25           6765       27141.00    118709.30
   61.20        3341.50           6768       27521.00    120377.70
   61.23        3341.75           6772       27500.00    120285.50
   61.26        3342.00           6776       27313.00    119464.40
   61.29        3342.25           6780       26478.00    115798.70
   61.32        3342.50           6783       25458.00    111321.90
   61.36        3342.75           6787       24057.00    105174.80
   61.39        3343.00           6791       22724.00     99328.24
   61.42        3343.25           6795       20967.00     91625.09
   61.45        3343.50           6798       19928.00     87071.52
   61.48        3343.75           6802       18352.00     80166.85
   61.51        3344.00           6806       16869.00     73672.25
   61.54        3344.25           6810       15400.00     67241.44
   61.57        3344.50           6814       13590.00     59321.26
   61.60        3344.75           6817       12338.00     53844.97
   61.64        3345.00           6821       11006.00     48020.75
   61.67        3345.25           6825        9454.00     41237.12
   61.70        3345.50           6829        7965.00     34731.46
   61.73        3345.75           6832        6885.00     30014.37
   61.76        3346.00           6836        5237.00     22819.02
   61.79        3346.25           6840        3720.00     16198.37
   61.82        3346.50           6844        2240.00      9741.73
   61.85        3346.75           6847        1127.00      4887.81
   61.88        3347.00           6851         359.00      1539.30
   61.91        3347.25           6855         206.00       872.30
   61.94        3347.50           6859         142.00       593.30
   61.98        3347.75           6863         117.00       484.31
   62.01        3348.00           6866         103.00       423.28
   62.04        3348.25           6870          80.00       323.02
   62.07        3348.50           6874          58.00       227.12
   62.10        3348.75           6878          65.00       257.63
   62.13        3349.00           6881          57.00       222.76
   62.16        3349.25           6885          47.00       179.16
   62.19        3349.50           6889          54.00       209.68
   62.22        3349.75           6893          50.00       192.24
   62.25        3350.00           6896          53.00       205.32
   62.28        3350.25           6900          56.00       218.40
   62.32        3350.50           6904          56.00       218.40
   62.35        3350.75           6908          60.00       235.83
   62.38        3351.00           6912          56.00       218.40
HL scan finished at 01:03:02
end
