************************************************************
  HL Scan of (1) Internal mercury lamp
************************************************************
Integration time is 0.2294 seconds per sample
dh170818Manchester 53.47 2.23 2.804185pr1000
************************************************************
Dead Time -------------------------  3E-08 
Number of Cycles Used -------------  4 
Starting Wavelength (Angstroms) ---  3331 
Final Wavelength (Angstoms) -------  3351 
Wavelength Increment (Angstroms) --  .25 
Filter Wheel #1 Position ---------- (1) Ground quartz diffuser (ND=2.32)
Filter Wheel #2 Position ---------- 



************************************************************
HL scan start time = 00:59:32
Dark Count =  5.3 


Time (GMT)  Wavelength (Ang)  Step Number  Raw Counts  Counts/Second

   60.06        3331.00           6610          39.00       146.91
   60.29        3331.25           6614          46.00       177.42
   60.32        3331.50           6618          41.00       155.62
   60.35        3331.75           6622          49.00       190.50
   60.38        3332.00           6626          39.00       146.91
   60.41        3332.25           6629          54.00       212.29
   60.44        3332.50           6633          50.00       194.86
   60.47        3332.75           6637          49.00       190.50
   60.50        3333.00           6641          41.00       155.62
   60.53        3333.25           6644          52.00       203.58
   60.56        3333.50           6648          50.00       194.86
   60.59        3333.75           6652          46.00       177.42
   60.62        3334.00           6656          49.00       190.50
   60.65        3334.25           6659          57.00       225.37
   60.68        3334.50           6663          73.00       295.12
   60.71        3334.75           6667          78.00       316.92
   60.74        3335.00           6671         101.00       417.18
   60.77        3335.25           6674         129.00       539.24
   60.80        3335.50           6678         138.00       578.48
   60.84        3335.75           6682         174.00       735.41
   60.87        3336.00           6686         178.00       752.85
   60.90        3336.25           6689         214.00       909.79
   60.93        3336.50           6693         406.00      1746.82
   60.96        3336.75           6697        1173.00      5091.01
   60.99        3337.00           6701        2431.00     10577.46
   61.02        3337.25           6704        3330.00     14499.33
   61.05        3337.50           6708        4653.00     20272.57
   61.08        3337.75           6712        5868.00     25576.29
   61.11        3338.00           6716        7090.00     30912.27
   61.14        3338.25           6719        7961.00     34716.61
   61.17        3338.50           6723        9221.00     40221.57
   61.21        3338.75           6727       10608.00     46283.49
   61.24        3339.00           6731       11785.00     51429.34
   61.27        3339.25           6734       12642.00     55177.14
   61.30        3339.50           6738       14007.00     61148.26
   61.33        3339.75           6742       15072.00     65808.53
   61.36        3340.00           6746       16466.00     71910.41
   61.39        3340.25           6750       17651.00     77099.22
   61.42        3340.50           6753       18535.00     80971.08
   61.45        3340.75           6757       19754.00     86311.69
   61.48        3341.00           6761       21006.00     91798.68
   61.52        3341.25           6765       21947.00     95923.86
   61.55        3341.50           6768       22367.00     97765.41
   61.58        3341.75           6772       22255.00     97274.31
   61.61        3342.00           6776       22157.00     96844.59
   61.64        3342.25           6780       21441.00     93705.52
   61.67        3342.50           6783       20687.00     90400.46
   61.70        3342.75           6787       19445.00     84957.77
   61.73        3343.00           6791       18107.00     79096.36
   61.76        3343.25           6795       16850.00     73591.68
   61.79        3343.50           6798       15920.00     69520.18
   61.83        3343.75           6802       14706.00     64206.82
   61.86        3344.00           6806       13442.00     58676.44
   61.89        3344.25           6810       12221.00     53335.93
   61.92        3344.50           6814       10963.00     47835.39
   61.95        3344.75           6817       10116.00     44132.94
   61.98        3345.00           6821        8849.00     38596.11
   62.01        3345.25           6825        7533.00     32847.09
   62.04        3345.50           6829        6284.00     27392.60
   62.07        3345.75           6832        5282.00     23018.07
   62.10        3346.00           6836        4013.00     17479.52
   62.13        3346.25           6840        2768.00     12047.51
   62.16        3346.50           6844        1531.00      6652.16
   62.19        3346.75           6847         719.00      3111.45
   62.22        3347.00           6851         232.00       988.26
   62.26        3347.25           6855         121.00       504.37
   62.29        3347.50           6859         107.00       443.34
   62.32        3347.75           6863          79.00       321.28
   62.35        3348.00           6866          74.00       299.48
   62.38        3348.25           6870          52.00       203.58
   62.41        3348.50           6874          51.00       199.22
   62.44        3348.75           6878          44.00       168.70
   62.47        3349.00           6881          44.00       168.70
   62.50        3349.25           6885          49.00       190.50
   62.53        3349.50           6889          45.00       173.06
   62.57        3349.75           6893          39.00       146.91
   62.60        3350.00           6896          55.00       216.65
   62.63        3350.25           6900          41.00       155.62
   62.66        3350.50           6904          48.00       186.14
   62.69        3350.75           6908          42.00       159.98
   62.72        3351.00           6912          46.00       177.42
HL scan finished at 01:03:23
end
