************************************************************
  HL Scan of (1) Internal mercury lamp
************************************************************
Integration time is 0.2294 seconds per sample
dh240818Manchester 53.47 2.23 2.804185pr1000
************************************************************
Dead Time -------------------------  3E-08 
Number of Cycles Used -------------  4 
Starting Wavelength (Angstroms) ---  3331 
Final Wavelength (Angstoms) -------  3351 
Wavelength Increment (Angstroms) --  .25 
Filter Wheel #1 Position ---------- (1) Ground quartz diffuser (ND=2.32)
Filter Wheel #2 Position ---------- 



************************************************************
HL scan start time = 00:58:12
Dark Count =  8 


Time (GMT)  Wavelength (Ang)  Step Number  Raw Counts  Counts/Second

   58.72        3331.00           6610          48.00       174.37
   58.94        3331.25           6614          50.00       183.09
   58.97        3331.50           6618          50.00       183.09
   59.01        3331.75           6622          48.00       174.37
   59.04        3332.00           6626          45.00       161.29
   59.07        3332.25           6629          48.00       174.37
   59.10        3332.50           6633          39.00       135.14
   59.13        3332.75           6637          40.00       139.49
   59.16        3333.00           6641          51.00       187.45
   59.19        3333.25           6644          46.00       165.65
   59.22        3333.50           6648          45.00       161.29
   59.25        3333.75           6652          47.00       170.01
   59.28        3334.00           6656          51.00       187.45
   59.31        3334.25           6659          60.00       226.68
   59.35        3334.50           6663          65.00       248.48
   59.38        3334.75           6667          81.00       318.22
   59.41        3335.00           6671         106.00       427.21
   59.44        3335.25           6674         135.00       553.63
   59.47        3335.50           6678         143.00       588.50
   59.50        3335.75           6682         159.00       658.25
   59.53        3336.00           6686         188.00       784.67
   59.56        3336.25           6689         224.00       941.61
   59.59        3336.50           6693         419.00      1791.73
   59.62        3336.75           6697        1156.00      5005.11
   59.65        3337.00           6701        2347.00     10199.28
   59.68        3337.25           6704        3287.00     14299.94
   59.72        3337.50           6708        4643.00     20217.14
   59.75        3337.75           6712        5853.00     25499.01
   59.78        3338.00           6716        7050.00     30725.78
   59.81        3338.25           6719        7935.00     34591.24
   59.84        3338.50           6723        9171.00     39991.28
   59.87        3338.75           6727       10375.00     45253.20
   59.90        3339.00           6731       11542.00     50355.00
   59.93        3339.25           6734       12530.00     54675.49
   59.96        3339.50           6738       13826.00     60344.55
   59.99        3339.75           6742       15015.00     65547.25
   60.02        3340.00           6746       16181.00     70650.91
   60.06        3340.25           6750       17592.00     76829.02
   60.09        3340.50           6753       18490.00     80762.13
   60.12        3340.75           6757       19503.00     85200.06
   60.15        3341.00           6761       20766.00     90734.88
   60.18        3341.25           6765       21680.00     94741.43
   60.21        3341.50           6768       22193.00     96990.61
   60.24        3341.75           6772       22212.00     97073.92
   60.27        3342.00           6776       22123.00     96683.69
   60.30        3342.25           6780       21090.00     92155.04
   60.34        3342.50           6783       20241.00     88433.97
   60.37        3342.75           6787       19268.00     84170.43
   60.40        3343.00           6791       18021.00     78707.86
   60.43        3343.25           6795       16815.00     73426.61
   60.46        3343.50           6798       15793.00     68952.43
   60.49        3343.75           6802       14678.00     64072.48
   60.52        3344.00           6806       13309.00     58082.82
   60.55        3344.25           6810       12013.00     52414.53
   60.58        3344.50           6814       10754.00     46909.92
   60.62        3344.75           6817        9921.00     43268.86
   60.65        3345.00           6821        8621.00     37588.14
   60.68        3345.25           6825        7382.00     32175.77
   60.71        3345.50           6829        6079.00     26485.73
   60.74        3345.75           6832        5225.00     22757.47
   60.77        3346.00           6836        3891.00     16935.37
   60.80        3346.25           6840        2639.00     11473.00
   60.83        3346.50           6844        1447.00      6274.07
   60.86        3346.75           6847         681.00      2934.00
   60.89        3347.00           6851         249.00      1050.60
   60.92        3347.25           6855         128.00       523.11
   60.95        3347.50           6859          97.00       387.97
   60.98        3347.75           6863          87.00       344.38
   61.02        3348.00           6866          60.00       226.68
   61.05        3348.25           6870          50.00       183.09
   61.08        3348.50           6874          47.00       170.01
   61.11        3348.75           6878          57.00       213.60
   61.14        3349.00           6881          50.00       183.09
   61.17        3349.25           6885          45.00       161.29
   61.20        3349.50           6889          59.00       222.32
   61.23        3349.75           6893          51.00       187.45
   61.26        3350.00           6896          46.00       165.65
   61.29        3350.25           6900          48.00       174.37
   61.33        3350.50           6904          46.00       165.65
   61.36        3350.75           6908          52.00       191.81
   61.39        3351.00           6912          55.00       204.88
HL scan finished at 01:02:03
end
