************************************************************
  HL Scan of (1) Internal mercury lamp
************************************************************
Integration time is 0.2294 seconds per sample
dh140917Manchester 53.47 2.23 2.804185pr1000
************************************************************
Dead Time -------------------------  3E-08 
Number of Cycles Used -------------  4 
Starting Wavelength (Angstroms) ---  3331 
Final Wavelength (Angstoms) -------  3351 
Wavelength Increment (Angstroms) --  .25 
Filter Wheel #1 Position ---------- (1) Ground quartz diffuser (ND=2.32)
Filter Wheel #2 Position ---------- 



************************************************************
HL scan start time = 00:50:58
Dark Count =  6.3 


Time (GMT)  Wavelength (Ang)  Step Number  Raw Counts  Counts/Second

   51.48        3331.00           6610          59.00       229.73
   51.71        3331.25           6614          57.00       221.01
   51.74        3331.50           6618          51.00       194.86
   51.77        3331.75           6622          65.00       255.89
   51.80        3332.00           6626          51.00       194.86
   51.83        3332.25           6629          61.00       238.45
   51.86        3332.50           6633          56.00       216.65
   51.89        3332.75           6637          58.00       225.37
   51.92        3333.00           6641          60.00       234.09
   51.95        3333.25           6644          63.00       247.17
   51.98        3333.50           6648          51.00       194.86
   52.02        3333.75           6652          60.00       234.09
   52.05        3334.00           6656          63.00       247.17
   52.08        3334.25           6659          59.00       229.73
   52.11        3334.50           6663          91.00       369.23
   52.14        3334.75           6667         102.00       417.18
   52.17        3335.00           6671         131.00       543.60
   52.20        3335.25           6674         139.00       578.48
   52.23        3335.50           6678         171.00       717.98
   52.26        3335.75           6682         199.00       840.04
   52.29        3336.00           6686         229.00       970.82
   52.32        3336.25           6689         278.00      1184.44
   52.35        3336.50           6693         492.00      2117.40
   52.38        3336.75           6697        1518.00      6591.10
   52.41        3337.00           6701        2990.00     13011.62
   52.45        3337.25           6704        4063.00     17693.35
   52.48        3337.50           6708        5657.00     24650.75
   52.51        3337.75           6712        7254.00     31624.15
   52.54        3338.00           6716        8799.00     38373.27
   52.57        3338.25           6719        9948.00     43394.30
   52.60        3338.50           6723       11518.00     50257.50
   52.63        3338.75           6727       12962.00     56572.39
   52.66        3339.00           6731       14513.00     63357.89
   52.69        3339.25           6734       15625.00     68224.50
   52.73        3339.50           6738       17225.00     75229.31
   52.76        3339.75           6742       18771.00     82000.52
   52.79        3340.00           6746       20265.00     88546.58
   52.82        3340.25           6750       21754.00     95073.31
   52.85        3340.50           6753       22744.00     99414.19
   52.88        3340.75           6757       24413.00    106734.90
   52.91        3341.00           6761       25870.00    113128.30
   52.94        3341.25           6765       27147.00    118733.90
   52.97        3341.50           6768       27312.00    119458.30
   53.00        3341.75           6772       27452.00    120073.00
   53.04        3342.00           6776       27245.00    119164.10
   53.07        3342.25           6780       26168.00    114436.20
   53.10        3342.50           6783       25134.00    109898.40
   53.13        3342.75           6787       23597.00    103155.30
   53.16        3343.00           6791       22223.00     97129.60
   53.19        3343.25           6795       20626.00     90128.71
   53.22        3343.50           6798       19491.00     85154.92
   53.25        3343.75           6802       17946.00     78386.82
   53.28        3344.00           6806       16448.00     71827.23
   53.32        3344.25           6810       14982.00     65410.27
   53.35        3344.50           6814       13429.00     58615.19
   53.38        3344.75           6817       12354.00     53913.20
   53.41        3345.00           6821       10845.00     47315.16
   53.44        3345.25           6825        9244.00     40317.70
   53.47        3345.50           6829        7437.00     32423.42
   53.50        3345.75           6832        6510.00     28375.06
   53.53        3346.00           6836        4898.00     21337.54
   53.56        3346.25           6840        3391.00     14761.11
   53.59        3346.50           6844        1883.00      8182.92
   53.62        3346.75           6847         876.00      3791.63
   53.66        3347.00           6851         311.00      1328.30
   53.69        3347.25           6855         168.00       704.90
   53.72        3347.50           6859         138.00       574.12
   53.75        3347.75           6863         115.00       473.85
   53.78        3348.00           6866          82.00       329.99
   53.81        3348.25           6870          68.00       268.96
   53.84        3348.50           6874          63.00       247.17
   53.87        3348.75           6878          63.00       247.17
   53.90        3349.00           6881          61.00       238.45
   53.93        3349.25           6885          59.00       229.73
   53.96        3349.50           6889          68.00       268.96
   53.99        3349.75           6893          67.00       264.61
   54.02        3350.00           6896          59.00       229.73
   54.05        3350.25           6900          56.00       216.65
   54.09        3350.50           6904          57.00       221.01
   54.12        3350.75           6908          56.00       216.65
   54.15        3351.00           6912          57.00       221.01
HL scan finished at 00:54:49
end
