************************************************************
  HL Scan of (1) Internal mercury lamp
************************************************************
Integration time is 0.2294 seconds per sample
dh210918Manchester 53.47 2.23 2.804185pr1000
************************************************************
Dead Time -------------------------  3E-08 
Number of Cycles Used -------------  4 
Starting Wavelength (Angstroms) ---  3331 
Final Wavelength (Angstoms) -------  3351 
Wavelength Increment (Angstroms) --  .25 
Filter Wheel #1 Position ---------- (1) Ground quartz diffuser (ND=2.32)
Filter Wheel #2 Position ---------- 



************************************************************
HL scan start time = 00:48:40
Dark Count =  7.9 


Time (GMT)  Wavelength (Ang)  Step Number  Raw Counts  Counts/Second

   49.18        3331.00           6610          42.00       148.65
   49.41        3331.25           6614          45.00       161.73
   49.44        3331.50           6618          39.00       135.57
   49.47        3331.75           6622          44.00       157.37
   49.50        3332.00           6626          47.00       170.45
   49.53        3332.25           6629          51.00       187.88
   49.56        3332.50           6633          42.00       148.65
   49.59        3332.75           6637          44.00       157.37
   49.62        3333.00           6641          46.00       166.09
   49.65        3333.25           6644          45.00       161.73
   49.68        3333.50           6648          50.00       183.52
   49.71        3333.75           6652          51.00       187.88
   49.74        3334.00           6656          51.00       187.88
   49.78        3334.25           6659          49.00       179.16
   49.81        3334.50           6663          59.00       222.76
   49.84        3334.75           6667          74.00       288.15
   49.87        3335.00           6671          88.00       349.18
   49.90        3335.25           6674         113.00       458.16
   49.93        3335.50           6678         133.00       545.34
   49.96        3335.75           6682         143.00       588.94
   49.99        3336.00           6686         174.00       724.08
   50.02        3336.25           6689         198.00       828.70
   50.05        3336.50           6693         312.00      1325.68
   50.08        3336.75           6697         931.00      4024.46
   50.11        3337.00           6701        2143.00      9309.92
   50.14        3337.25           6704        3055.00     13288.21
   50.17        3337.50           6708        4224.00     18388.96
   50.20        3337.75           6712        5399.00     23517.46
   50.23        3338.00           6716        6527.00     28442.31
   50.27        3338.25           6719        7393.00     32224.25
   50.30        3338.50           6723        8491.00     37020.61
   50.33        3338.75           6727        9695.00     42281.58
   50.36        3339.00           6731       10950.00     47767.18
   50.39        3339.25           6734       11746.00     51247.43
   50.42        3339.50           6738       12865.00     56141.12
   50.45        3339.75           6742       14100.00     61543.78
   50.48        3340.00           6746       15203.00     66370.46
   50.51        3340.25           6750       16533.00     72192.36
   50.55        3340.50           6753       17306.00     75577.00
   50.58        3340.75           6757       18457.00     80618.03
   50.61        3341.00           6761       19683.00     85989.19
   50.64        3341.25           6765       20593.00     89977.07
   50.67        3341.50           6768       21078.00     92102.87
   50.70        3341.75           6772       21024.00     91866.18
   50.73        3342.00           6776       20936.00     91480.44
   50.76        3342.25           6780       20404.00     89148.75
   50.79        3342.50           6783       19464.00     85029.62
   50.82        3342.75           6787       18451.00     80591.75
   50.85        3343.00           6791       17265.00     75397.47
   50.89        3343.25           6795       15960.00     69683.88
   50.92        3343.50           6798       15177.00     66256.68
   50.95        3343.75           6802       14016.00     61176.26
   50.98        3344.00           6806       12756.00     55664.37
   51.01        3344.25           6810       11651.00     50832.04
   51.04        3344.50           6814       10388.00     45310.46
   51.07        3344.75           6817        9555.00     41669.76
   51.10        3345.00           6821        8401.00     36627.41
   51.13        3345.25           6825        7267.00     31673.94
   51.16        3345.50           6829        6023.00     26241.67
   51.20        3345.75           6832        5070.00     22081.32
   51.23        3346.00           6836        3820.00     16625.99
   51.26        3346.25           6840        2656.00     11547.59
   51.29        3346.50           6844        1547.00      6710.59
   51.32        3346.75           6847         752.00      3243.99
   51.35        3347.00           6851         284.00      1203.62
   51.38        3347.25           6855         130.00       532.27
   51.41        3347.50           6859         112.00       453.80
   51.44        3347.75           6863         109.00       440.72
   51.47        3348.00           6866          67.00       257.63
   51.50        3348.25           6870          55.00       205.32
   51.53        3348.50           6874          48.00       174.80
   51.56        3348.75           6878          46.00       166.09
   51.59        3349.00           6881          45.00       161.73
   51.62        3349.25           6885          50.00       183.52
   51.65        3349.50           6889          46.00       166.09
   51.68        3349.75           6893          48.00       174.80
   51.71        3350.00           6896          42.00       148.65
   51.75        3350.25           6900          46.00       166.09
   51.78        3350.50           6904          50.00       183.52
   51.81        3350.75           6908          43.00       153.01
   51.84        3351.00           6912          51.00       187.88
HL scan finished at 00:52:30
end
