************************************************************
  HL Scan of (1) Internal mercury lamp
************************************************************
Integration time is 0.2294 seconds per sample
dh121018Manchester 53.47 2.23 2.804185pr1000
************************************************************
Dead Time -------------------------  3E-08 
Number of Cycles Used -------------  4 
Starting Wavelength (Angstroms) ---  3331 
Final Wavelength (Angstoms) -------  3351 
Wavelength Increment (Angstroms) --  .25 
Filter Wheel #1 Position ---------- (1) Ground quartz diffuser (ND=2.32)
Filter Wheel #2 Position ---------- 



************************************************************
HL scan start time = 00:37:30
Dark Count =  6.1 


Time (GMT)  Wavelength (Ang)  Step Number  Raw Counts  Counts/Second

   38.02        3331.00           6610          41.00       152.14
   38.25        3331.25           6614          40.00       147.78
   38.28        3331.50           6618          44.00       165.21
   38.31        3331.75           6622          33.00       117.26
   38.34        3332.00           6626          47.00       178.29
   38.37        3332.25           6629          48.00       182.65
   38.40        3332.50           6633          43.00       160.86
   38.43        3332.75           6637          42.00       156.50
   38.46        3333.00           6641          38.00       139.06
   38.49        3333.25           6644          44.00       165.21
   38.53        3333.50           6648          47.00       178.29
   38.56        3333.75           6652          39.00       143.42
   38.59        3334.00           6656          46.00       173.93
   38.62        3334.25           6659          44.00       165.21
   38.65        3334.50           6663          64.00       252.40
   38.68        3334.75           6667          81.00       326.51
   38.71        3335.00           6671          92.00       374.46
   38.74        3335.25           6674         106.00       435.49
   38.77        3335.50           6678         120.00       496.52
   38.80        3335.75           6682         138.00       574.99
   38.83        3336.00           6686         163.00       683.97
   38.86        3336.25           6689         198.00       836.55
   38.90        3336.50           6693         371.00      1590.75
   38.93        3336.75           6697        1084.00      4699.44
   38.96        3337.00           6701        2192.00      9531.50
   38.99        3337.25           6704        3016.00     13125.92
   39.02        3337.50           6708        4190.00     18248.44
   39.05        3337.75           6712        5357.00     23341.97
   39.08        3338.00           6716        6387.00     27838.85
   39.11        3338.25           6719        7125.00     31061.63
   39.14        3338.50           6723        8230.00     35888.23
   39.18        3338.75           6727        9422.00     41096.41
   39.21        3339.00           6731       10541.00     45987.12
   39.24        3339.25           6734       11294.00     49278.99
   39.27        3339.50           6738       12291.00     53638.56
   39.30        3339.75           6742       13554.00     59162.90
   39.33        3340.00           6746       14645.00     63936.39
   39.36        3340.25           6750       15824.00     69096.45
   39.39        3340.50           6753       16526.00     72169.60
   39.42        3340.75           6757       17668.00     77170.18
   39.45        3341.00           6761       18743.00     81878.74
   39.49        3341.25           6765       19573.00     85515.09
   39.52        3341.50           6768       19987.00     87329.19
   39.55        3341.75           6772       19912.00     87000.53
   39.58        3342.00           6776       19651.00     85856.86
   39.61        3342.25           6780       19056.00     83249.95
   39.64        3342.50           6783       18328.00     80060.85
   39.67        3342.75           6787       17259.00     75379.08
   39.70        3343.00           6791       16448.00     71828.12
   39.73        3343.25           6795       15142.00     66111.38
   39.77        3343.50           6798       14279.00     62334.86
   39.80        3343.75           6802       13045.00     56936.32
   39.83        3344.00           6806       11993.00     52335.38
   39.86        3344.25           6810       10779.00     47027.51
   39.89        3344.50           6814        9780.00     42660.93
   39.92        3344.75           6817        8784.00     38308.61
   39.95        3345.00           6821        7612.00     33188.65
   39.98        3345.25           6825        6654.00     29004.74
   40.01        3345.50           6829        5578.00     24306.73
   40.05        3345.75           6832        4755.00     20714.26
   40.08        3346.00           6836        3540.00     15412.09
   40.11        3346.25           6840        2401.00     10443.11
   40.14        3346.50           6844        1290.00      5597.71
   40.17        3346.75           6847         569.00      2453.97
   40.20        3347.00           6851         211.00       893.22
   40.23        3347.25           6855         120.00       496.52
   40.26        3347.50           6859          97.00       396.26
   40.29        3347.75           6863          77.00       309.07
   40.32        3348.00           6866          70.00       278.56
   40.35        3348.25           6870          57.00       221.88
   40.38        3348.50           6874          43.00       160.86
   40.42        3348.75           6878          43.00       160.86
   40.45        3349.00           6881          43.00       160.86
   40.48        3349.25           6885          54.00       208.81
   40.51        3349.50           6889          46.00       173.93
   40.54        3349.75           6893          43.00       160.86
   40.57        3350.00           6896          39.00       143.42
   40.60        3350.25           6900          47.00       178.29
   40.63        3350.50           6904          43.00       160.86
   40.66        3350.75           6908          43.00       160.86
   40.69        3351.00           6912          40.00       147.78
HL scan finished at 00:41:21
end
