************************************************************
  HL Scan of (1) Internal mercury lamp
************************************************************
Integration time is 0.2294 seconds per sample
dh191018Manchester 53.47 2.23 2.804185pr1000
************************************************************
Dead Time -------------------------  3E-08 
Number of Cycles Used -------------  4 
Starting Wavelength (Angstroms) ---  3331 
Final Wavelength (Angstoms) -------  3351 
Wavelength Increment (Angstroms) --  .25 
Filter Wheel #1 Position ---------- (1) Ground quartz diffuser (ND=2.32)
Filter Wheel #2 Position ---------- 



************************************************************
HL scan start time = 00:36:22
Dark Count =  6.8 


Time (GMT)  Wavelength (Ang)  Step Number  Raw Counts  Counts/Second

   36.89        3331.00           6610          41.00       149.09
   37.11        3331.25           6614          38.00       136.01
   37.14        3331.50           6618          43.00       157.80
   37.17        3331.75           6622          39.00       140.37
   37.20        3332.00           6626          41.00       149.09
   37.23        3332.25           6629          45.00       166.52
   37.26        3332.50           6633          45.00       166.52
   37.29        3332.75           6637          42.00       153.44
   37.33        3333.00           6641          53.00       201.40
   37.36        3333.25           6644          43.00       157.80
   37.39        3333.50           6648          43.00       157.80
   37.42        3333.75           6652          42.00       153.44
   37.45        3334.00           6656          39.00       140.37
   37.48        3334.25           6659          46.00       170.88
   37.51        3334.50           6663          55.00       210.11
   37.54        3334.75           6667          66.00       258.07
   37.57        3335.00           6671          89.00       358.33
   37.60        3335.25           6674          96.00       388.85
   37.63        3335.50           6678         123.00       506.55
   37.66        3335.75           6682         137.00       567.58
   37.70        3336.00           6686         152.00       632.97
   37.73        3336.25           6689         175.00       733.23
   37.76        3336.50           6693         352.00      1504.86
   37.79        3336.75           6697        1044.00      4521.97
   37.82        3337.00           6701        2027.00      8808.78
   37.85        3337.25           6704        2829.00     12307.07
   37.88        3337.50           6708        3919.00     17062.79
   37.91        3337.75           6712        5007.00     21811.13
   37.94        3338.00           6716        6140.00     26757.30
   37.98        3338.25           6719        6906.00     30102.15
   38.01        3338.50           6723        8029.00     35007.10
   38.04        3338.75           6727        9114.00     39747.46
   38.07        3339.00           6731       10276.00     44825.72
   38.10        3339.25           6734       11071.00     48300.98
   38.13        3339.50           6738       12278.00     53578.64
   38.16        3339.75           6742       13267.00     57904.34
   38.19        3340.00           6746       14504.00     63316.32
   38.22        3340.25           6750       15474.00     67561.38
   38.26        3340.50           6753       16228.00     70861.91
   38.29        3340.75           6757       17278.00     75459.21
   38.32        3341.00           6761       18173.00     79378.87
   38.35        3341.25           6765       19184.00     83807.66
   38.38        3341.50           6768       19432.00     84894.22
   38.41        3341.75           6772       19500.00     85192.18
   38.44        3342.00           6776       19271.00     84188.83
   38.47        3342.25           6780       18718.00     81766.15
   38.51        3342.50           6783       17984.00     78551.06
   38.54        3342.75           6787       16973.00     74123.68
   38.57        3343.00           6791       16002.00     69872.55
   38.60        3343.25           6795       14729.00     64300.90
   38.63        3343.50           6798       13860.00     60498.55
   38.66        3343.75           6802       12780.00     55774.16
   38.69        3344.00           6806       11655.00     50854.34
   38.72        3344.25           6810       10601.00     46246.33
   38.75        3344.50           6814        9521.00     41525.98
   38.79        3344.75           6817        8659.00     37759.40
   38.82        3345.00           6821        7585.00     33067.67
   38.85        3345.25           6825        6393.00     27861.99
   38.88        3345.50           6829        5314.00     23151.21
   38.91        3345.75           6832        4448.00     19371.32
   38.94        3346.00           6836        3425.00     14907.28
   38.97        3346.25           6840        2307.00     10030.05
   39.00        3346.50           6844        1286.00      5577.22
   39.03        3346.75           6847         628.00      2708.15
   39.06        3347.00           6851         220.00       929.41
   39.09        3347.25           6855         125.00       515.27
   39.12        3347.50           6859         107.00       436.80
   39.15        3347.75           6863          88.00       353.97
   39.18        3348.00           6866          64.00       249.35
   39.21        3348.25           6870          62.00       240.63
   39.25        3348.50           6874          44.00       162.16
   39.28        3348.75           6878          49.00       183.96
   39.31        3349.00           6881          47.00       175.24
   39.34        3349.25           6885          49.00       183.96
   39.37        3349.50           6889          48.00       179.60
   39.40        3349.75           6893          40.00       144.73
   39.43        3350.00           6896          41.00       149.09
   39.46        3350.25           6900          40.00       144.73
   39.49        3350.50           6904          47.00       175.24
   39.52        3350.75           6908          46.00       170.88
   39.55        3351.00           6912          44.00       162.16
HL scan finished at 00:40:13
end
