************************************************************
  HL Scan of (1) Internal mercury lamp
************************************************************
Integration time is 0.2294 seconds per sample
dh261018Manchester 53.47 2.23 2.804185pr1000
************************************************************
Dead Time -------------------------  3E-08 
Number of Cycles Used -------------  4 
Starting Wavelength (Angstroms) ---  3331 
Final Wavelength (Angstoms) -------  3351 
Wavelength Increment (Angstroms) --  .25 
Filter Wheel #1 Position ---------- (1) Ground quartz diffuser (ND=2.32)
Filter Wheel #2 Position ---------- 



************************************************************
HL scan start time = 00:34:51
Dark Count =  4.2 


Time (GMT)  Wavelength (Ang)  Step Number  Raw Counts  Counts/Second

   35.37        3331.00           6610          39.00       151.70
   35.59        3331.25           6614          37.00       142.98
   35.62        3331.50           6618          45.00       177.86
   35.65        3331.75           6622          41.00       160.42
   35.68        3332.00           6626          39.00       151.70
   35.72        3332.25           6629          46.00       182.22
   35.75        3332.50           6633          36.00       138.62
   35.78        3332.75           6637          41.00       160.42
   35.81        3333.00           6641          45.00       177.86
   35.84        3333.25           6644          54.00       217.09
   35.87        3333.50           6648          44.00       173.50
   35.90        3333.75           6652          41.00       160.42
   35.93        3334.00           6656          42.00       164.78
   35.96        3334.25           6659          48.00       190.93
   35.99        3334.50           6663          50.00       199.65
   36.02        3334.75           6667          68.00       278.12
   36.05        3335.00           6671          81.00       334.79
   36.09        3335.25           6674          95.00       395.82
   36.12        3335.50           6678         127.00       535.32
   36.15        3335.75           6682         136.00       574.55
   36.18        3336.00           6686         160.00       679.18
   36.21        3336.25           6689         189.00       805.60
   36.24        3336.50           6693         274.00      1176.15
   36.27        3336.75           6697         847.00      3674.34
   36.30        3337.00           6701        1906.00      8292.39
   36.33        3337.25           6704        2738.00     11921.44
   36.36        3337.50           6708        3835.00     16707.59
   36.39        3337.75           6712        4916.00     21425.28
   36.43        3338.00           6716        5927.00     25838.68
   36.46        3338.25           6719        6781.00     29567.63
   36.49        3338.50           6723        7745.00     33777.89
   36.52        3338.75           6727        8960.00     39085.91
   36.55        3339.00           6731        9975.00     43521.48
   36.58        3339.25           6734       10723.00     46791.01
   36.61        3339.50           6738       11858.00     51753.35
   36.64        3339.75           6742       12936.00     56467.86
   36.67        3340.00           6746       14002.00     61131.19
   36.71        3340.25           6750       15147.00     66141.58
   36.74        3340.50           6753       16151.00     70536.21
   36.77        3340.75           6757       17057.00     74502.88
   36.80        3341.00           6761       18153.00     79302.66
   36.83        3341.25           6765       18886.00     82513.51
   36.86        3341.50           6768       19193.00     83858.49
   36.89        3341.75           6772       19445.00     84962.58
   36.92        3342.00           6776       19344.00     84520.06
   36.95        3342.25           6780       18871.00     82447.79
   36.98        3342.50           6783       18369.00     80248.78
   37.01        3342.75           6787       17240.00     75304.19
   37.04        3343.00           6791       16130.00     70444.28
   37.08        3343.25           6795       15084.00     65865.86
   37.11        3343.50           6798       14367.00     62728.23
   37.14        3343.75           6802       13031.00     56883.39
   37.17        3344.00           6806       11950.00     52155.65
   37.20        3344.25           6810       10938.00     47730.90
   37.23        3344.50           6814        9830.00     42887.75
   37.26        3344.75           6817        9091.00     39658.31
   37.29        3345.00           6821        7979.00     34800.04
   37.32        3345.25           6825        6897.00     30074.20
   37.36        3345.50           6829        5805.00     25306.04
   37.39        3345.75           6832        4889.00     21307.43
   37.42        3346.00           6836        3816.00     16624.68
   37.45        3346.25           6840        2731.00     11890.90
   37.48        3346.50           6844        1661.00      7223.89
   37.51        3346.75           6847         901.00      3909.79
   37.54        3347.00           6851         294.00      1263.34
   37.57        3347.25           6855         150.00       635.58
   37.60        3347.50           6859          97.00       404.54
   37.63        3347.75           6863          85.00       352.23
   37.66        3348.00           6866          74.00       304.27
   37.70        3348.25           6870          55.00       221.45
   37.73        3348.50           6874          47.00       186.57
   37.76        3348.75           6878          41.00       160.42
   37.79        3349.00           6881          50.00       199.65
   37.82        3349.25           6885          46.00       182.22
   37.85        3349.50           6889          46.00       182.22
   37.88        3349.75           6893          50.00       199.65
   37.91        3350.00           6896          45.00       177.86
   37.94        3350.25           6900          45.00       177.86
   37.97        3350.50           6904          35.00       134.26
   38.00        3350.75           6908          45.00       177.86
   38.03        3351.00           6912          42.00       164.78
HL scan finished at 00:38:42
end
