************************************************************
  HL Scan of (1) Internal mercury lamp
************************************************************
Integration time is 0.2294 seconds per sample
dh191017Manchester 53.47 2.23 2.804185pr1000
************************************************************
Dead Time -------------------------  3E-08 
Number of Cycles Used -------------  4 
Starting Wavelength (Angstroms) ---  3331 
Final Wavelength (Angstoms) -------  3351 
Wavelength Increment (Angstroms) --  .25 
Filter Wheel #1 Position ---------- (1) Ground quartz diffuser (ND=2.32)
Filter Wheel #2 Position ---------- 



************************************************************
HL scan start time = 00:37:25
Dark Count =  6.5 


Time (GMT)  Wavelength (Ang)  Step Number  Raw Counts  Counts/Second

   37.95        3331.00           6610          54.00       207.06
   38.17        3331.25           6614          48.00       180.91
   38.20        3331.50           6618          57.00       220.14
   38.23        3331.75           6622          62.00       241.94
   38.26        3332.00           6626          61.00       237.58
   38.29        3332.25           6629          58.00       224.50
   38.33        3332.50           6633          50.00       189.63
   38.36        3332.75           6637          56.00       215.78
   38.39        3333.00           6641          63.00       246.30
   38.42        3333.25           6644          56.00       215.78
   38.45        3333.50           6648          58.00       224.50
   38.48        3333.75           6652          56.00       215.78
   38.51        3334.00           6656          54.00       207.06
   38.54        3334.25           6659          65.00       255.02
   38.57        3334.50           6663          76.00       302.97
   38.60        3334.75           6667          99.00       403.23
   38.63        3335.00           6671         128.00       529.65
   38.66        3335.25           6674         143.00       595.04
   38.69        3335.50           6678         180.00       756.34
   38.72        3335.75           6682         201.00       847.89
   38.76        3336.00           6686         221.00       935.07
   38.79        3336.25           6689         266.00      1131.25
   38.82        3336.50           6693         483.00      2077.29
   38.85        3336.75           6697        1504.00      6529.18
   38.88        3337.00           6701        2978.00     12958.39
   38.91        3337.25           6704        4127.00     17971.76
   38.94        3337.50           6708        5672.00     24715.36
   38.97        3337.75           6712        7257.00     31636.38
   39.00        3338.00           6716        8650.00     37721.39
   39.03        3338.25           6719        9818.00     42825.26
   39.07        3338.50           6723       11268.00     49163.57
   39.10        3338.75           6727       12747.00     55631.14
   39.13        3339.00           6731       14339.00     62595.65
   39.16        3339.25           6734       15558.00     67930.37
   39.19        3339.50           6738       16893.00     73774.70
   39.22        3339.75           6742       18556.00     81057.82
   39.25        3340.00           6746       20067.00     87678.02
   39.28        3340.25           6750       21631.00     94533.19
   39.31        3340.50           6753       22810.00     99702.75
   39.34        3340.75           6757       24299.00    106233.90
   39.38        3341.00           6761       25866.00    113109.80
   39.41        3341.25           6765       26956.00    117894.50
   39.44        3341.50           6768       27353.00    119637.40
   39.47        3341.75           6772       27490.00    120239.00
   39.50        3342.00           6776       27353.00    119637.40
   39.53        3342.25           6780       26448.00    115664.40
   39.56        3342.50           6783       25556.00    111749.40
   39.59        3342.75           6787       24068.00    105220.50
   39.62        3343.00           6791       22425.00     98014.46
   39.65        3343.25           6795       21153.00     92437.77
   39.68        3343.50           6798       19762.00     86341.49
   39.71        3343.75           6802       18372.00     80251.83
   39.75        3344.00           6806       16671.00     72802.68
   39.78        3344.25           6810       15058.00     65742.00
   39.81        3344.50           6814       13489.00     58876.79
   39.84        3344.75           6817       12491.00     54511.48
   39.87        3345.00           6821       11082.00     48350.39
   39.90        3345.25           6825        9501.00     41439.89
   39.93        3345.50           6829        7806.00     34034.30
   39.96        3345.75           6832        6535.00     28483.35
   39.99        3346.00           6836        4957.00     21594.19
   40.02        3346.25           6840        3384.00     14729.70
   40.05        3346.50           6844        1927.00      8373.94
   40.08        3346.75           6847        1032.00      4470.96
   40.12        3347.00           6851         337.00      1440.78
   40.15        3347.25           6855         174.00       730.18
   40.18        3347.50           6859         134.00       555.81
   40.21        3347.75           6863         104.00       425.03
   40.24        3348.00           6866          86.00       346.56
   40.27        3348.25           6870          68.00       268.09
   40.30        3348.50           6874          59.00       228.86
   40.33        3348.75           6878          56.00       215.78
   40.36        3349.00           6881          51.00       193.99
   40.39        3349.25           6885          60.00       233.22
   40.42        3349.50           6889          66.00       259.37
   40.45        3349.75           6893          64.00       250.66
   40.48        3350.00           6896          57.00       220.14
   40.52        3350.25           6900          62.00       241.94
   40.55        3350.50           6904          52.00       198.34
   40.58        3350.75           6908          50.00       189.63
   40.61        3351.00           6912          65.00       255.02
HL scan finished at 00:41:16
end
