************************************************************
  HL Scan of (1) Internal mercury lamp
************************************************************
Integration time is 0.2294 seconds per sample
dh021118Manchester 53.47 2.23 2.750537pr1000
************************************************************
Dead Time -------------------------  3E-08 
Number of Cycles Used -------------  4 
Starting Wavelength (Angstroms) ---  3331 
Final Wavelength (Angstoms) -------  3351 
Wavelength Increment (Angstroms) --  .25 
Filter Wheel #1 Position ---------- (1) Ground quartz diffuser (ND=2.32)
Filter Wheel #2 Position ---------- 



************************************************************
HL scan start time = 00:34:25
Dark Count =  7.8 


Time (GMT)  Wavelength (Ang)  Step Number  Raw Counts  Counts/Second

   34.94        3331.00           6610          39.00       136.01
   35.16        3331.25           6614          42.00       149.09
   35.19        3331.50           6618          44.00       157.80
   35.22        3331.75           6622          31.00       101.13
   35.25        3332.00           6626          36.00       122.93
   35.28        3332.25           6629          45.00       162.16
   35.31        3332.50           6633          42.00       149.09
   35.35        3332.75           6637          39.00       136.01
   35.38        3333.00           6641          41.00       144.73
   35.41        3333.25           6644          39.00       136.01
   35.44        3333.50           6648          36.00       122.93
   35.47        3333.75           6652          40.00       140.37
   35.50        3334.00           6656          47.00       170.88
   35.53        3334.25           6659          53.00       197.04
   35.56        3334.50           6663          67.00       258.07
   35.59        3334.75           6667          71.00       275.50
   35.62        3335.00           6671          86.00       340.89
   35.65        3335.25           6674         105.00       423.72
   35.68        3335.50           6678         120.00       489.11
   35.71        3335.75           6682         131.00       537.06
   35.74        3336.00           6686         161.00       667.84
   35.78        3336.25           6689         187.00       781.19
   35.81        3336.50           6693         343.00      1461.27
   35.84        3336.75           6697        1083.00      4687.67
   35.87        3337.00           6701        2155.00      9362.70
   35.90        3337.25           6704        2864.00     12455.40
   35.93        3337.50           6708        3988.00     17359.52
   35.96        3337.75           6712        5043.00     21963.90
   35.99        3338.00           6716        6208.00     27049.84
   36.03        3338.25           6719        6933.00     30215.69
   36.06        3338.50           6723        7949.00     34653.27
   36.09        3338.75           6727        9041.00     39424.11
   36.12        3339.00           6731       10035.00     43767.99
   36.15        3339.25           6734       10885.00     47483.46
   36.18        3339.50           6738       12020.00     52446.01
   36.21        3339.75           6742       12979.00     56640.19
   36.24        3340.00           6746       14093.00     61513.59
   36.27        3340.25           6750       15108.00     65955.15
   36.31        3340.50           6753       15838.00     69150.28
   36.34        3340.75           6757       16954.00     74036.09
   36.37        3341.00           6761       18035.00     78770.06
   36.40        3341.25           6765       18895.00     82537.16
   36.43        3341.50           6768       19020.00     83084.78
   36.46        3341.75           6772       19084.00     83365.16
   36.49        3342.00           6776       18852.00     82348.78
   36.52        3342.25           6780       18286.00     79869.44
   36.55        3342.50           6783       17426.00     76102.94
   36.58        3342.75           6787       16396.00     71593.01
   36.61        3343.00           6791       15270.00     66664.15
   36.65        3343.25           6795       14294.00     62393.05
   36.68        3343.50           6798       13506.00     58945.48
   36.71        3343.75           6802       12400.00     54107.82
   36.74        3344.00           6806       11303.00     49310.91
   36.77        3344.25           6810       10209.00     44528.49
   36.80        3344.50           6814        9238.00     40284.93
   36.83        3344.75           6817        8319.00     36269.61
   36.86        3345.00           6821        7356.00     32063.09
   36.89        3345.25           6825        6298.00     27442.81
   36.93        3345.50           6829        5227.00     22767.07
   36.96        3345.75           6832        4397.00     19144.39
   36.99        3346.00           6836        3333.00     14501.51
   37.02        3346.25           6840        2214.00      9620.04
   37.05        3346.50           6844        1137.00      4923.13
   37.08        3346.75           6847         489.00      2097.78
   37.11        3347.00           6851         182.00       759.39
   37.14        3347.25           6855         111.00       449.88
   37.17        3347.50           6859          93.00       371.41
   37.20        3347.75           6863          71.00       275.50
   37.24        3348.00           6866          60.00       227.55
   37.27        3348.25           6870          56.00       210.11
   37.30        3348.50           6874          40.00       140.37
   37.33        3348.75           6878          49.00       179.60
   37.36        3349.00           6881          46.00       166.52
   37.39        3349.25           6885          42.00       149.09
   37.42        3349.50           6889          51.00       188.32
   37.45        3349.75           6893          46.00       166.52
   37.48        3350.00           6896          41.00       144.73
   37.51        3350.25           6900          52.00       192.68
   37.54        3350.50           6904          49.00       179.60
   37.57        3350.75           6908          51.00       188.32
   37.60        3351.00           6912          41.00       144.73
HL scan finished at 00:38:16
end
