************************************************************
  HL Scan of (1) Internal mercury lamp
************************************************************
Integration time is 0.2294 seconds per sample
dh091117Manchester 53.47 2.23 2.804185pr1000
************************************************************
Dead Time -------------------------  3E-08 
Number of Cycles Used -------------  4 
Starting Wavelength (Angstroms) ---  3331 
Final Wavelength (Angstoms) -------  3351 
Wavelength Increment (Angstroms) --  .25 
Filter Wheel #1 Position ---------- (1) Ground quartz diffuser (ND=2.32)
Filter Wheel #2 Position ---------- 



************************************************************
HL scan start time = 00:34:42
Dark Count =  11.7 


Time (GMT)  Wavelength (Ang)  Step Number  Raw Counts  Counts/Second

   35.23        3331.00           6610          61.00       214.91
   35.45        3331.25           6614          57.00       197.47
   35.49        3331.50           6618          58.00       201.83
   35.52        3331.75           6622          58.00       201.83
   35.55        3332.00           6626          49.00       162.60
   35.58        3332.25           6629          57.00       197.47
   35.61        3332.50           6633          54.00       184.40
   35.64        3332.75           6637          49.00       162.60
   35.67        3333.00           6641          58.00       201.83
   35.70        3333.25           6644          57.00       197.47
   35.73        3333.50           6648          59.00       206.19
   35.76        3333.75           6652          52.00       175.68
   35.79        3334.00           6656          58.00       201.83
   35.82        3334.25           6659          65.00       232.35
   35.85        3334.50           6663          83.00       310.81
   35.89        3334.75           6667          92.00       350.05
   35.92        3335.00           6671         126.00       498.26
   35.95        3335.25           6674         148.00       594.17
   35.98        3335.50           6678         178.00       724.95
   36.01        3335.75           6682         188.00       768.54
   36.04        3336.00           6686         231.00       956.00
   36.07        3336.25           6689         274.00      1143.46
   36.10        3336.50           6693         532.00      2268.24
   36.13        3336.75           6697        1620.00      7012.37
   36.16        3337.00           6701        3063.00     13306.53
   36.19        3337.25           6704        4149.00     18045.07
   36.23        3337.50           6708        5665.00     24662.10
   36.26        3337.75           6712        7171.00     31238.07
   36.29        3338.00           6716        8833.00     38498.23
   36.32        3338.25           6719        9931.00     43296.39
   36.35        3338.50           6723       11399.00     49713.58
   36.38        3338.75           6727       13026.00     56828.72
   36.41        3339.00           6731       14447.00     63045.46
   36.44        3339.25           6734       15690.00     68485.38
   36.47        3339.50           6738       17135.00     74811.57
   36.50        3339.75           6742       18636.00     81385.48
   36.53        3340.00           6746       20064.00     87642.09
   36.57        3340.25           6750       21543.00     94124.62
   36.60        3340.50           6753       22640.00     98934.46
   36.63        3340.75           6757       24131.00    105474.00
   36.66        3341.00           6761       25526.00    111594.90
   36.69        3341.25           6765       26474.00    115755.70
   36.72        3341.50           6768       26872.00    117502.90
   36.75        3341.75           6772       26834.00    117336.00
   36.78        3342.00           6776       26602.00    116317.60
   36.82        3342.25           6780       25577.00    111818.70
   36.85        3342.50           6783       24587.00    107474.60
   36.88        3342.75           6787       23162.00    101223.70
   36.91        3343.00           6791       21634.00     94523.55
   36.94        3343.25           6795       20046.00     87563.21
   36.97        3343.50           6798       19105.00     83440.09
   37.00        3343.75           6802       17413.00     76028.93
   37.03        3344.00           6806       16062.00     70113.76
   37.06        3344.25           6810       14437.00     63001.71
   37.09        3344.50           6814       12973.00     56596.89
   37.12        3344.75           6817       11738.00     51195.83
   37.16        3345.00           6821       10146.00     44236.09
   37.19        3345.25           6825        8688.00     37864.69
   37.22        3345.50           6829        7296.00     31784.00
   37.25        3345.75           6832        6224.00     27102.67
   37.28        3346.00           6836        4616.00     20083.15
   37.31        3346.25           6840        3284.00     14270.71
   37.34        3346.50           6844        1817.00      7871.52
   37.37        3346.75           6847         858.00      3689.60
   37.40        3347.00           6851         297.00      1243.73
   37.43        3347.25           6855         173.00       703.15
   37.46        3347.50           6859         147.00       589.81
   37.50        3347.75           6863         108.00       419.80
   37.53        3348.00           6866          90.00       341.33
   37.56        3348.25           6870          68.00       245.42
   37.59        3348.50           6874          59.00       206.19
   37.62        3348.75           6878          60.00       210.55
   37.65        3349.00           6881          59.00       206.19
   37.68        3349.25           6885          57.00       197.47
   37.71        3349.50           6889          58.00       201.83
   37.74        3349.75           6893          59.00       206.19
   37.77        3350.00           6896          53.00       180.04
   37.80        3350.25           6900          54.00       184.40
   37.83        3350.50           6904          66.00       236.71
   37.86        3350.75           6908          58.00       201.83
   37.89        3351.00           6912          63.00       223.63
HL scan finished at 00:38:33
end
