************************************************************
  HL Scan of (1) Internal mercury lamp
************************************************************
Integration time is 0.2294 seconds per sample
dh161118Manchester 53.47 2.23 2.804185pr1000
************************************************************
Dead Time -------------------------  3E-08 
Number of Cycles Used -------------  4 
Starting Wavelength (Angstroms) ---  3331 
Final Wavelength (Angstoms) -------  3351 
Wavelength Increment (Angstroms) --  .25 
Filter Wheel #1 Position ---------- (1) Ground quartz diffuser (ND=2.32)
Filter Wheel #2 Position ---------- 



************************************************************
HL scan start time = 00:35:31
Dark Count =  8.3 


Time (GMT)  Wavelength (Ang)  Step Number  Raw Counts  Counts/Second

   36.04        3331.00           6610          41.00       142.55
   36.27        3331.25           6614          49.00       177.42
   36.30        3331.50           6618          43.00       151.26
   36.33        3331.75           6622          45.00       159.98
   36.36        3332.00           6626          39.00       133.83
   36.39        3332.25           6629          41.00       142.55
   36.42        3332.50           6633          43.00       151.26
   36.45        3332.75           6637          51.00       186.14
   36.48        3333.00           6641          45.00       159.98
   36.51        3333.25           6644          44.00       155.62
   36.55        3333.50           6648          44.00       155.62
   36.58        3333.75           6652          44.00       155.62
   36.61        3334.00           6656          45.00       159.98
   36.64        3334.25           6659          45.00       159.98
   36.67        3334.50           6663          67.00       255.89
   36.70        3334.75           6667          66.00       251.53
   36.73        3335.00           6671          93.00       369.23
   36.76        3335.25           6674         108.00       434.62
   36.79        3335.50           6678         121.00       491.29
   36.83        3335.75           6682         136.00       556.68
   36.86        3336.00           6686         164.00       678.74
   36.89        3336.25           6689         190.00       792.09
   36.92        3336.50           6693         290.00      1228.03
   36.95        3336.75           6697         943.00      4075.04
   36.98        3337.00           6701        1959.00      8505.66
   37.01        3337.25           6704        2651.00     11524.04
   37.04        3337.50           6708        3663.00     15939.18
   37.07        3337.75           6712        4699.00     20460.25
   37.10        3338.00           6716        5647.00     24598.36
   37.13        3338.25           6719        6562.00     28593.40
   37.16        3338.50           6723        7637.00     33288.24
   37.20        3338.75           6727        8589.00     37447.02
   37.23        3339.00           6731        9638.00     42030.74
   37.26        3339.25           6734       10543.00     45986.24
   37.29        3339.50           6738       11638.00     50773.45
   37.32        3339.75           6742       12636.00     55137.78
   37.35        3340.00           6746       13722.00     59888.24
   37.38        3340.25           6750       14808.00     64640.06
   37.41        3340.50           6753       15659.00     68364.56
   37.44        3340.75           6757       16640.00     72659.07
   37.48        3341.00           6761       17627.00     76980.97
   37.51        3341.25           6765       18429.00     80493.62
   37.54        3341.50           6768       18759.00     81939.18
   37.57        3341.75           6772       18748.00     81891.00
   37.60        3342.00           6776       18524.00     80909.75
   37.63        3342.25           6780       18038.00     78781.00
   37.66        3342.50           6783       17303.00     75562.11
   37.69        3342.75           6787       16126.00     70408.82
   37.72        3343.00           6791       15191.00     66316.21
   37.75        3343.25           6795       14207.00     62010.20
   37.78        3343.50           6798       13435.00     58632.69
   37.82        3343.75           6802       12332.00     53808.24
   37.85        3344.00           6806       11273.00     49177.56
   37.88        3344.25           6810       10145.00     44246.58
   37.91        3344.50           6814        9196.00     40099.21
   37.94        3344.75           6817        8363.00     36459.65
   37.97        3345.00           6821        7330.00     31947.35
   38.00        3345.25           6825        6284.00     27379.50
   38.03        3345.50           6829        5226.00     22760.53
   38.06        3345.75           6832        4460.00     19417.15
   38.10        3346.00           6836        3496.00     15210.52
   38.13        3346.25           6840        2441.00     10608.00
   38.16        3346.50           6844        1399.00      6063.44
   38.19        3346.75           6847         678.00      2919.61
   38.22        3347.00           6851         211.00       883.63
   38.25        3347.25           6855         108.00       434.62
   38.28        3347.50           6859          93.00       369.23
   38.31        3347.75           6863          70.00       268.96
   38.34        3348.00           6866          71.00       273.32
   38.37        3348.25           6870          54.00       199.22
   38.40        3348.50           6874          40.00       138.19
   38.43        3348.75           6878          54.00       199.22
   38.46        3349.00           6881          45.00       159.98
   38.49        3349.25           6885          46.00       164.34
   38.53        3349.50           6889          40.00       138.19
   38.56        3349.75           6893          48.00       173.06
   38.59        3350.00           6896          44.00       155.62
   38.62        3350.25           6900          51.00       186.14
   38.65        3350.50           6904          44.00       155.62
   38.68        3350.75           6908          43.00       151.26
   38.71        3351.00           6912          44.00       155.62
HL scan finished at 00:39:22
end
