************************************************************
  HL Scan of (1) Internal mercury lamp
************************************************************
Integration time is 0.2294 seconds per sample
dh161117Manchester 53.47 2.23 2.804185pr1000
************************************************************
Dead Time -------------------------  3E-08 
Number of Cycles Used -------------  4 
Starting Wavelength (Angstroms) ---  3331 
Final Wavelength (Angstoms) -------  3351 
Wavelength Increment (Angstroms) --  .25 
Filter Wheel #1 Position ---------- (1) Ground quartz diffuser (ND=2.32)
Filter Wheel #2 Position ---------- 



************************************************************
HL scan start time = 00:35:31
Dark Count =  5.9 


Time (GMT)  Wavelength (Ang)  Step Number  Raw Counts  Counts/Second

   36.05        3331.00           6610          59.00       231.48
   36.27        3331.25           6614          51.00       196.60
   36.30        3331.50           6618          58.00       227.12
   36.33        3331.75           6622          59.00       231.48
   36.36        3332.00           6626          54.00       209.68
   36.39        3332.25           6629          58.00       227.12
   36.42        3332.50           6633          55.00       214.04
   36.45        3332.75           6637          54.00       209.68
   36.48        3333.00           6641          56.00       218.40
   36.52        3333.25           6644          51.00       196.60
   36.55        3333.50           6648          55.00       214.04
   36.58        3333.75           6652          62.00       244.55
   36.61        3334.00           6656          60.00       235.83
   36.64        3334.25           6659          61.00       240.19
   36.67        3334.50           6663          81.00       327.38
   36.70        3334.75           6667          97.00       397.13
   36.73        3335.00           6671         118.00       488.67
   36.76        3335.25           6674         151.00       632.53
   36.79        3335.50           6678         176.00       741.52
   36.82        3335.75           6682         186.00       785.11
   36.85        3336.00           6686         231.00       981.28
   36.89        3336.25           6689         260.00      1107.71
   36.92        3336.50           6693         481.00      2071.18
   36.95        3336.75           6697        1414.00      6139.32
   36.98        3337.00           6701        2914.00     12681.81
   37.01        3337.25           6704        4135.00     18009.29
   37.04        3337.50           6708        5621.00     24495.33
   37.07        3337.75           6712        7078.00     30857.24
   37.10        3338.00           6716        8680.00     37855.08
   37.13        3338.25           6719        9756.00     42556.92
   37.17        3338.50           6723       11241.00     49048.14
   37.20        3338.75           6727       12719.00     55511.29
   37.23        3339.00           6731       14266.00     62278.85
   37.26        3339.25           6734       15355.00     67044.48
   37.29        3339.50           6738       16939.00     73978.74
   37.32        3339.75           6742       18388.00     80324.54
   37.35        3340.00           6746       20044.00     87579.85
   37.38        3340.25           6750       21416.00     93593.30
   37.41        3340.50           6753       22589.00     98736.24
   37.44        3340.75           6757       24155.00    105604.80
   37.47        3341.00           6761       25620.00    112032.80
   37.51        3341.25           6765       26853.00    117444.90
   37.54        3341.50           6768       27243.00    119157.10
   37.57        3341.75           6772       27237.00    119130.80
   37.60        3342.00           6776       26906.00    117677.60
   37.63        3342.25           6780       26139.00    114310.70
   37.66        3342.50           6783       25110.00    109794.80
   37.69        3342.75           6787       23648.00    103380.70
   37.72        3343.00           6791       22216.00     97100.66
   37.75        3343.25           6795       20614.00     90077.88
   37.79        3343.50           6798       19517.00     85270.61
   37.82        3343.75           6802       17974.00     78511.21
   37.85        3344.00           6806       16442.00     71802.71
   37.88        3344.25           6810       14878.00     64956.89
   37.91        3344.50           6814       13378.00     58393.83
   37.94        3344.75           6817       12119.00     52887.24
   37.97        3345.00           6821       10628.00     46368.29
   38.00        3345.25           6825        9170.00     39996.09
   38.03        3345.50           6829        7548.00     32909.99
   38.07        3345.75           6832        6362.00     27730.56
   38.10        3346.00           6836        4772.00     20789.34
   38.13        3346.25           6840        3325.00     14474.90
   38.16        3346.50           6844        1824.00      7927.34
   38.19        3346.75           6847         852.00      3688.73
   38.22        3347.00           6851         297.00      1269.01
   38.25        3347.25           6855         172.00       724.08
   38.28        3347.50           6859         140.00       584.58
   38.31        3347.75           6863         113.00       466.88
   38.34        3348.00           6866          85.00       344.82
   38.37        3348.25           6870          72.00       288.15
   38.40        3348.50           6874          59.00       231.48
   38.44        3348.75           6878          58.00       227.12
   38.47        3349.00           6881          57.00       222.76
   38.50        3349.25           6885          61.00       240.19
   38.53        3349.50           6889          54.00       209.68
   38.56        3349.75           6893          53.00       205.32
   38.59        3350.00           6896          56.00       218.40
   38.62        3350.25           6900          61.00       240.19
   38.65        3350.50           6904          58.00       227.12
   38.68        3350.75           6908          57.00       222.76
   38.71        3351.00           6912          57.00       222.76
HL scan finished at 00:39:22
end
