************************************************************
  HL Scan of (1) Internal mercury lamp
************************************************************
Integration time is 0.2294 seconds per sample
dh141217Manchester 53.47 2.23 2.750537pr1000
************************************************************
Dead Time -------------------------  3E-08 
Number of Cycles Used -------------  4 
Starting Wavelength (Angstroms) ---  3331 
Final Wavelength (Angstoms) -------  3351 
Wavelength Increment (Angstroms) --  .25 
Filter Wheel #1 Position ---------- (1) Ground quartz diffuser (ND=2.32)
Filter Wheel #2 Position ---------- 



************************************************************
HL scan start time = 00:49:19
Dark Count =  6.1 


Time (GMT)  Wavelength (Ang)  Step Number  Raw Counts  Counts/Second

   49.85        3331.00           6610          52.00       200.09
   50.07        3331.25           6614          55.00       213.17
   50.10        3331.50           6618          51.00       195.73
   50.13        3331.75           6622          61.00       239.32
   50.16        3332.00           6626          62.00       243.68
   50.19        3332.25           6629          52.00       200.09
   50.22        3332.50           6633          54.00       208.81
   50.25        3332.75           6637          57.00       221.88
   50.29        3333.00           6641          59.00       230.60
   50.32        3333.25           6644          57.00       221.88
   50.35        3333.50           6648          58.00       226.24
   50.38        3333.75           6652          50.00       191.37
   50.41        3334.00           6656          45.00       169.57
   50.44        3334.25           6659          61.00       239.32
   50.47        3334.50           6663          75.00       300.35
   50.50        3334.75           6667          89.00       361.38
   50.53        3335.00           6671         121.00       500.88
   50.56        3335.25           6674         138.00       574.99
   50.59        3335.50           6678         178.00       749.36
   50.62        3335.75           6682         185.00       779.88
   50.66        3336.00           6686         210.00       888.86
   50.69        3336.25           6689         257.00      1093.76
   50.72        3336.50           6693         463.00      1991.84
   50.75        3336.75           6697        1549.00      6727.16
   50.78        3337.00           6701        2931.00     12755.10
   50.81        3337.25           6704        4085.00     17790.23
   50.84        3337.50           6708        5669.00     24704.00
   50.87        3337.75           6712        7213.00     31445.96
   50.90        3338.00           6716        8884.00     38745.54
   50.93        3338.25           6719        9975.00     43513.18
   50.97        3338.50           6723       11468.00     50039.76
   51.00        3338.75           6727       12798.00     55855.94
   51.03        3339.00           6731       14335.00     62579.90
   51.06        3339.25           6734       15580.00     68028.41
   51.09        3339.50           6738       17117.00     74757.28
   51.12        3339.75           6742       18741.00     81869.98
   51.15        3340.00           6746       20236.00     88420.38
   51.18        3340.25           6750       21699.00     94833.06
   51.21        3340.50           6753       22899.00    100094.80
   51.25        3340.75           6757       24146.00    105564.40
   51.28        3341.00           6761       25698.00    112374.30
   51.31        3341.25           6765       26927.00    117768.90
   51.34        3341.50           6768       27253.00    119200.10
   51.37        3341.75           6772       27259.00    119226.50
   51.40        3342.00           6776       27005.00    118111.30
   51.43        3342.25           6780       25926.00    113374.90
   51.46        3342.50           6783       25096.00    109732.50
   51.49        3342.75           6787       23551.00    102954.40
   51.52        3343.00           6791       22019.00     96236.04
   51.56        3343.25           6795       20560.00     89840.34
   51.59        3343.50           6798       19420.00     84844.72
   51.62        3343.75           6802       17625.00     76981.86
   51.65        3344.00           6806       16175.00     70632.95
   51.68        3344.25           6810       14594.00     63713.21
   51.71        3344.50           6814       13253.00     57846.16
   51.74        3344.75           6817       12138.00     52969.46
   51.77        3345.00           6821       10668.00     46542.28
   51.80        3345.25           6825        9035.00     39405.33
   51.83        3345.50           6829        7542.00     32882.90
   51.86        3345.75           6832        6435.00     28048.44
   51.89        3346.00           6836        4739.00     20644.43
   51.93        3346.25           6840        3219.00     14011.56
   51.96        3346.50           6844        1674.00      7272.29
   51.99        3346.75           6847         751.00      3247.48
   52.02        3347.00           6851         264.00      1124.28
   52.05        3347.25           6855         172.00       723.21
   52.08        3347.50           6859         122.00       505.24
   52.11        3347.75           6863         111.00       457.29
   52.14        3348.00           6866          78.00       313.43
   52.17        3348.25           6870          56.00       217.53
   52.20        3348.50           6874          60.00       234.96
   52.23        3348.75           6878          55.00       213.17
   52.27        3349.00           6881          53.00       204.45
   52.30        3349.25           6885          52.00       200.09
   52.33        3349.50           6889          58.00       226.24
   52.36        3349.75           6893          61.00       239.32
   52.39        3350.00           6896          60.00       234.96
   52.42        3350.25           6900          55.00       213.17
   52.45        3350.50           6904          55.00       213.17
   52.48        3350.75           6908          62.00       243.68
   52.51        3351.00           6912          58.00       226.24
HL scan finished at 00:53:10
end
