************************************************************
  HS Scan of (1) Internal mercury lamp
************************************************************
Integration time is 0.2294 seconds per sample
dh200119Manchester 53.47 2.23 2.804185pr1000
************************************************************
Dead Time -------------------------  3E-08 
Number of Cycles Used -------------  4 
Starting Wavelength (Angstroms) ---  2950 
Final Wavelength (Angstoms) -------  2984 
Wavelength Increment (Angstroms) --  .25 
Filter Wheel #1 Position ---------- (1) Ground quartz diffuser (ND=2.32)
Filter Wheel #2 Position ---------- (1) Neutral Density 0.494



************************************************************
HS scan start time = 05:19:14
Dark Count =  7.7 


Time (GMT)  Wavelength (Ang)  Step Number  Raw Counts  Counts/Second

  319.60        2950.00           1222          50.00       184.40
  319.67        2950.25           1226          56.00       210.55
  319.70        2950.50           1229          50.00       184.40
  319.73        2950.75           1232          60.00       227.99
  319.76        2951.00           1236          60.00       227.99
  319.79        2951.25           1239          56.00       210.55
  319.82        2951.50           1242          54.00       201.83
  319.85        2951.75           1246          53.00       197.47
  319.89        2952.00           1249          52.00       193.11
  319.92        2952.25           1252          56.00       210.55
  319.95        2952.50           1256          54.00       201.83
  319.98        2952.75           1259          57.00       214.91
  320.01        2953.00           1262          51.00       188.75
  320.04        2953.25           1266          62.00       236.71
  320.07        2953.50           1269          57.00       214.91
  320.10        2953.75           1272          57.00       214.91
  320.13        2954.00           1276          52.00       193.11
  320.16        2954.25           1279          47.00       171.32
  320.19        2954.50           1282          57.00       214.91
  320.23        2954.75           1286          53.00       197.47
  320.26        2955.00           1289          57.00       214.91
  320.29        2955.25           1292          55.00       206.19
  320.32        2955.50           1296          67.00       258.50
  320.35        2955.75           1299          63.00       241.07
  320.38        2956.00           1302          57.00       214.91
  320.41        2956.25           1306          54.00       201.83
  320.44        2956.50           1309          51.00       188.75
  320.47        2956.75           1312          56.00       210.55
  320.50        2957.00           1316          60.00       227.99
  320.53        2957.25           1319          49.00       180.04
  320.56        2957.50           1322          57.00       214.91
  320.59        2957.75           1326          53.00       197.47
  320.62        2958.00           1329          49.00       180.04
  320.65        2958.25           1332          61.00       232.35
  320.68        2958.50           1336          56.00       210.55
  320.71        2958.75           1339          48.00       175.68
  320.75        2959.00           1342          58.00       219.27
  320.78        2959.25           1346          54.00       201.83
  320.81        2959.50           1349          69.00       267.22
  320.84        2959.75           1352          69.00       267.22
  320.87        2960.00           1356          74.00       289.02
  320.90        2960.25           1359          93.00       371.84
  320.93        2960.50           1362         120.00       489.55
  320.96        2960.75           1366         165.00       685.72
  320.99        2961.00           1369         192.00       803.42
  321.02        2961.25           1372         235.00       990.88
  321.05        2961.50           1376         278.00      1178.33
  321.08        2961.75           1379         327.00      1391.95
  321.11        2962.00           1382         490.00      2102.57
  321.15        2962.25           1386        1434.00      6218.68
  321.18        2962.50           1389        2489.00     10819.99
  321.21        2962.75           1392        3654.00     15902.53
  321.24        2963.00           1396        5216.00     22719.49
  321.27        2963.25           1399        6363.00     27727.07
  321.30        2963.50           1402        7519.00     32775.45
  321.33        2963.75           1406        9176.00     40014.44
  321.36        2964.00           1409       10286.00     44865.49
  321.39        2964.25           1412       11433.00     49879.73
  321.42        2964.50           1416       13069.00     57034.30
  321.45        2964.75           1419       14279.00     62327.86
  321.49        2965.00           1422       15298.00     66787.13
  321.52        2965.25           1426       16985.00     74172.28
  321.55        2965.50           1429       18270.00     79799.79
  321.58        2965.75           1432       19358.00     84566.06
  321.61        2966.00           1436       20949.00     91538.31
  321.64        2966.25           1439       22054.00     96382.48
  321.67        2966.50           1442       23320.00    101934.20
  321.70        2966.75           1446       24376.00    106566.40
  321.73        2967.00           1449       25073.00    109624.50
  321.77        2967.25           1452       25350.00    110840.10
  321.80        2967.50           1456       25380.00    110971.70
  321.83        2967.75           1459       25511.00    111546.60
  321.86        2968.00           1462       25421.00    111151.60
  321.89        2968.25           1466       25057.00    109554.30
  321.92        2968.50           1469       24313.00    106290.00
  321.95        2968.75           1472       23081.00    100886.00
  321.98        2969.00           1476       21531.00     94089.54
  322.01        2969.25           1479       20347.00     88899.81
  322.05        2969.50           1482       19277.00     84211.18
  322.08        2969.75           1486       17656.00     77110.61
  322.11        2970.00           1489       16683.00     72849.98
  322.14        2970.25           1492       15650.00     68327.80
  322.17        2970.50           1496       13944.00     60862.11
  322.20        2970.75           1499       12970.00     56601.26
  322.23        2971.00           1502       11729.00     51173.97
  322.26        2971.25           1506       10057.00     43864.57
  322.29        2971.50           1509        8817.00     38445.80
  322.33        2971.75           1513        7223.00     31482.64
  322.36        2972.00           1516        6150.00     26797.04
  322.39        2972.25           1519        4985.00     21711.17
  322.42        2972.50           1523        3538.00     15396.39
  322.45        2972.75           1526        2432.00     10571.36
  322.48        2973.00           1529        1348.00      5843.66
  322.51        2973.25           1533         496.00      2128.73
  322.54        2973.50           1536         309.00      1313.48
  322.57        2973.75           1539         243.00      1025.75
  322.60        2974.00           1543         210.00       881.89
  322.64        2974.25           1546         155.00       642.12
  322.67        2974.50           1549         114.00       463.39
  322.70        2974.75           1553          86.00       341.33
  322.73        2975.00           1556          70.00       271.58
  322.76        2975.25           1559          48.00       175.68
  322.79        2975.50           1563          57.00       214.91
  322.82        2975.75           1566          58.00       219.27
  322.85        2976.00           1569          53.00       197.47
  322.88        2976.25           1573          58.00       219.27
  322.91        2976.50           1576          56.00       210.55
  322.94        2976.75           1579          56.00       210.55
  322.97        2977.00           1583          55.00       206.19
  323.01        2977.25           1586          53.00       197.47
  323.04        2977.50           1590          50.00       184.40
  323.07        2977.75           1593          50.00       184.40
  323.10        2978.00           1596          47.00       171.32
  323.13        2978.25           1600          62.00       236.71
  323.16        2978.50           1603          46.00       166.96
  323.19        2978.75           1606          52.00       193.11
  323.22        2979.00           1610          52.00       193.11
  323.25        2979.25           1613          60.00       227.99
  323.28        2979.50           1616          50.00       184.40
  323.31        2979.75           1620          57.00       214.91
  323.34        2980.00           1623          48.00       175.68
  323.37        2980.25           1626          49.00       180.04
  323.41        2980.50           1630          55.00       206.19
  323.44        2980.75           1633          50.00       184.40
  323.47        2981.00           1637          47.00       171.32
  323.50        2981.25           1640          52.00       193.11
  323.53        2981.50           1643          54.00       201.83
  323.56        2981.75           1647          51.00       188.75
  323.59        2982.00           1650          50.00       184.40
  323.62        2982.25           1653          42.00       149.52
  323.65        2982.50           1657          50.00       184.40
  323.68        2982.75           1660          57.00       214.91
  323.71        2983.00           1663          49.00       180.04
  323.75        2983.25           1667          52.00       193.11
  323.78        2983.50           1670          47.00       171.32
  323.81        2983.75           1673          46.00       166.96
  323.84        2984.00           1677          52.00       193.11
HS scan finished at 05:24:03
end
************************************************************
  HS Scan of (1) Internal mercury lamp
************************************************************
Integration time is 0.2294 seconds per sample
dh200119Manchester 53.47 2.23 2.804185pr1000
************************************************************
Dead Time -------------------------  3E-08 
Number of Cycles Used -------------  4 
Starting Wavelength (Angstroms) ---  2950 
Final Wavelength (Angstoms) -------  2984 
Wavelength Increment (Angstroms) --  .25 
Filter Wheel #1 Position ---------- (1) Ground quartz diffuser (ND=2.32)
Filter Wheel #2 Position ---------- (1) Neutral Density 0.494



************************************************************
HS scan start time = 17:42:04
Dark Count =  4.5 


Time (GMT)  Wavelength (Ang)  Step Number  Raw Counts  Counts/Second

 1062.44        2950.00           1222          54.00       215.78
 1062.51        2950.25           1226          53.00       211.42
 1062.54        2950.50           1229          67.00       272.45
 1062.57        2950.75           1232          55.00       220.14
 1062.60        2951.00           1236          58.00       233.22
 1062.63        2951.25           1239          49.00       193.99
 1062.67        2951.50           1242          46.00       180.91
 1062.70        2951.75           1246          56.00       224.50
 1062.73        2952.00           1249          56.00       224.50
 1062.76        2952.25           1252          49.00       193.99
 1062.79        2952.50           1256          42.00       163.47
 1062.82        2952.75           1259          53.00       211.42
 1062.85        2953.00           1262          51.00       202.70
 1062.88        2953.25           1266          53.00       211.42
 1062.91        2953.50           1269          60.00       241.94
 1062.94        2953.75           1272          53.00       211.42
 1062.97        2954.00           1276          61.00       246.30
 1063.00        2954.25           1279          50.00       198.34
 1063.03        2954.50           1282          58.00       233.22
 1063.06        2954.75           1286          46.00       180.91
 1063.09        2955.00           1289          53.00       211.42
 1063.13        2955.25           1292          51.00       202.70
 1063.16        2955.50           1296          50.00       198.34
 1063.19        2955.75           1299          58.00       233.22
 1063.22        2956.00           1302          49.00       193.99
 1063.25        2956.25           1306          58.00       233.22
 1063.28        2956.50           1309          59.00       237.58
 1063.31        2956.75           1312          47.00       185.27
 1063.34        2957.00           1316          58.00       233.22
 1063.37        2957.25           1319          50.00       198.34
 1063.40        2957.50           1322          46.00       180.91
 1063.43        2957.75           1326          52.00       207.06
 1063.46        2958.00           1329          55.00       220.14
 1063.49        2958.25           1332          55.00       220.14
 1063.52        2958.50           1336          52.00       207.06
 1063.56        2958.75           1339          47.00       185.27
 1063.59        2959.00           1342          59.00       237.58
 1063.62        2959.25           1346          57.00       228.86
 1063.65        2959.50           1349          72.00       294.25
 1063.68        2959.75           1352          69.00       281.17
 1063.71        2960.00           1356          89.00       368.36
 1063.74        2960.25           1359         116.00       486.06
 1063.77        2960.50           1362         130.00       547.09
 1063.80        2960.75           1366         171.00       725.82
 1063.83        2961.00           1369         200.00       852.24
 1063.86        2961.25           1372         239.00      1022.26
 1063.89        2961.50           1376         314.00      1349.23
 1063.92        2961.75           1379         457.00      1972.65
 1063.95        2962.00           1382        1021.00      4431.71
 1063.99        2962.25           1386        2384.00     10375.94
 1064.02        2962.50           1389        3492.00     15209.64
 1064.05        2962.75           1392        4694.00     20455.01
 1064.08        2963.00           1396        6099.00     26588.33
 1064.11        2963.25           1399        7288.00     31780.51
 1064.14        2963.50           1402        8465.00     36921.87
 1064.17        2963.75           1406        9986.00     43568.24
 1064.20        2964.00           1409       11167.00     48730.74
 1064.23        2964.25           1412       12450.00     54340.91
 1064.26        2964.50           1416       14007.00     61151.75
 1064.30        2964.75           1419       15087.00     65877.68
 1064.33        2965.00           1422       16477.00     71962.08
 1064.36        2965.25           1426       17907.00     78223.90
 1064.39        2965.50           1429       18883.00     82499.05
 1064.42        2965.75           1432       20059.00     87651.72
 1064.45        2966.00           1436       21727.00     94962.83
 1064.48        2966.25           1439       22979.00    100452.70
 1064.51        2966.50           1442       23983.00    104856.40
 1064.54        2966.75           1446       24928.00    109002.30
 1064.58        2967.00           1449       25103.00    109770.20
 1064.61        2967.25           1452       25045.00    109515.70
 1064.64        2967.50           1456       25061.00    109585.90
 1064.67        2967.75           1459       25086.00    109695.60
 1064.70        2968.00           1462       24891.00    108840.00
 1064.73        2968.25           1466       24078.00    105273.10
 1064.76        2968.50           1469       22944.00    100299.20
 1064.79        2968.75           1472       21914.00     95782.69
 1064.82        2969.00           1476       20384.00     89075.99
 1064.86        2969.25           1479       19100.00     83449.72
 1064.89        2969.50           1482       18121.00     79161.18
 1064.92        2969.75           1486       16479.00     71970.84
 1064.95        2970.00           1489       15404.00     67265.07
 1064.98        2970.25           1492       14387.00     62814.43
 1065.01        2970.50           1496       12746.00     55635.51
 1065.04        2970.75           1499       11641.00     50803.18
 1065.07        2971.00           1502       10474.00     45701.24
 1065.10        2971.25           1506        8972.00     39137.04
 1065.14        2971.50           1509        7702.00     33588.76
 1065.17        2971.75           1513        6210.00     27072.99
 1065.20        2972.00           1516        5011.00     21838.63
 1065.23        2972.25           1519        3876.00     16885.19
 1065.26        2972.50           1523        2367.00     10301.79
 1065.29        2972.75           1526        1343.00      5835.81
 1065.32        2973.00           1529         573.00      2478.39
 1065.35        2973.25           1533         306.00      1314.35
 1065.38        2973.50           1536         249.00      1065.86
 1065.41        2973.75           1539         203.00       865.32
 1065.44        2974.00           1543         180.00       765.06
 1065.47        2974.25           1546         137.00       577.60
 1065.51        2974.50           1549         116.00       486.06
 1065.54        2974.75           1553          77.00       316.04
 1065.57        2975.00           1556          71.00       289.89
 1065.60        2975.25           1559          55.00       220.14
 1065.63        2975.50           1563          55.00       220.14
 1065.66        2975.75           1566          62.00       250.66
 1065.69        2976.00           1569          52.00       207.06
 1065.72        2976.25           1573          55.00       220.14
 1065.75        2976.50           1576          49.00       193.99
 1065.78        2976.75           1579          51.00       202.70
 1065.81        2977.00           1583          48.00       189.63
 1065.84        2977.25           1586          53.00       211.42
 1065.87        2977.50           1590          55.00       220.14
 1065.91        2977.75           1593          56.00       224.50
 1065.94        2978.00           1596          41.00       159.11
 1065.97        2978.25           1600          50.00       198.34
 1066.00        2978.50           1603          58.00       233.22
 1066.03        2978.75           1606          46.00       180.91
 1066.06        2979.00           1610          59.00       237.58
 1066.09        2979.25           1613          54.00       215.78
 1066.12        2979.50           1616          44.00       172.19
 1066.15        2979.75           1620          46.00       180.91
 1066.18        2980.00           1623          48.00       189.63
 1066.21        2980.25           1626          49.00       193.99
 1066.24        2980.50           1630          50.00       198.34
 1066.28        2980.75           1633          49.00       193.99
 1066.31        2981.00           1637          56.00       224.50
 1066.34        2981.25           1640          48.00       189.63
 1066.37        2981.50           1643          47.00       185.27
 1066.40        2981.75           1647          45.00       176.55
 1066.43        2982.00           1650          46.00       180.91
 1066.46        2982.25           1653          50.00       198.34
