************************************************************
  HS Scan of (1) Internal mercury lamp
************************************************************
Integration time is 0.2294 seconds per sample
dh220119Manchester 53.47 2.23 2.750537pr1000
************************************************************
Dead Time -------------------------  3E-08 
Number of Cycles Used -------------  4 
Starting Wavelength (Angstroms) ---  2950 
Final Wavelength (Angstoms) -------  2984 
Wavelength Increment (Angstroms) --  .25 
Filter Wheel #1 Position ---------- (1) Ground quartz diffuser (ND=2.32)
Filter Wheel #2 Position ---------- (1) Neutral Density 0.494



************************************************************
HS scan start time = 05:17:26
Dark Count =  4.8 


Time (GMT)  Wavelength (Ang)  Step Number  Raw Counts  Counts/Second

  317.80        2950.00           1222          48.00       188.32
  317.87        2950.25           1226          50.00       197.04
  317.90        2950.50           1229          53.00       210.11
  317.93        2950.75           1232          53.00       210.11
  317.96        2951.00           1236          49.00       192.68
  317.99        2951.25           1239          58.00       231.91
  318.02        2951.50           1242          57.00       227.55
  318.05        2951.75           1246          52.00       205.76
  318.08        2952.00           1249          60.00       240.63
  318.12        2952.25           1252          54.00       214.47
  318.15        2952.50           1256          59.00       236.27
  318.18        2952.75           1259          57.00       227.55
  318.21        2953.00           1262          70.00       284.22
  318.24        2953.25           1266          52.00       205.76
  318.27        2953.50           1269          53.00       210.11
  318.30        2953.75           1272          58.00       231.91
  318.33        2954.00           1276          56.00       223.19
  318.36        2954.25           1279          53.00       210.11
  318.39        2954.50           1282          56.00       223.19
  318.42        2954.75           1286          48.00       188.32
  318.45        2955.00           1289          54.00       214.47
  318.48        2955.25           1292          47.00       183.96
  318.52        2955.50           1296          45.00       175.24
  318.55        2955.75           1299          52.00       205.76
  318.58        2956.00           1302          58.00       231.91
  318.61        2956.25           1306          60.00       240.63
  318.64        2956.50           1309          56.00       223.19
  318.67        2956.75           1312          52.00       205.76
  318.70        2957.00           1316          54.00       214.47
  318.73        2957.25           1319          59.00       236.27
  318.76        2957.50           1322          58.00       231.91
  318.79        2957.75           1326          45.00       175.24
  318.83        2958.00           1329          53.00       210.11
  318.86        2958.25           1332          55.00       218.83
  318.89        2958.50           1336          48.00       188.32
  318.92        2958.75           1339          53.00       210.11
  318.95        2959.00           1342          49.00       192.68
  318.98        2959.25           1346          51.00       201.40
  319.01        2959.50           1349          57.00       227.55
  319.04        2959.75           1352          75.00       306.02
  319.07        2960.00           1356          91.00       375.77
  319.10        2960.25           1359         100.00       415.00
  319.13        2960.50           1362         130.00       545.78
  319.17        2960.75           1366         167.00       707.08
  319.20        2961.00           1369         200.00       850.94
  319.23        2961.25           1372         225.00       959.92
  319.26        2961.50           1376         301.00      1291.24
  319.29        2961.75           1379         443.00      1910.31
  319.32        2962.00           1382         982.00      4260.35
  319.35        2962.25           1386        2261.00      9838.13
  319.38        2962.50           1389        3370.00     14676.03
  319.42        2962.75           1392        4400.00     19170.57
  319.45        2963.00           1396        5927.00     25836.06
  319.48        2963.25           1399        7102.00     30966.86
  319.51        2963.50           1402        8310.00     36243.40
  319.54        2963.75           1406        9946.00     43392.11
  319.57        2964.00           1409       11065.00     48283.49
  319.60        2964.25           1412       12395.00     54099.07
  319.63        2964.50           1416       14041.00     61299.20
  319.66        2964.75           1419       14989.00     65447.48
  319.70        2965.00           1422       16169.00     70612.38
  319.73        2965.25           1426       17716.00     77386.07
  319.76        2965.50           1429       18820.00     82221.74
  319.79        2965.75           1432       19963.00     87229.72
  319.82        2966.00           1436       21572.00     94281.99
  319.85        2966.25           1439       22534.00     98499.88
  319.88        2966.50           1442       23569.00    103039.00
  319.91        2966.75           1446       24504.00    107140.70
  319.94        2967.00           1449       24821.00    108531.50
  319.98        2967.25           1452       24765.00    108285.80
  320.01        2967.50           1456       24820.00    108527.10
  320.04        2967.75           1459       24916.00    108948.40
  320.07        2968.00           1462       24714.00    108062.10
  320.10        2968.25           1466       23887.00    104433.90
  320.13        2968.50           1469       22890.00    100061.00
  320.16        2968.75           1472       21760.00     95106.18
  320.19        2969.00           1476       20154.00     88066.72
  320.22        2969.25           1479       19176.00     83781.38
  320.26        2969.50           1482       17842.00     77937.91
  320.29        2969.75           1486       16414.00     71684.95
  320.32        2970.00           1489       15357.00     67058.05
  320.35        2970.25           1492       14166.00     61846.12
  320.38        2970.50           1496       12622.00     55091.86
  320.41        2970.75           1499       11552.00     50412.72
  320.44        2971.00           1502       10354.00     45175.40
  320.47        2971.25           1506        8809.00     38423.52
  320.50        2971.50           1509        7852.00     34242.66
  320.53        2971.75           1513        6330.00     27595.64
  320.57        2972.00           1516        5139.00     22396.04
  320.60        2972.25           1519        4103.00     17874.45
  320.63        2972.50           1523        2575.00     11207.78
  320.66        2972.75           1526        1508.00      6554.04
  320.69        2973.00           1529         722.00      3126.71
  320.72        2973.25           1533         330.00      1417.67
  320.75        2973.50           1536         253.00      1081.99
  320.78        2973.75           1539         216.00       920.69
  320.81        2974.00           1543         184.00       781.19
  320.84        2974.25           1546         137.00       576.30
  320.88        2974.50           1549         112.00       467.31
  320.91        2974.75           1553          81.00       332.17
  320.94        2975.00           1556          68.00       275.50
  320.97        2975.25           1559          55.00       218.83
  321.00        2975.50           1563          53.00       210.11
  321.03        2975.75           1566          54.00       214.47
  321.06        2976.00           1569          47.00       183.96
  321.09        2976.25           1573          59.00       236.27
  321.12        2976.50           1576          62.00       249.35
  321.15        2976.75           1579          50.00       197.04
  321.19        2977.00           1583          54.00       214.47
  321.22        2977.25           1586          49.00       192.68
  321.25        2977.50           1590          45.00       175.24
  321.28        2977.75           1593          55.00       218.83
  321.31        2978.00           1596          56.00       223.19
  321.34        2978.25           1600          41.00       157.80
  321.37        2978.50           1603          61.00       244.99
  321.40        2978.75           1606          46.00       179.60
  321.43        2979.00           1610          49.00       192.68
  321.46        2979.25           1613          46.00       179.60
  321.49        2979.50           1616          46.00       179.60
  321.53        2979.75           1620          47.00       183.96
  321.56        2980.00           1623          56.00       223.19
  321.59        2980.25           1626          49.00       192.68
  321.62        2980.50           1630          51.00       201.40
  321.65        2980.75           1633          55.00       218.83
  321.68        2981.00           1637          56.00       223.19
  321.71        2981.25           1640          47.00       183.96
  321.74        2981.50           1643          50.00       197.04
  321.77        2981.75           1647          41.00       157.80
  321.80        2982.00           1650          55.00       218.83
  321.83        2982.25           1653          47.00       183.96
  321.87        2982.50           1657          55.00       218.83
  321.90        2982.75           1660          51.00       201.40
  321.93        2983.00           1663          51.00       201.40
  321.96        2983.25           1667          44.00       170.88
  321.99        2983.50           1670          55.00       218.83
  322.02        2983.75           1673          51.00       201.40
  322.05        2984.00           1677          44.00       170.88
HS scan finished at 05:22:16
end
************************************************************
  HS Scan of (1) Internal mercury lamp
************************************************************
Integration time is 0.2294 seconds per sample
dh220119Manchester 53.47 2.23 2.750537pr1000
************************************************************
Dead Time -------------------------  3E-08 
Number of Cycles Used -------------  4 
Starting Wavelength (Angstroms) ---  2950 
Final Wavelength (Angstoms) -------  2984 
Wavelength Increment (Angstroms) --  .25 
Filter Wheel #1 Position ---------- (1) Ground quartz diffuser (ND=2.32)
Filter Wheel #2 Position ---------- (1) Neutral Density 0.494



************************************************************
HS scan start time = 17:42:02
Dark Count =  5.8 


Time (GMT)  Wavelength (Ang)  Step Number  Raw Counts  Counts/Second

 1062.40        2950.00           1222          52.00       201.40
 1062.47        2950.25           1226          58.00       227.55
 1062.50        2950.50           1229          58.00       227.55
 1062.53        2950.75           1232          54.00       210.11
 1062.56        2951.00           1236          62.00       244.99
 1062.59        2951.25           1239          57.00       223.19
 1062.62        2951.50           1242          53.00       205.76
 1062.65        2951.75           1246          53.00       205.76
 1062.68        2952.00           1249          52.00       201.40
 1062.71        2952.25           1252          52.00       201.40
 1062.74        2952.50           1256          54.00       210.11
 1062.77        2952.75           1259          62.00       244.99
 1062.80        2953.00           1262          54.00       210.11
 1062.83        2953.25           1266          50.00       192.68
 1062.86        2953.50           1269          53.00       205.76
 1062.89        2953.75           1272          50.00       192.68
 1062.93        2954.00           1276          55.00       214.47
 1062.96        2954.25           1279          52.00       201.40
 1062.99        2954.50           1282          60.00       236.27
 1063.02        2954.75           1286          62.00       244.99
 1063.05        2955.00           1289          58.00       227.55
 1063.08        2955.25           1292          53.00       205.76
 1063.11        2955.50           1296          59.00       231.91
 1063.14        2955.75           1299          58.00       227.55
 1063.17        2956.00           1302          49.00       188.32
 1063.20        2956.25           1306          55.00       214.47
 1063.24        2956.50           1309          53.00       205.76
 1063.27        2956.75           1312          51.00       197.04
 1063.30        2957.00           1316          43.00       162.16
 1063.33        2957.25           1319          54.00       210.11
 1063.36        2957.50           1322          60.00       236.27
 1063.39        2957.75           1326          58.00       227.55
 1063.42        2958.00           1329          49.00       188.32
 1063.45        2958.25           1332          54.00       210.11
 1063.48        2958.50           1336          57.00       223.19
 1063.51        2958.75           1339          50.00       192.68
 1063.54        2959.00           1342          51.00       197.04
 1063.57        2959.25           1346          59.00       231.91
 1063.60        2959.50           1349          60.00       236.27
 1063.64        2959.75           1352          72.00       288.58
 1063.67        2960.00           1356          93.00       380.13
 1063.70        2960.25           1359         113.00       467.31
 1063.73        2960.50           1362         144.00       602.45
 1063.76        2960.75           1366         188.00       794.26
 1063.79        2961.00           1369         215.00       911.97
 1063.82        2961.25           1372         255.00      1086.35
 1063.85        2961.50           1376         313.00      1339.20
 1063.88        2961.75           1379         417.00      1792.60
 1063.91        2962.00           1382         917.00      3972.57
 1063.94        2962.25           1386        2232.00      9707.27
 1063.97        2962.50           1389        3387.00     14745.84
 1064.00        2962.75           1392        4589.00     19991.06
 1064.04        2963.00           1396        6115.00     26652.52
 1064.07        2963.25           1399        7243.00     31578.29
 1064.10        2963.50           1402        8518.00     37147.74
 1064.13        2963.75           1406       10051.00     43846.66
 1064.16        2964.00           1409       11194.00     48843.10
 1064.19        2964.25           1412       12473.00     54435.82
 1064.22        2964.50           1416       14086.00     61491.71
 1064.25        2964.75           1419       15141.00     66108.31
 1064.28        2965.00           1422       16431.00     71755.00
 1064.31        2965.25           1426       18042.00     78809.48
 1064.34        2965.50           1429       18982.00     82927.06
 1064.38        2965.75           1432       20245.00     88461.13
 1064.41        2966.00           1436       22155.00     96833.63
 1064.44        2966.25           1439       22973.00    100420.70
 1064.47        2966.50           1442       23971.00    104798.00
 1064.50        2966.75           1446       25209.00    110229.70
 1064.53        2967.00           1449       25439.00    111239.00
 1064.56        2967.25           1452       25578.00    111849.00
 1064.59        2967.50           1456       25630.00    112077.20
 1064.62        2967.75           1459       25621.00    112037.70
 1064.65        2968.00           1462       25422.00    111164.40
 1064.69        2968.25           1466       24610.00    107601.40
 1064.72        2968.50           1469       23536.00    102889.90
 1064.75        2968.75           1472       22503.00     98359.56
 1064.78        2969.00           1476       20940.00     91507.18
 1064.81        2969.25           1479       19736.00     86230.62
 1064.84        2969.50           1482       18666.00     81542.74
 1064.87        2969.75           1486       17019.00     74329.46
 1064.90        2970.00           1489       15742.00     68738.82
 1064.93        2970.25           1492       14710.00     64222.14
 1064.97        2970.50           1496       13176.00     57510.65
 1065.00        2970.75           1499       12073.00     52686.53
 1065.03        2971.00           1502       10993.00     47964.35
 1065.06        2971.25           1506        9279.00     40472.83
 1065.09        2971.50           1509        8131.00     35457.05
 1065.12        2971.75           1513        6655.00     29010.42
 1065.15        2972.00           1516        5463.00     23806.01
 1065.18        2972.25           1519        4174.00     18179.92
 1065.21        2972.50           1523        2661.00     11578.56
 1065.24        2972.75           1526        1579.00      6859.30
 1065.27        2973.00           1529         721.00      3117.99
 1065.31        2973.25           1533         327.00      1400.23
 1065.34        2973.50           1536         256.00      1090.71
 1065.37        2973.75           1539         221.00       938.13
 1065.40        2974.00           1543         172.00       724.51
 1065.43        2974.25           1546         140.00       585.01
 1065.46        2974.50           1549         108.00       445.52
 1065.49        2974.75           1553          75.00       301.66
 1065.52        2975.00           1556          61.00       240.63
 1065.55        2975.25           1559          57.00       223.19
 1065.58        2975.50           1563          50.00       192.68
 1065.61        2975.75           1566          53.00       205.76
 1065.65        2976.00           1569          56.00       218.83
 1065.68        2976.25           1573          52.00       201.40
 1065.71        2976.50           1576          52.00       201.40
 1065.74        2976.75           1579          52.00       201.40
 1065.77        2977.00           1583          55.00       214.47
 1065.80        2977.25           1586          47.00       179.60
 1065.83        2977.50           1590          57.00       223.19
 1065.86        2977.75           1593          52.00       201.40
 1065.89        2978.00           1596          49.00       188.32
 1065.92        2978.25           1600          52.00       201.40
 1065.95        2978.50           1603          48.00       183.96
 1065.98        2978.75           1606          49.00       188.32
 1066.02        2979.00           1610          55.00       214.47
 1066.05        2979.25           1613          53.00       205.76
 1066.08        2979.50           1616          50.00       192.68
 1066.11        2979.75           1620          46.00       175.24
 1066.14        2980.00           1623          49.00       188.32
 1066.17        2980.25           1626          51.00       197.04
 1066.20        2980.50           1630          48.00       183.96
 1066.23        2980.75           1633          51.00       197.04
 1066.26        2981.00           1637          51.00       197.04
 1066.29        2981.25           1640          45.00       170.88
 1066.33        2981.50           1643          49.00       188.32
 1066.36        2981.75           1647          49.00       188.32
 1066.39        2982.00           1650          51.00       197.04
 1066.42        2982.25           1653          49.00       188.32
