************************************************************
  HS Scan of (1) Internal mercury lamp
************************************************************
Integration time is 0.2294 seconds per sample
dh080219Manchester 53.47 2.23 2.804185pr1000
************************************************************
Dead Time -------------------------  3E-08 
Number of Cycles Used -------------  4 
Starting Wavelength (Angstroms) ---  2950 
Final Wavelength (Angstoms) -------  2984 
Wavelength Increment (Angstroms) --  .25 
Filter Wheel #1 Position ---------- (1) Ground quartz diffuser (ND=2.32)
Filter Wheel #2 Position ---------- (1) Neutral Density 0.494



************************************************************
HS scan start time = 04:56:24
Dark Count =  6 


Time (GMT)  Wavelength (Ang)  Step Number  Raw Counts  Counts/Second

  296.77        2950.00           1222          53.00       204.88
  296.84        2950.25           1226          48.00       183.09
  296.87        2950.50           1229          56.00       217.96
  296.90        2950.75           1232          58.00       226.68
  296.93        2951.00           1236          55.00       213.60
  296.96        2951.25           1239          51.00       196.17
  296.99        2951.50           1242          53.00       204.88
  297.02        2951.75           1246          55.00       213.60
  297.05        2952.00           1249          64.00       252.84
  297.08        2952.25           1252          52.00       200.52
  297.11        2952.50           1256          55.00       213.60
  297.14        2952.75           1259          55.00       213.60
  297.18        2953.00           1262          62.00       244.12
  297.21        2953.25           1266          55.00       213.60
  297.24        2953.50           1269          51.00       196.17
  297.27        2953.75           1272          55.00       213.60
  297.30        2954.00           1276          62.00       244.12
  297.33        2954.25           1279          55.00       213.60
  297.36        2954.50           1282          65.00       257.19
  297.39        2954.75           1286          49.00       187.45
  297.42        2955.00           1289          51.00       196.17
  297.45        2955.25           1292          59.00       231.04
  297.49        2955.50           1296          52.00       200.52
  297.52        2955.75           1299          52.00       200.52
  297.55        2956.00           1302          59.00       231.04
  297.58        2956.25           1306          52.00       200.52
  297.61        2956.50           1309          48.00       183.09
  297.64        2956.75           1312          52.00       200.52
  297.67        2957.00           1316          54.00       209.24
  297.70        2957.25           1319          57.00       222.32
  297.74        2957.50           1322          55.00       213.60
  297.77        2957.75           1326          55.00       213.60
  297.80        2958.00           1329          58.00       226.68
  297.83        2958.25           1332          55.00       213.60
  297.86        2958.50           1336          56.00       217.96
  297.89        2958.75           1339          47.00       178.73
  297.92        2959.00           1342          56.00       217.96
  297.95        2959.25           1346          60.00       235.40
  297.98        2959.50           1349          52.00       200.52
  298.01        2959.75           1352          66.00       261.55
  298.05        2960.00           1356          90.00       366.18
  298.08        2960.25           1359         111.00       457.72
  298.11        2960.50           1362         143.00       597.22
  298.14        2960.75           1366         184.00       775.96
  298.17        2961.00           1369         219.00       928.54
  298.20        2961.25           1372         233.00       989.57
  298.23        2961.50           1376         306.00      1307.81
  298.26        2961.75           1379         386.00      1656.58
  298.29        2962.00           1382         812.00      3513.88
  298.33        2962.25           1386        1977.00      8594.20
  298.36        2962.50           1389        3154.00     13728.41
  298.39        2962.75           1392        4252.00     18519.44
  298.42        2963.00           1396        5942.00     25896.31
  298.45        2963.25           1399        7248.00     31599.26
  298.48        2963.50           1402        8208.00     35792.55
  298.51        2963.75           1406        9820.00     42836.18
  298.54        2964.00           1409       11154.00     48667.34
  298.57        2964.25           1412       12294.00     53652.12
  298.61        2964.50           1416       13888.00     60624.55
  298.64        2964.75           1419       15209.00     66405.05
  298.67        2965.00           1422       16396.00     71600.90
  298.70        2965.25           1426       17997.00     78611.51
  298.73        2965.50           1429       19269.00     84183.57
  298.76        2965.75           1432       20462.00     89411.27
  298.79        2966.00           1436       22110.00     96635.46
  298.82        2966.25           1439       23170.00    101283.80
  298.85        2966.50           1442       24278.00    106143.90
  298.88        2966.75           1446       25487.00    111448.70
  298.92        2967.00           1449       25877.00    113160.30
  298.95        2967.25           1452       26054.00    113937.20
  298.98        2967.50           1456       25923.00    113362.20
  299.01        2967.75           1459       25928.00    113384.20
  299.04        2968.00           1462       25770.00    112690.70
  299.07        2968.25           1466       25285.00    110562.30
  299.10        2968.50           1469       24302.00    106249.20
  299.13        2968.75           1472       23100.00    100976.70
  299.16        2969.00           1476       21588.00     94346.88
  299.20        2969.25           1479       20305.00     88723.21
  299.23        2969.50           1482       19351.00     84542.84
  299.26        2969.75           1486       17647.00     77078.65
  299.29        2970.00           1489       16380.00     71530.85
  299.32        2970.25           1492       15270.00     66672.02
  299.35        2970.50           1496       13786.00     60178.30
  299.38        2970.75           1499       12568.00     54850.43
  299.41        2971.00           1502       11440.00     49917.77
  299.45        2971.25           1506        9923.00     43286.34
  299.48        2971.50           1509        8640.00     37679.89
  299.51        2971.75           1513        7007.00     30546.73
  299.54        2972.00           1516        5793.00     25245.79
  299.57        2972.25           1519        4701.00     20479.01
  299.60        2972.50           1523        3064.00     13335.76
  299.63        2972.75           1526        1966.00      8546.22
  299.66        2973.00           1529         993.00      4303.08
  299.69        2973.25           1533         410.00      1761.21
  299.72        2973.50           1536         276.00      1177.03
  299.75        2973.75           1539         235.00       998.29
  299.79        2974.00           1543         206.00       871.86
  299.82        2974.25           1546         162.00       680.05
  299.85        2974.50           1549         132.00       549.27
  299.88        2974.75           1553         110.00       453.36
  299.91        2975.00           1556          81.00       326.94
  299.94        2975.25           1559          54.00       209.24
  299.97        2975.50           1563          46.00       174.37
  300.00        2975.75           1566          57.00       222.32
  300.03        2976.00           1569          51.00       196.17
  300.07        2976.25           1573          56.00       217.96
  300.10        2976.50           1576          46.00       174.37
  300.13        2976.75           1579          49.00       187.45
  300.16        2977.00           1583          45.00       170.01
  300.19        2977.25           1586          57.00       222.32
  300.22        2977.50           1590          46.00       174.37
  300.25        2977.75           1593          51.00       196.17
  300.28        2978.00           1596          49.00       187.45
  300.31        2978.25           1600          51.00       196.17
  300.34        2978.50           1603          49.00       187.45
  300.37        2978.75           1606          59.00       231.04
  300.40        2979.00           1610          47.00       178.73
  300.44        2979.25           1613          48.00       183.09
  300.47        2979.50           1616          51.00       196.17
  300.50        2979.75           1620          57.00       222.32
  300.53        2980.00           1623          48.00       183.09
  300.56        2980.25           1626          49.00       187.45
  300.59        2980.50           1630          48.00       183.09
  300.62        2980.75           1633          57.00       222.32
  300.65        2981.00           1637          51.00       196.17
  300.68        2981.25           1640          50.00       191.81
  300.71        2981.50           1643          48.00       183.09
  300.74        2981.75           1647          47.00       178.73
  300.78        2982.00           1650          50.00       191.81
  300.81        2982.25           1653          49.00       187.45
  300.84        2982.50           1657          50.00       191.81
  300.87        2982.75           1660          59.00       231.04
  300.90        2983.00           1663          46.00       174.37
  300.93        2983.25           1667          49.00       187.45
  300.96        2983.50           1670          44.00       165.65
  300.99        2983.75           1673          50.00       191.81
  301.02        2984.00           1677          53.00       204.88
HS scan finished at 05:01:14
end
