************************************************************
  HS Scan of (1) Internal mercury lamp
************************************************************
Integration time is 0.2294 seconds per sample
dh250219Manchester 53.47 2.23 2.804185pr1000
************************************************************
Dead Time -------------------------  3E-08 
Number of Cycles Used -------------  4 
Starting Wavelength (Angstroms) ---  2950 
Final Wavelength (Angstoms) -------  2984 
Wavelength Increment (Angstroms) --  .25 
Filter Wheel #1 Position ---------- (1) Ground quartz diffuser (ND=2.32)
Filter Wheel #2 Position ---------- (1) Neutral Density 0.494



************************************************************
HS scan start time = 04:18:41
Dark Count =  4.9 


Time (GMT)  Wavelength (Ang)  Step Number  Raw Counts  Counts/Second

  259.05        2950.00           1222          52.00       205.32
  259.12        2950.25           1226          57.00       227.12
  259.15        2950.50           1229          55.00       218.40
  259.18        2950.75           1232          50.00       196.60
  259.21        2951.00           1236          56.00       222.76
  259.25        2951.25           1239          58.00       231.48
  259.28        2951.50           1242          55.00       218.40
  259.31        2951.75           1246          51.00       200.96
  259.34        2952.00           1249          50.00       196.60
  259.37        2952.25           1252          51.00       200.96
  259.40        2952.50           1256          41.00       157.37
  259.43        2952.75           1259          54.00       214.04
  259.46        2953.00           1262          55.00       218.40
  259.49        2953.25           1266          52.00       205.32
  259.52        2953.50           1269          57.00       227.12
  259.55        2953.75           1272          62.00       248.91
  259.58        2954.00           1276          60.00       240.19
  259.61        2954.25           1279          56.00       222.76
  259.64        2954.50           1282          61.00       244.55
  259.68        2954.75           1286          53.00       209.68
  259.71        2955.00           1289          52.00       205.32
  259.74        2955.25           1292          52.00       205.32
  259.77        2955.50           1296          58.00       231.48
  259.80        2955.75           1299          56.00       222.76
  259.83        2956.00           1302          55.00       218.40
  259.86        2956.25           1306          51.00       200.96
  259.89        2956.50           1309          52.00       205.32
  259.92        2956.75           1312          63.00       253.27
  259.95        2957.00           1316          61.00       244.55
  259.98        2957.25           1319          54.00       214.04
  260.01        2957.50           1322          56.00       222.76
  260.05        2957.75           1326          47.00       183.52
  260.08        2958.00           1329          54.00       214.04
  260.11        2958.25           1332          57.00       227.12
  260.14        2958.50           1336          49.00       192.24
  260.17        2958.75           1339          53.00       209.68
  260.20        2959.00           1342          59.00       235.83
  260.23        2959.25           1346          60.00       240.19
  260.26        2959.50           1349          64.00       257.63
  260.29        2959.75           1352          58.00       231.48
  260.32        2960.00           1356          86.00       353.53
  260.36        2960.25           1359         115.00       479.95
  260.39        2960.50           1362         128.00       536.63
  260.42        2960.75           1366         185.00       785.11
  260.45        2961.00           1369         199.00       846.14
  260.48        2961.25           1372         233.00       994.36
  260.51        2961.50           1376         297.00      1273.37
  260.54        2961.75           1379         337.00      1447.75
  260.57        2962.00           1382         538.00      2324.05
  260.60        2962.25           1386        1671.00      7264.44
  260.64        2962.50           1389        2908.00     12660.00
  260.67        2962.75           1392        4115.00     17926.38
  260.70        2963.00           1396        5579.00     24316.34
  260.73        2963.25           1399        6770.00     29516.53
  260.76        2963.50           1402        7932.00     34591.68
  260.79        2963.75           1406        9551.00     41665.39
  260.82        2964.00           1409       10759.00     46945.32
  260.85        2964.25           1412       11946.00     52135.10
  260.88        2964.50           1416       13625.00     59478.75
  260.92        2964.75           1419       14808.00     64654.93
  260.95        2965.00           1422       16027.00     69990.31
  260.98        2965.25           1426       17761.00     77582.71
  261.01        2965.50           1429       18954.00     82808.34
  261.04        2965.75           1432       20144.00     88022.46
  261.07        2966.00           1436       21873.00     95601.16
  261.10        2966.25           1439       22848.00     99876.40
  261.13        2966.50           1442       23930.00    104622.10
  261.16        2966.75           1446       25289.00    110584.70
  261.19        2967.00           1449       25843.00    113015.90
  261.23        2967.25           1452       25870.00    113134.40
  261.26        2967.50           1456       25890.00    113222.20
  261.29        2967.75           1459       25694.00    112362.00
  261.32        2968.00           1462       25921.00    113358.30
  261.35        2968.25           1466       25191.00    110154.60
  261.38        2968.50           1469       24183.00    105732.00
  261.41        2968.75           1472       23002.00    100551.80
  261.44        2969.00           1476       21614.00     94465.68
  261.47        2969.25           1479       20252.00     88495.75
  261.50        2969.50           1482       19330.00     84455.65
  261.54        2969.75           1486       17490.00     76395.90
  261.57        2970.00           1489       16467.00     71916.55
  261.60        2970.25           1492       15302.00     66816.90
  261.63        2970.50           1496       13758.00     60060.60
  261.66        2970.75           1499       12594.00     54968.96
  261.69        2971.00           1502       11260.00     49135.58
  261.72        2971.25           1506        9565.00     41726.57
  261.75        2971.50           1509        8286.00     36138.11
  261.78        2971.75           1513        6703.00     29223.96
  261.81        2972.00           1516        5592.00     24373.09
  261.84        2972.25           1519        4365.00     19017.39
  261.88        2972.50           1523        2875.00     12516.03
  261.91        2972.75           1526        1799.00      7822.67
  261.94        2973.00           1529         894.00      3876.21
  261.97        2973.25           1533         367.00      1578.54
  262.00        2973.50           1536         254.00      1085.91
  262.03        2973.75           1539         240.00      1024.88
  262.06        2974.00           1543         201.00       854.86
  262.09        2974.25           1546         149.00       628.17
  262.12        2974.50           1549         114.00       475.60
  262.15        2974.75           1553          77.00       314.30
  262.18        2975.00           1556          70.00       283.79
  262.22        2975.25           1559          58.00       231.48
  262.25        2975.50           1563          60.00       240.19
  262.28        2975.75           1566          58.00       231.48
  262.31        2976.00           1569          61.00       244.55
  262.34        2976.25           1573          49.00       192.24
  262.37        2976.50           1576          44.00       170.45
  262.40        2976.75           1579          46.00       179.16
  262.43        2977.00           1583          57.00       227.12
  262.46        2977.25           1586          51.00       200.96
  262.49        2977.50           1590          47.00       183.52
  262.52        2977.75           1593          51.00       200.96
  262.56        2978.00           1596          55.00       218.40
  262.59        2978.25           1600          58.00       231.48
  262.62        2978.50           1603          49.00       192.24
  262.65        2978.75           1606          57.00       227.12
  262.68        2979.00           1610          47.00       183.52
  262.71        2979.25           1613          55.00       218.40
  262.74        2979.50           1616          48.00       187.88
  262.77        2979.75           1620          49.00       192.24
  262.80        2980.00           1623          54.00       214.04
  262.83        2980.25           1626          51.00       200.96
  262.86        2980.50           1630          48.00       187.88
  262.89        2980.75           1633          50.00       196.60
  262.93        2981.00           1637          53.00       209.68
  262.96        2981.25           1640          45.00       174.80
  262.99        2981.50           1643          51.00       200.96
  263.02        2981.75           1647          45.00       174.80
  263.05        2982.00           1650          54.00       214.04
  263.08        2982.25           1653          50.00       196.60
  263.11        2982.50           1657          53.00       209.68
  263.14        2982.75           1660          46.00       179.16
  263.17        2983.00           1663          40.00       153.01
  263.20        2983.25           1667          51.00       200.96
  263.24        2983.50           1670          47.00       183.52
  263.27        2983.75           1673          50.00       196.60
  263.30        2984.00           1677          48.00       187.88
HS scan finished at 04:23:31
end
************************************************************
  HS Scan of (1) Internal mercury lamp
************************************************************
Integration time is 0.2294 seconds per sample
dh250219Manchester 53.47 2.23 2.804185pr1000
************************************************************
Dead Time -------------------------  3E-08 
Number of Cycles Used -------------  4 
Starting Wavelength (Angstroms) ---  2950 
Final Wavelength (Angstoms) -------  2984 
Wavelength Increment (Angstroms) --  .25 
Filter Wheel #1 Position ---------- (1) Ground quartz diffuser (ND=2.32)
Filter Wheel #2 Position ---------- (1) Neutral Density 0.494



************************************************************
HS scan start time = 18:42:08
Dark Count =  5.5 


Time (GMT)  Wavelength (Ang)  Step Number  Raw Counts  Counts/Second

 1122.50        2950.00           1222          55.00       215.78
 1122.56        2950.25           1226          50.00       193.99
 1122.59        2950.50           1229          61.00       241.94
 1122.63        2950.75           1232          60.00       237.58
 1122.66        2951.00           1236          59.00       233.22
 1122.69        2951.25           1239          55.00       215.78
 1122.72        2951.50           1242          56.00       220.14
 1122.75        2951.75           1246          69.00       276.81
 1122.78        2952.00           1249          53.00       207.06
 1122.81        2952.25           1252          52.00       202.70
 1122.84        2952.50           1256          65.00       259.37
 1122.87        2952.75           1259          59.00       233.22
 1122.90        2953.00           1262          56.00       220.14
 1122.93        2953.25           1266          58.00       228.86
 1122.96        2953.50           1269          55.00       215.78
 1122.99        2953.75           1272          52.00       202.70
 1123.02        2954.00           1276          57.00       224.50
 1123.06        2954.25           1279          48.00       185.27
 1123.09        2954.50           1282          50.00       193.99
 1123.12        2954.75           1286          57.00       224.50
 1123.15        2955.00           1289          61.00       241.94
 1123.18        2955.25           1292          55.00       215.78
 1123.21        2955.50           1296          51.00       198.34
 1123.24        2955.75           1299          49.00       189.63
 1123.27        2956.00           1302          56.00       220.14
 1123.30        2956.25           1306          60.00       237.58
 1123.33        2956.50           1309          54.00       211.42
 1123.36        2956.75           1312          48.00       185.27
 1123.40        2957.00           1316          50.00       193.99
 1123.43        2957.25           1319          47.00       180.91
 1123.46        2957.50           1322          57.00       224.50
 1123.49        2957.75           1326          53.00       207.06
 1123.52        2958.00           1329          53.00       207.06
 1123.55        2958.25           1332          52.00       202.70
 1123.58        2958.50           1336          56.00       220.14
 1123.61        2958.75           1339          52.00       202.70
 1123.64        2959.00           1342          63.00       250.66
 1123.67        2959.25           1346          52.00       202.70
 1123.70        2959.50           1349          65.00       259.37
 1123.74        2959.75           1352          68.00       272.45
 1123.77        2960.00           1356          95.00       390.15
 1123.80        2960.25           1359         111.00       459.90
 1123.83        2960.50           1362         160.00       673.51
 1123.86        2960.75           1366         200.00       847.89
 1123.89        2961.00           1369         221.00       939.43
 1123.92        2961.25           1372         266.00      1135.61
 1123.95        2961.50           1376         324.00      1388.46
 1123.98        2961.75           1379         526.00      2269.12
 1124.01        2962.00           1382        1126.00      4885.20
 1124.05        2962.25           1386        2601.00     11318.14
 1124.08        2962.50           1389        3767.00     16405.20
 1124.11        2962.75           1392        4990.00     21742.60
 1124.14        2963.00           1396        6530.00     28465.89
 1124.17        2963.25           1399        7568.00     32999.09
 1124.20        2963.50           1402        8841.00     38560.28
 1124.23        2963.75           1406       10298.00     44927.57
 1124.26        2964.00           1409       11484.00     50112.34
 1124.29        2964.25           1412       12659.00     55250.62
 1124.33        2964.50           1416       14130.00     61685.54
 1124.36        2964.75           1419       15540.00     67855.96
 1124.39        2965.00           1422       16684.00     72863.99
 1124.42        2965.25           1426       18457.00     80628.53
 1124.45        2965.50           1429       19571.00     85508.97
 1124.48        2965.75           1432       20698.00     90447.80
 1124.51        2966.00           1436       22421.00     98001.31
 1124.54        2966.25           1439       23489.00    102685.10
 1124.57        2966.50           1442       24388.00    106628.70
 1124.60        2966.75           1446       25468.00    111367.50
 1124.63        2967.00           1449       25742.00    112570.00
 1124.66        2967.25           1452       25552.00    111736.20
 1124.70        2967.50           1456       25527.00    111626.50
 1124.73        2967.75           1459       25665.00    112232.10
 1124.76        2968.00           1462       25460.00    111332.40
 1124.79        2968.25           1466       24571.00    107431.60
 1124.82        2968.50           1469       23323.00    101957.00
 1124.85        2968.75           1472       22200.00     97032.28
 1124.88        2969.00           1476       20723.00     90557.37
 1124.91        2969.25           1479       19614.00     85697.38
 1124.94        2969.50           1482       18448.00     80589.11
 1124.98        2969.75           1486       17118.00     74764.28
 1125.01        2970.00           1489       15711.00     68604.44
 1125.04        2970.25           1492       14601.00     63746.47
 1125.07        2970.50           1496       13108.00     57214.51
 1125.10        2970.75           1499       11745.00     51253.55
 1125.13        2971.00           1502       10626.00     46361.30
 1125.16        2971.25           1506        9111.00     39740.03
 1125.19        2971.50           1509        7851.00     34235.24
 1125.22        2971.75           1513        6258.00     27278.20
 1125.25        2972.00           1516        5003.00     21799.35
 1125.28        2972.25           1519        3847.00     16754.28
 1125.32        2972.50           1523        2345.00     10201.47
 1125.35        2972.75           1526        1327.00      5761.68
 1125.38        2973.00           1529         606.00      2617.90
 1125.41        2973.25           1533         341.00      1462.58
 1125.44        2973.50           1536         266.00      1135.61
 1125.47        2973.75           1539         238.00      1013.54
 1125.50        2974.00           1543         190.00       804.29
 1125.53        2974.25           1546         135.00       564.53
 1125.56        2974.50           1549         118.00       490.42
 1125.59        2974.75           1553          84.00       342.20
 1125.63        2975.00           1556          65.00       259.37
 1125.66        2975.25           1559          64.00       255.02
 1125.69        2975.50           1563          53.00       207.06
 1125.72        2975.75           1566          53.00       207.06
 1125.75        2976.00           1569          57.00       224.50
 1125.78        2976.25           1573          51.00       198.34
 1125.81        2976.50           1576          62.00       246.30
 1125.84        2976.75           1579          50.00       193.99
 1125.87        2977.00           1583          54.00       211.42
 1125.91        2977.25           1586          46.00       176.55
 1125.94        2977.50           1590          47.00       180.91
 1125.97        2977.75           1593          47.00       180.91
 1126.00        2978.00           1596          48.00       185.27
 1126.03        2978.25           1600          52.00       202.70
 1126.06        2978.50           1603          50.00       193.99
 1126.09        2978.75           1606          52.00       202.70
 1126.12        2979.00           1610          44.00       167.83
 1126.15        2979.25           1613          46.00       176.55
 1126.18        2979.50           1616          53.00       207.06
 1126.21        2979.75           1620          50.00       193.99
 1126.24        2980.00           1623          47.00       180.91
 1126.27        2980.25           1626          45.00       172.19
 1126.31        2980.50           1630          48.00       185.27
 1126.34        2980.75           1633          47.00       180.91
 1126.37        2981.00           1637          52.00       202.70
 1126.40        2981.25           1640          50.00       193.99
 1126.43        2981.50           1643          51.00       198.34
 1126.46        2981.75           1647          53.00       207.06
 1126.49        2982.00           1650          50.00       193.99
 1126.52        2982.25           1653          51.00       198.34
