************************************************************
  HS Scan of (1) Internal mercury lamp
************************************************************
Integration time is 0.2294 seconds per sample
dh200217Manchester 53.47 2.23 2.804185pr1000
************************************************************
Dead Time -------------------------  3E-08 
Number of Cycles Used -------------  4 
Starting Wavelength (Angstroms) ---  2950 
Final Wavelength (Angstoms) -------  2984 
Wavelength Increment (Angstroms) --  .25 
Filter Wheel #1 Position ---------- (1) Ground quartz diffuser (ND=2.32)
Filter Wheel #2 Position ---------- (1) Neutral Density 0.494



************************************************************
HS scan start time = 04:30:54
Dark Count =  6.2 


Time (GMT)  Wavelength (Ang)  Step Number  Raw Counts  Counts/Second

  271.26        2950.00           1222          51.00       195.29
  271.33        2950.25           1226          47.00       177.86
  271.36        2950.50           1229          45.00       169.14
  271.39        2950.75           1232          47.00       177.86
  271.42        2951.00           1236          47.00       177.86
  271.45        2951.25           1239          48.00       182.22
  271.48        2951.50           1242          45.00       169.14
  271.52        2951.75           1246          47.00       177.86
  271.55        2952.00           1249          48.00       182.22
  271.58        2952.25           1252          48.00       182.22
  271.61        2952.50           1256          39.00       142.98
  271.64        2952.75           1259          46.00       173.50
  271.67        2953.00           1262          52.00       199.65
  271.70        2953.25           1266          44.00       164.78
  271.73        2953.50           1269          45.00       169.14
  271.76        2953.75           1272          47.00       177.86
  271.79        2954.00           1276          40.00       147.34
  271.82        2954.25           1279          47.00       177.86
  271.86        2954.50           1282          42.00       156.06
  271.89        2954.75           1286          47.00       177.86
  271.92        2955.00           1289          42.00       156.06
  271.95        2955.25           1292          42.00       156.06
  271.98        2955.50           1296          44.00       164.78
  272.01        2955.75           1299          46.00       173.50
  272.04        2956.00           1302          39.00       142.98
  272.07        2956.25           1306          47.00       177.86
  272.10        2956.50           1309          43.00       160.42
  272.13        2956.75           1312          49.00       186.57
  272.16        2957.00           1316          48.00       182.22
  272.19        2957.25           1319          44.00       164.78
  272.22        2957.50           1322          50.00       190.93
  272.26        2957.75           1326          40.00       147.34
  272.29        2958.00           1329          45.00       169.14
  272.32        2958.25           1332          53.00       204.01
  272.35        2958.50           1336          43.00       160.42
  272.38        2958.75           1339          48.00       182.22
  272.41        2959.00           1342          49.00       186.57
  272.44        2959.25           1346          44.00       164.78
  272.47        2959.50           1349          53.00       204.01
  272.50        2959.75           1352          52.00       199.65
  272.53        2960.00           1356          81.00       326.07
  272.56        2960.25           1359         115.00       474.29
  272.59        2960.50           1362         166.00       696.61
  272.63        2960.75           1366         208.00       879.71
  272.66        2961.00           1369         256.00      1088.96
  272.69        2961.25           1372         298.00      1272.06
  272.72        2961.50           1376         393.00      1686.22
  272.75        2961.75           1379         584.00      2518.94
  272.78        2962.00           1382        1147.00      4973.72
  272.81        2962.25           1386        2809.00     12222.44
  272.84        2962.50           1389        4418.00     19243.01
  272.87        2962.75           1392        6034.00     26297.11
  272.91        2963.00           1396        7983.00     34808.78
  272.94        2963.25           1399        9733.00     42455.09
  272.97        2963.50           1402       11485.00     50113.65
  273.00        2963.75           1406       13791.00     60199.29
  273.03        2964.00           1409       15434.00     67388.94
  273.06        2964.25           1412       17277.00     75457.47
  273.09        2964.50           1416       19394.00     84730.37
  273.12        2964.75           1419       20976.00     91663.24
  273.15        2965.00           1422       22612.00     98835.79
  273.19        2965.25           1426       24859.00    108692.10
  273.22        2965.50           1429       26475.00    115784.20
  273.25        2965.75           1432       28225.00    123467.80
  273.28        2966.00           1436       30391.00    132982.80
  273.31        2966.25           1439       32080.00    140406.20
  273.34        2966.50           1442       33424.00    146315.60
  273.37        2966.75           1446       35234.00    154277.40
  273.40        2967.00           1449       35677.00    156226.60
  273.43        2967.25           1452       35898.00    157199.10
  273.46        2967.50           1456       35868.00    157067.00
  273.50        2967.75           1459       35854.00    157005.40
  273.53        2968.00           1462       35739.00    156499.40
  273.56        2968.25           1466       34685.00    151862.10
  273.59        2968.50           1469       33287.00    145713.20
  273.62        2968.75           1472       31974.00    139940.20
  273.65        2969.00           1476       29845.00    130583.80
  273.68        2969.25           1479       28119.00    123002.30
  273.71        2969.50           1482       26510.00    115937.90
  273.74        2969.75           1486       24472.00    106994.20
  273.78        2970.00           1489       22730.00     99353.24
  273.81        2970.25           1492       21153.00     92439.09
  273.84        2970.50           1496       18863.00     82404.00
  273.87        2970.75           1499       17292.00     75523.15
  273.90        2971.00           1502       15714.00     68614.50
  273.93        2971.25           1506       13408.00     58523.76
  273.96        2971.50           1509       11637.00     50778.26
  273.99        2971.75           1513        9431.00     41135.30
  274.02        2972.00           1516        7812.00     34061.81
  274.05        2972.25           1519        6227.00     27139.79
  274.09        2972.50           1523        4185.00     18226.18
  274.12        2972.75           1526        2645.00     11507.02
  274.15        2973.00           1529        1326.00      5754.26
  274.18        2973.25           1533         556.00      2396.86
  274.21        2973.50           1536         385.00      1651.35
  274.24        2973.75           1539         310.00      1324.38
  274.27        2974.00           1543         255.00      1084.60
  274.30        2974.25           1546         210.00       888.43
  274.33        2974.50           1549         157.00       657.38
  274.36        2974.75           1553         102.00       417.62
  274.40        2975.00           1556          78.00       312.99
  274.43        2975.25           1559          61.00       238.89
  274.46        2975.50           1563          55.00       212.73
  274.49        2975.75           1566          52.00       199.65
  274.52        2976.00           1569          46.00       173.50
  274.55        2976.25           1573          48.00       182.22
  274.58        2976.50           1576          49.00       186.57
  274.61        2976.75           1579          51.00       195.29
  274.64        2977.00           1583          44.00       164.78
  274.67        2977.25           1586          54.00       208.37
  274.70        2977.50           1590          44.00       164.78
  274.74        2977.75           1593          45.00       169.14
  274.77        2978.00           1596          45.00       169.14
  274.80        2978.25           1600          43.00       160.42
  274.83        2978.50           1603          45.00       169.14
  274.86        2978.75           1606          41.00       151.70
  274.89        2979.00           1610          44.00       164.78
  274.92        2979.25           1613          47.00       177.86
  274.95        2979.50           1616          40.00       147.34
  274.98        2979.75           1620          44.00       164.78
  275.01        2980.00           1623          47.00       177.86
  275.04        2980.25           1626          44.00       164.78
  275.07        2980.50           1630          48.00       182.22
  275.10        2980.75           1633          43.00       160.42
  275.14        2981.00           1637          48.00       182.22
  275.17        2981.25           1640          45.00       169.14
  275.20        2981.50           1643          41.00       151.70
  275.23        2981.75           1647          49.00       186.57
  275.26        2982.00           1650          48.00       182.22
  275.29        2982.25           1653          41.00       151.70
  275.32        2982.50           1657          43.00       160.42
  275.35        2982.75           1660          50.00       190.93
  275.38        2983.00           1663          43.00       160.42
  275.41        2983.25           1667          41.00       151.70
  275.44        2983.50           1670          42.00       156.06
  275.47        2983.75           1673          45.00       169.14
  275.50        2984.00           1677          45.00       169.14
HS scan finished at 04:35:43
end
************************************************************
  HS Scan of (1) Internal mercury lamp
************************************************************
Integration time is 0.2294 seconds per sample
dh200217Manchester 53.47 2.23 2.804185pr1000
************************************************************
Dead Time -------------------------  3E-08 
Number of Cycles Used -------------  4 
Starting Wavelength (Angstroms) ---  2950 
Final Wavelength (Angstoms) -------  2984 
Wavelength Increment (Angstroms) --  .25 
Filter Wheel #1 Position ---------- (1) Ground quartz diffuser (ND=2.32)
Filter Wheel #2 Position ---------- (1) Neutral Density 0.494



************************************************************
HS scan start time = 18:42:01
Dark Count =  5.8 


Time (GMT)  Wavelength (Ang)  Step Number  Raw Counts  Counts/Second

 1122.39        2950.00           1222          41.00       153.44
 1122.45        2950.25           1226          37.00       136.01
 1122.48        2950.50           1229          45.00       170.88
 1122.51        2950.75           1232          48.00       183.96
 1122.54        2951.00           1236          51.00       197.04
 1122.57        2951.25           1239          47.00       179.60
 1122.61        2951.50           1242          46.00       175.24
 1122.64        2951.75           1246          43.00       162.16
 1122.67        2952.00           1249          40.00       149.09
 1122.70        2952.25           1252          39.00       144.73
 1122.73        2952.50           1256          46.00       175.24
 1122.76        2952.75           1259          43.00       162.16
 1122.79        2953.00           1262          44.00       166.52
 1122.82        2953.25           1266          54.00       210.11
 1122.85        2953.50           1269          44.00       166.52
 1122.88        2953.75           1272          41.00       153.44
 1122.92        2954.00           1276          47.00       179.60
 1122.95        2954.25           1279          46.00       175.24
 1122.98        2954.50           1282          43.00       162.16
 1123.01        2954.75           1286          49.00       188.32
 1123.04        2955.00           1289          48.00       183.96
 1123.07        2955.25           1292          55.00       214.47
 1123.10        2955.50           1296          46.00       175.24
 1123.13        2955.75           1299          40.00       149.09
 1123.16        2956.00           1302          40.00       149.09
 1123.19        2956.25           1306          46.00       175.24
 1123.22        2956.50           1309          42.00       157.80
 1123.26        2956.75           1312          44.00       166.52
 1123.29        2957.00           1316          52.00       201.40
 1123.32        2957.25           1319          47.00       179.60
 1123.35        2957.50           1322          44.00       166.52
 1123.38        2957.75           1326          54.00       210.11
 1123.41        2958.00           1329          44.00       166.52
 1123.44        2958.25           1332          47.00       179.60
 1123.47        2958.50           1336          46.00       175.24
 1123.50        2958.75           1339          46.00       175.24
 1123.53        2959.00           1342          50.00       192.68
 1123.56        2959.25           1346          47.00       179.60
 1123.59        2959.50           1349          55.00       214.47
 1123.63        2959.75           1352          66.00       262.43
 1123.66        2960.00           1356         117.00       484.75
 1123.69        2960.25           1359         153.00       641.69
 1123.72        2960.50           1362         184.00       776.83
 1123.75        2960.75           1366         230.00       977.36
 1123.78        2961.00           1369         284.00      1212.77
 1123.81        2961.25           1372         323.00      1382.80
 1123.84        2961.50           1376         401.00      1722.84
 1123.87        2961.75           1379         542.00      2337.57
 1123.91        2962.00           1382        1088.00      4718.19
 1123.94        2962.25           1386        2592.00     11277.57
 1123.97        2962.50           1389        4119.00     17939.91
 1124.00        2962.75           1392        5705.00     24862.48
 1124.03        2963.00           1396        7854.00     34247.03
 1124.06        2963.25           1399        9640.00     42050.40
 1124.09        2963.50           1402       11179.00     48777.52
 1124.12        2963.75           1406       13480.00     58840.49
 1124.15        2964.00           1409       15181.00     66283.38
 1124.19        2964.25           1412       16864.00     73650.78
 1124.22        2964.50           1416       19128.00     83566.70
 1124.25        2964.75           1419       20571.00     89889.85
 1124.28        2965.00           1422       22351.00     97693.05
 1124.31        2965.25           1426       24559.00    107377.60
 1124.34        2965.50           1429       26197.00    114565.70
 1124.37        2965.75           1432       27882.00    121963.30
 1124.40        2966.00           1436       30129.00    131833.40
 1124.43        2966.25           1439       31744.00    138930.90
 1124.47        2966.50           1442       33125.00    145002.60
 1124.50        2966.75           1446       34768.00    152228.90
 1124.53        2967.00           1449       35383.00    154934.70
 1124.56        2967.25           1452       35527.00    155568.30
 1124.59        2967.50           1456       35612.00    155942.30
 1124.62        2967.75           1459       35625.00    155999.50
 1124.65        2968.00           1462       35350.00    154789.50
 1124.68        2968.25           1466       34544.00    151243.50
 1124.71        2968.50           1469       33222.00    145429.10
 1124.75        2968.75           1472       31618.00    138377.10
 1124.78        2969.00           1476       29537.00    129232.40
 1124.81        2969.25           1479       27904.00    122059.90
 1124.84        2969.50           1482       26132.00    114280.40
 1124.87        2969.75           1486       24039.00    105096.30
 1124.90        2970.00           1489       22431.00     98043.84
 1124.93        2970.25           1492       20601.00     90021.34
 1124.96        2970.50           1496       18611.00     81301.81
 1124.99        2970.75           1499       16981.00     74163.09
 1125.03        2971.00           1502       15372.00     67119.33
 1125.06        2971.25           1506       13189.00     57567.52
 1125.09        2971.50           1509       11606.00     50644.46
 1125.12        2971.75           1513        9539.00     41609.02
 1125.15        2972.00           1516        7842.00     34194.61
 1125.18        2972.25           1519        6173.00     26905.76
 1125.21        2972.50           1523        3950.00     17202.42
 1125.24        2972.75           1526        2488.00     10823.92
 1125.27        2973.00           1529        1260.00      5468.20
 1125.30        2973.25           1533         484.00      2084.70
 1125.33        2973.50           1536         327.00      1400.23
 1125.36        2973.75           1539         282.00      1204.05
 1125.40        2974.00           1543         231.00       981.72
 1125.43        2974.25           1546         153.00       641.69
 1125.46        2974.50           1549         112.00       462.95
 1125.49        2974.75           1553          88.00       358.33
 1125.52        2975.00           1556          68.00       271.14
 1125.55        2975.25           1559          75.00       301.66
 1125.58        2975.50           1563          51.00       197.04
 1125.61        2975.75           1566          46.00       175.24
 1125.64        2976.00           1569          49.00       188.32
 1125.67        2976.25           1573          47.00       179.60
 1125.70        2976.50           1576          50.00       192.68
 1125.73        2976.75           1579          52.00       201.40
 1125.77        2977.00           1583          42.00       157.80
 1125.80        2977.25           1586          43.00       162.16
 1125.83        2977.50           1590          45.00       170.88
 1125.86        2977.75           1593          54.00       210.11
 1125.89        2978.00           1596          48.00       183.96
 1125.92        2978.25           1600          44.00       166.52
 1125.95        2978.50           1603          45.00       170.88
 1125.98        2978.75           1606          43.00       162.16
 1126.01        2979.00           1610          46.00       175.24
 1126.04        2979.25           1613          50.00       192.68
 1126.07        2979.50           1616          51.00       197.04
 1126.10        2979.75           1620          44.00       166.52
 1126.14        2980.00           1623          45.00       170.88
 1126.17        2980.25           1626          40.00       149.09
 1126.20        2980.50           1630          40.00       149.09
 1126.23        2980.75           1633          43.00       162.16
 1126.26        2981.00           1637          43.00       162.16
 1126.29        2981.25           1640          44.00       166.52
 1126.32        2981.50           1643          44.00       166.52
 1126.35        2981.75           1647          46.00       175.24
 1126.38        2982.00           1650          48.00       183.96
 1126.41        2982.25           1653          50.00       192.68
