************************************************************
  HS Scan of (1) Internal mercury lamp
************************************************************
Integration time is 0.2294 seconds per sample
dh210219Manchester 53.47 2.23 2.804185pr1000
************************************************************
Dead Time -------------------------  3E-08 
Number of Cycles Used -------------  4 
Starting Wavelength (Angstroms) ---  2950 
Final Wavelength (Angstoms) -------  2984 
Wavelength Increment (Angstroms) --  .25 
Filter Wheel #1 Position ---------- (1) Ground quartz diffuser (ND=2.32)
Filter Wheel #2 Position ---------- (1) Neutral Density 0.494



************************************************************
HS scan start time = 04:28:32
Dark Count =  6.4 


Time (GMT)  Wavelength (Ang)  Step Number  Raw Counts  Counts/Second

  268.90        2950.00           1222          57.00       220.58
  268.96        2950.25           1226          60.00       233.65
  268.99        2950.50           1229          57.00       220.58
  269.02        2950.75           1232          57.00       220.58
  269.05        2951.00           1236          58.00       224.94
  269.08        2951.25           1239          51.00       194.42
  269.11        2951.50           1242          58.00       224.94
  269.14        2951.75           1246          57.00       220.58
  269.18        2952.00           1249          57.00       220.58
  269.21        2952.25           1252          60.00       233.65
  269.24        2952.50           1256          54.00       207.50
  269.27        2952.75           1259          62.00       242.37
  269.30        2953.00           1262          69.00       272.89
  269.33        2953.25           1266          54.00       207.50
  269.36        2953.50           1269          56.00       216.22
  269.39        2953.75           1272          53.00       203.14
  269.42        2954.00           1276          54.00       207.50
  269.45        2954.25           1279          46.00       172.63
  269.48        2954.50           1282          61.00       238.01
  269.51        2954.75           1286          56.00       216.22
  269.54        2955.00           1289          50.00       190.06
  269.58        2955.25           1292          56.00       216.22
  269.61        2955.50           1296          54.00       207.50
  269.64        2955.75           1299          58.00       224.94
  269.67        2956.00           1302          58.00       224.94
  269.70        2956.25           1306          51.00       194.42
  269.73        2956.50           1309          49.00       185.70
  269.76        2956.75           1312          51.00       194.42
  269.79        2957.00           1316          55.00       211.86
  269.82        2957.25           1319          52.00       198.78
  269.85        2957.50           1322          56.00       216.22
  269.88        2957.75           1326          49.00       185.70
  269.91        2958.00           1329          57.00       220.58
  269.94        2958.25           1332          57.00       220.58
  269.98        2958.50           1336          62.00       242.37
  270.01        2958.75           1339          57.00       220.58
  270.04        2959.00           1342          53.00       203.14
  270.07        2959.25           1346          52.00       198.78
  270.10        2959.50           1349          60.00       233.65
  270.13        2959.75           1352          76.00       303.40
  270.16        2960.00           1356          90.00       364.43
  270.19        2960.25           1359         113.00       464.70
  270.22        2960.50           1362         140.00       582.40
  270.25        2960.75           1366         182.00       765.49
  270.28        2961.00           1369         212.00       896.28
  270.32        2961.25           1372         237.00      1005.26
  270.35        2961.50           1376         282.00      1201.44
  270.38        2961.75           1379         330.00      1410.70
  270.41        2962.00           1382         487.00      2095.16
  270.44        2962.25           1386        1329.00      5766.47
  270.47        2962.50           1389        2371.00     10310.95
  270.50        2962.75           1392        3476.00     15131.54
  270.53        2963.00           1396        5159.00     22476.36
  270.56        2963.25           1399        6286.00     27396.53
  270.59        2963.50           1402        7538.00     32864.12
  270.62        2963.75           1406        9199.00     40120.63
  270.65        2964.00           1409       10521.00     45898.38
  270.69        2964.25           1412       11606.00     50641.83
  270.72        2964.50           1416       13299.00     58046.07
  270.75        2964.75           1419       14574.00     63624.38
  270.78        2965.00           1422       15817.00     69064.49
  270.81        2965.25           1426       17438.00     76161.62
  270.84        2965.50           1429       18507.00     80843.61
  270.87        2965.75           1432       19694.00     86043.97
  270.90        2966.00           1436       21342.00     93266.69
  270.93        2966.25           1439       22666.00     99071.69
  270.97        2966.50           1442       23900.00    104483.90
  271.00        2966.75           1446       25146.00    109950.60
  271.03        2967.00           1449       25679.00    112289.60
  271.06        2967.25           1452       26078.00    114040.80
  271.09        2967.50           1456       25924.00    113364.90
  271.12        2967.75           1459       25971.00    113571.10
  271.15        2968.00           1462       25946.00    113461.40
  271.18        2968.25           1466       25685.00    112315.90
  271.21        2968.50           1469       24985.00    109244.10
  271.25        2968.75           1472       23844.00    104238.30
  271.28        2969.00           1476       22393.00     97874.58
  271.31        2969.25           1479       21124.00     92311.08
  271.34        2969.50           1482       19906.00     86972.93
  271.37        2969.75           1486       18167.00     79354.34
  271.40        2970.00           1489       17212.00     75171.96
  271.43        2970.25           1492       15914.00     69489.09
  271.46        2970.50           1496       14317.00     62499.82
  271.49        2970.75           1499       13180.00     57525.52
  271.53        2971.00           1502       12049.00     52578.95
  271.56        2971.25           1506       10416.00     45439.41
  271.59        2971.50           1509        9217.00     40199.28
  271.62        2971.75           1513        7759.00     33829.43
  271.65        2972.00           1516        6647.00     28972.86
  271.68        2972.25           1519        5357.00     23340.67
  271.71        2972.50           1523        3847.00     16750.35
  271.74        2972.75           1526        2645.00     11506.15
  271.77        2973.00           1529        1432.00      6215.63
  271.80        2973.25           1533         507.00      2182.36
  271.83        2973.50           1536         307.00      1310.43
  271.87        2973.75           1539         234.00       992.18
  271.90        2974.00           1543         179.00       752.41
  271.93        2974.25           1546         139.00       578.04
  271.96        2974.50           1549         111.00       455.98
  271.99        2974.75           1553          77.00       307.76
  272.02        2975.00           1556          57.00       220.58
  272.05        2975.25           1559          56.00       216.22
  272.08        2975.50           1563          53.00       203.14
  272.11        2975.75           1566          60.00       233.65
  272.14        2976.00           1569          47.00       176.98
  272.17        2976.25           1573          58.00       224.94
  272.20        2976.50           1576          56.00       216.22
  272.23        2976.75           1579          47.00       176.98
  272.27        2977.00           1583          48.00       181.34
  272.30        2977.25           1586          56.00       216.22
  272.33        2977.50           1590          59.00       229.30
  272.36        2977.75           1593          47.00       176.98
  272.39        2978.00           1596          57.00       220.58
  272.42        2978.25           1600          49.00       185.70
  272.45        2978.50           1603          44.00       163.91
  272.48        2978.75           1606          59.00       229.30
  272.51        2979.00           1610          56.00       216.22
  272.54        2979.25           1613          54.00       207.50
  272.57        2979.50           1616          46.00       172.63
  272.61        2979.75           1620          54.00       207.50
  272.64        2980.00           1623          44.00       163.91
  272.67        2980.25           1626          48.00       181.34
  272.70        2980.50           1630          55.00       211.86
  272.73        2980.75           1633          53.00       203.14
  272.76        2981.00           1637          50.00       190.06
  272.79        2981.25           1640          48.00       181.34
  272.82        2981.50           1643          52.00       198.78
  272.85        2981.75           1647          45.00       168.27
  272.88        2982.00           1650          55.00       211.86
  272.91        2982.25           1653          50.00       190.06
  272.94        2982.50           1657          51.00       194.42
  272.97        2982.75           1660          47.00       176.98
  273.01        2983.00           1663          49.00       185.70
  273.04        2983.25           1667          55.00       211.86
  273.07        2983.50           1670          53.00       203.14
  273.10        2983.75           1673          49.00       185.70
  273.13        2984.00           1677          52.00       198.78
HS scan finished at 04:33:21
end
************************************************************
  HS Scan of (1) Internal mercury lamp
************************************************************
Integration time is 0.2294 seconds per sample
dh210219Manchester 53.47 2.23 2.804185pr1000
************************************************************
Dead Time -------------------------  3E-08 
Number of Cycles Used -------------  4 
Starting Wavelength (Angstroms) ---  2950 
Final Wavelength (Angstoms) -------  2984 
Wavelength Increment (Angstroms) --  .25 
Filter Wheel #1 Position ---------- (1) Ground quartz diffuser (ND=2.32)
Filter Wheel #2 Position ---------- (1) Neutral Density 0.494



************************************************************
HS scan start time = 18:42:03
Dark Count =  7.2 


Time (GMT)  Wavelength (Ang)  Step Number  Raw Counts  Counts/Second

 1122.41        2950.00           1222          54.00       204.01
 1122.48        2950.25           1226          51.00       190.93
 1122.51        2950.50           1229          49.00       182.22
 1122.54        2950.75           1232          57.00       217.09
 1122.57        2951.00           1236          60.00       230.17
 1122.60        2951.25           1239          53.00       199.65
 1122.63        2951.50           1242          58.00       221.45
 1122.66        2951.75           1246          54.00       204.01
 1122.70        2952.00           1249          59.00       225.81
 1122.73        2952.25           1252          48.00       177.86
 1122.76        2952.50           1256          51.00       190.93
 1122.79        2952.75           1259          53.00       199.65
 1122.82        2953.00           1262          56.00       212.73
 1122.85        2953.25           1266          51.00       190.93
 1122.88        2953.50           1269          58.00       221.45
 1122.91        2953.75           1272          54.00       204.01
 1122.94        2954.00           1276          60.00       230.17
 1122.97        2954.25           1279          49.00       182.22
 1123.00        2954.50           1282          48.00       177.86
 1123.03        2954.75           1286          54.00       204.01
 1123.06        2955.00           1289          69.00       269.40
 1123.09        2955.25           1292          56.00       212.73
 1123.12        2955.50           1296          53.00       199.65
 1123.16        2955.75           1299          54.00       204.01
 1123.19        2956.00           1302          52.00       195.29
 1123.22        2956.25           1306          49.00       182.22
 1123.25        2956.50           1309          69.00       269.40
 1123.28        2956.75           1312          66.00       256.32
 1123.31        2957.00           1316          55.00       208.37
 1123.34        2957.25           1319          60.00       230.17
 1123.37        2957.50           1322          58.00       221.45
 1123.40        2957.75           1326          53.00       199.65
 1123.43        2958.00           1329          69.00       269.40
 1123.46        2958.25           1332          58.00       221.45
 1123.50        2958.50           1336          62.00       238.89
 1123.53        2958.75           1339          60.00       230.17
 1123.56        2959.00           1342          58.00       221.45
 1123.59        2959.25           1346          57.00       217.09
 1123.62        2959.50           1349          64.00       247.60
 1123.65        2959.75           1352          74.00       291.20
 1123.68        2960.00           1356         103.00       417.62
 1123.71        2960.25           1359         130.00       535.32
 1123.74        2960.50           1362         161.00       670.46
 1123.77        2960.75           1366         219.00       923.30
 1123.80        2961.00           1369         233.00       984.34
 1123.83        2961.25           1372         261.00      1106.40
 1123.86        2961.50           1376         318.00      1354.89
 1123.89        2961.75           1379         442.00      1895.49
 1123.92        2962.00           1382         853.00      3687.42
 1123.95        2962.25           1386        2057.00      8937.88
 1123.98        2962.50           1389        3250.00     14142.01
 1124.02        2962.75           1392        4353.00     18954.98
 1124.05        2963.00           1396        5798.00     25262.38
 1124.08        2963.25           1399        7031.00     30646.30
 1124.11        2963.50           1402        8357.00     36438.24
 1124.14        2963.75           1406       10033.00     43761.86
 1124.17        2964.00           1409       11249.00     49077.44
 1124.20        2964.25           1412       12596.00     54967.64
 1124.23        2964.50           1416       13923.00     60772.43
 1124.26        2964.75           1419       15222.00     66456.69
 1124.30        2965.00           1422       16468.00     71910.85
 1124.33        2965.25           1426       18033.00     78763.93
 1124.36        2965.50           1429       19274.00     84200.21
 1124.39        2965.75           1432       20576.00     89905.64
 1124.42        2966.00           1436       22075.00     96476.74
 1124.45        2966.25           1439       23239.00    101581.10
 1124.48        2966.50           1442       24259.00    106055.30
 1124.51        2966.75           1446       25517.00    111575.10
 1124.54        2967.00           1449       25792.00    112782.00
 1124.58        2967.25           1452       25820.00    112904.90
 1124.61        2967.50           1456       25856.00    113062.90
 1124.64        2967.75           1459       25873.00    113137.50
 1124.67        2968.00           1462       25760.00    112641.60
 1124.70        2968.25           1466       25084.00    109675.00
 1124.73        2968.50           1469       24146.00    105559.60
 1124.76        2968.75           1472       23013.00    100589.90
 1124.79        2969.00           1476       21508.00     93990.91
 1124.82        2969.25           1479       20377.00     89033.49
 1124.85        2969.50           1482       19128.00     83560.56
 1124.89        2969.75           1486       17500.00     76429.63
 1124.92        2970.00           1489       16257.00     70987.11
 1124.95        2970.25           1492       15144.00     66115.31
 1124.98        2970.50           1496       13799.00     60229.92
 1125.01        2970.75           1499       12601.00     54989.51
 1125.04        2971.00           1502       11386.00     49676.42
 1125.07        2971.25           1506        9805.00     42765.39
 1125.10        2971.50           1509        8646.00     37700.86
 1125.13        2971.75           1513        7019.00     30593.89
 1125.16        2972.00           1516        5871.00     25581.09
 1125.19        2972.25           1519        4793.00     20875.32
 1125.23        2972.50           1523        3148.00     13697.00
 1125.26        2972.75           1526        1929.00      8379.61
 1125.29        2973.00           1529         894.00      3866.19
 1125.32        2973.25           1533         371.00      1585.95
 1125.35        2973.50           1536         266.00      1128.20
 1125.38        2973.75           1539         232.00       979.98
 1125.41        2974.00           1543         181.00       757.65
 1125.44        2974.25           1546         130.00       535.32
 1125.47        2974.50           1549          89.00       356.59
 1125.50        2974.75           1553          82.00       326.07
 1125.53        2975.00           1556          66.00       256.32
 1125.56        2975.25           1559          61.00       234.53
 1125.59        2975.50           1563          48.00       177.86
 1125.63        2975.75           1566          55.00       208.37
 1125.66        2976.00           1569          56.00       212.73
 1125.69        2976.25           1573          57.00       217.09
 1125.72        2976.50           1576          47.00       173.50
 1125.75        2976.75           1579          48.00       177.86
 1125.78        2977.00           1583          59.00       225.81
 1125.81        2977.25           1586          54.00       204.01
 1125.84        2977.50           1590          50.00       186.57
 1125.87        2977.75           1593          50.00       186.57
 1125.90        2978.00           1596          49.00       182.22
 1125.93        2978.25           1600          54.00       204.01
 1125.96        2978.50           1603          49.00       182.22
 1126.00        2978.75           1606          49.00       182.22
 1126.03        2979.00           1610          57.00       217.09
 1126.06        2979.25           1613          54.00       204.01
 1126.09        2979.50           1616          52.00       195.29
 1126.12        2979.75           1620          56.00       212.73
 1126.15        2980.00           1623          50.00       186.57
 1126.18        2980.25           1626          53.00       199.65
 1126.21        2980.50           1630          49.00       182.22
 1126.24        2980.75           1633          42.00       151.70
 1126.28        2981.00           1637          51.00       190.93
 1126.31        2981.25           1640          53.00       199.65
 1126.34        2981.50           1643          50.00       186.57
 1126.37        2981.75           1647          52.00       195.29
 1126.40        2982.00           1650          51.00       190.93
 1126.43        2982.25           1653          43.00       156.06
