************************************************************
  HS Scan of (1) Internal mercury lamp
************************************************************
Integration time is 0.2294 seconds per sample
dh230217Manchester 53.47 2.23 2.804185pr1000
************************************************************
Dead Time -------------------------  3E-08 
Number of Cycles Used -------------  4 
Starting Wavelength (Angstroms) ---  2950 
Final Wavelength (Angstoms) -------  2984 
Wavelength Increment (Angstroms) --  .25 
Filter Wheel #1 Position ---------- (1) Ground quartz diffuser (ND=2.32)
Filter Wheel #2 Position ---------- (1) Neutral Density 0.494



************************************************************
HS scan start time = 04:22:26
Dark Count =  8.100001 


Time (GMT)  Wavelength (Ang)  Step Number  Raw Counts  Counts/Second

  262.80        2950.00           1222          41.00       143.42
  262.87        2950.25           1226          59.00       221.88
  262.90        2950.50           1229          43.00       152.14
  262.93        2950.75           1232          50.00       182.65
  262.96        2951.00           1236          45.00       160.86
  262.99        2951.25           1239          43.00       152.14
  263.02        2951.50           1242          45.00       160.86
  263.05        2951.75           1246          47.00       169.57
  263.08        2952.00           1249          41.00       143.42
  263.11        2952.25           1252          41.00       143.42
  263.14        2952.50           1256          49.00       178.29
  263.17        2952.75           1259          49.00       178.29
  263.20        2953.00           1262          46.00       165.21
  263.24        2953.25           1266          44.00       156.50
  263.27        2953.50           1269          44.00       156.50
  263.30        2953.75           1272          48.00       173.93
  263.33        2954.00           1276          37.00       125.98
  263.36        2954.25           1279          45.00       160.86
  263.39        2954.50           1282          55.00       204.45
  263.42        2954.75           1286          44.00       156.50
  263.45        2955.00           1289          43.00       152.14
  263.48        2955.25           1292          45.00       160.86
  263.52        2955.50           1296          49.00       178.29
  263.55        2955.75           1299          42.00       147.78
  263.58        2956.00           1302          53.00       195.73
  263.61        2956.25           1306          43.00       152.14
  263.64        2956.50           1309          48.00       173.93
  263.67        2956.75           1312          42.00       147.78
  263.70        2957.00           1316          46.00       165.21
  263.73        2957.25           1319          43.00       152.14
  263.76        2957.50           1322          43.00       152.14
  263.79        2957.75           1326          45.00       160.86
  263.82        2958.00           1329          65.00       248.04
  263.86        2958.25           1332          45.00       160.86
  263.89        2958.50           1336          50.00       182.65
  263.92        2958.75           1339          45.00       160.86
  263.95        2959.00           1342          46.00       165.21
  263.98        2959.25           1346          50.00       182.65
  264.01        2959.50           1349          52.00       191.37
  264.04        2959.75           1352          66.00       252.40
  264.07        2960.00           1356          96.00       383.18
  264.10        2960.25           1359         148.00       609.86
  264.13        2960.50           1362         183.00       762.44
  264.16        2960.75           1366         220.00       923.74
  264.20        2961.00           1369         297.00      1259.42
  264.23        2961.25           1372         317.00      1346.61
  264.26        2961.50           1376         405.00      1730.26
  264.29        2961.75           1379         596.00      2562.97
  264.32        2962.00           1382        1130.00      4891.30
  264.35        2962.25           1386        2719.00     11821.54
  264.38        2962.50           1389        4283.00     18645.56
  264.41        2962.75           1392        5933.00     25847.85
  264.44        2963.00           1396        8007.00     34905.32
  264.47        2963.25           1399        9613.00     41922.36
  264.51        2963.50           1402       11407.00     49764.30
  264.54        2963.75           1406       13842.00     60414.11
  264.57        2964.00           1409       15568.00     67967.13
  264.60        2964.25           1412       17350.00     75768.81
  264.63        2964.50           1416       19501.00     85190.86
  264.66        2964.75           1419       21302.00     93083.91
  264.69        2965.00           1422       22933.00    100235.10
  264.72        2965.25           1426       25179.00    110087.90
  264.76        2965.50           1429       26977.00    117979.60
  264.79        2965.75           1432       28740.00    125721.30
  264.82        2966.00           1436       30685.00    134266.40
  264.85        2966.25           1439       32373.00    141686.00
  264.88        2966.50           1442       33893.00    148369.90
  264.91        2966.75           1446       35645.00    156077.40
  264.94        2967.00           1449       36111.00    158128.10
  264.97        2967.25           1452       36177.00    158418.50
  265.00        2967.50           1456       36210.00    158563.70
  265.04        2967.75           1459       36127.00    158198.50
  265.07        2968.00           1462       35952.00    157428.40
  265.10        2968.25           1466       35035.00    153393.50
  265.13        2968.50           1469       33782.00    147881.70
  265.16        2968.75           1472       32109.00    140525.40
  265.19        2969.00           1476       30038.00    131423.40
  265.22        2969.25           1479       28364.00    124069.90
  265.25        2969.50           1482       26699.00    116759.20
  265.28        2969.75           1486       24244.00    105985.60
  265.32        2970.00           1489       22739.00     99384.37
  265.35        2970.25           1492       21139.00     92369.39
  265.38        2970.50           1496       18979.00     82903.85
  265.41        2970.75           1499       17378.00     75891.43
  265.44        2971.00           1502       15714.00     68606.19
  265.47        2971.25           1506       13452.00     58707.93
  265.50        2971.50           1509       11849.00     51696.94
  265.53        2971.75           1513        9612.00     41917.99
  265.56        2972.00           1516        8088.00     35259.16
  265.59        2972.25           1519        6385.00     27821.38
  265.63        2972.50           1523        4238.00     18449.18
  265.66        2972.75           1526        2736.00     11895.70
  265.69        2973.00           1529        1329.00      5759.06
  265.72        2973.25           1533         504.00      2161.87
  265.75        2973.50           1536         345.00      1468.68
  265.78        2973.75           1539         293.00      1241.98
  265.81        2974.00           1543         239.00      1006.57
  265.84        2974.25           1546         174.00       723.21
  265.87        2974.50           1549         130.00       531.39
  265.90        2974.75           1553          90.00       357.02
  265.94        2975.00           1556          65.00       248.04
  265.97        2975.25           1559          57.00       213.17
  266.00        2975.50           1563          50.00       182.65
  266.03        2975.75           1566          48.00       173.93
  266.06        2976.00           1569          44.00       156.50
  266.09        2976.25           1573          46.00       165.21
  266.12        2976.50           1576          48.00       173.93
  266.15        2976.75           1579          48.00       173.93
  266.18        2977.00           1583          46.00       165.21
  266.22        2977.25           1586          52.00       191.37
  266.25        2977.50           1590          45.00       160.86
  266.28        2977.75           1593          51.00       187.01
  266.31        2978.00           1596          48.00       173.93
  266.34        2978.25           1600          43.00       152.14
  266.37        2978.50           1603          46.00       165.21
  266.40        2978.75           1606          45.00       160.86
  266.43        2979.00           1610          45.00       160.86
  266.46        2979.25           1613          50.00       182.65
  266.49        2979.50           1616          41.00       143.42
  266.52        2979.75           1620          47.00       169.57
  266.55        2980.00           1623          44.00       156.50
  266.59        2980.25           1626          43.00       152.14
  266.62        2980.50           1630          37.00       125.98
  266.65        2980.75           1633          43.00       152.14
  266.68        2981.00           1637          43.00       152.14
  266.71        2981.25           1640          48.00       173.93
  266.74        2981.50           1643          50.00       182.65
  266.77        2981.75           1647          38.00       130.34
  266.80        2982.00           1650          45.00       160.86
  266.83        2982.25           1653          47.00       169.57
  266.86        2982.50           1657          44.00       156.50
  266.89        2982.75           1660          40.00       139.06
  266.92        2983.00           1663          42.00       147.78
  266.95        2983.25           1667          53.00       195.73
  266.99        2983.50           1670          44.00       156.50
  267.02        2983.75           1673          49.00       178.29
  267.05        2984.00           1677          41.00       143.42
HS scan finished at 04:27:16
end
************************************************************
  HS Scan of (1) Internal mercury lamp
************************************************************
Integration time is 0.2294 seconds per sample
dh230217Manchester 53.47 2.23 2.750537pr1000
************************************************************
Dead Time -------------------------  3E-08 
Number of Cycles Used -------------  4 
Starting Wavelength (Angstroms) ---  2950 
Final Wavelength (Angstoms) -------  2984 
Wavelength Increment (Angstroms) --  .25 
Filter Wheel #1 Position ---------- (1) Ground quartz diffuser (ND=2.32)
Filter Wheel #2 Position ---------- (1) Neutral Density 0.494



************************************************************
HS scan start time = 18:42:04
Dark Count =  7.4 


Time (GMT)  Wavelength (Ang)  Step Number  Raw Counts  Counts/Second

 1122.44        2950.00           1222          43.00       155.19
 1122.51        2950.25           1226          44.00       159.55
 1122.54        2950.50           1229          48.00       176.98
 1122.57        2950.75           1232          44.00       159.55
 1122.60        2951.00           1236          45.00       163.91
 1122.64        2951.25           1239          54.00       203.14
 1122.67        2951.50           1242          49.00       181.34
 1122.70        2951.75           1246          45.00       163.91
 1122.73        2952.00           1249          45.00       163.91
 1122.76        2952.25           1252          47.00       172.63
 1122.79        2952.50           1256          45.00       163.91
 1122.82        2952.75           1259          50.00       185.70
 1122.85        2953.00           1262          52.00       194.42
 1122.88        2953.25           1266          46.00       168.27
 1122.91        2953.50           1269          41.00       146.47
 1122.94        2953.75           1272          45.00       163.91
 1122.97        2954.00           1276          52.00       194.42
 1123.01        2954.25           1279          46.00       168.27
 1123.04        2954.50           1282          39.00       137.75
 1123.07        2954.75           1286          50.00       185.70
 1123.10        2955.00           1289          44.00       159.55
 1123.13        2955.25           1292          44.00       159.55
 1123.16        2955.50           1296          43.00       155.19
 1123.19        2955.75           1299          43.00       155.19
 1123.22        2956.00           1302          47.00       172.63
 1123.25        2956.25           1306          53.00       198.78
 1123.28        2956.50           1309          53.00       198.78
 1123.31        2956.75           1312          44.00       159.55
 1123.34        2957.00           1316          41.00       146.47
 1123.38        2957.25           1319          36.00       124.67
 1123.41        2957.50           1322          48.00       176.98
 1123.44        2957.75           1326          52.00       194.42
 1123.47        2958.00           1329          51.00       190.06
 1123.50        2958.25           1332          49.00       181.34
 1123.53        2958.50           1336          45.00       163.91
 1123.56        2958.75           1339          50.00       185.70
 1123.59        2959.00           1342          44.00       159.55
 1123.62        2959.25           1346          46.00       168.27
 1123.65        2959.50           1349          50.00       185.70
 1123.68        2959.75           1352          69.00       268.53
 1123.72        2960.00           1356          93.00       373.15
 1123.75        2960.25           1359         124.00       508.29
 1123.78        2960.50           1362         186.00       778.57
 1123.81        2960.75           1366         227.00       957.31
 1123.84        2961.00           1369         262.00      1109.89
 1123.87        2961.25           1372         308.00      1310.43
 1123.90        2961.50           1376         412.00      1763.83
 1123.93        2961.75           1379         544.00      2339.31
 1123.96        2962.00           1382        1095.00      4741.74
 1123.99        2962.25           1386        2682.00     11663.19
 1124.03        2962.50           1389        4334.00     18871.19
 1124.06        2962.75           1392        5859.00     25527.83
 1124.09        2963.00           1396        7924.00     34545.81
 1124.12        2963.25           1399        9648.00     42078.37
 1124.15        2963.50           1402       11390.00     49693.03
 1124.18        2963.75           1406       13744.00     59988.42
 1124.21        2964.00           1409       15360.00     67059.80
 1124.24        2964.25           1412       17102.00     74685.90
 1124.27        2964.50           1416       19257.00     84124.86
 1124.31        2964.75           1419       21052.00     91991.09
 1124.34        2965.00           1422       22433.00     98045.59
 1124.37        2965.25           1426       24792.00    108392.90
 1124.40        2965.50           1429       26560.00    116152.10
 1124.43        2965.75           1432       28108.00    122948.70
 1124.46        2966.00           1436       30403.00    133030.30
 1124.49        2966.25           1439       31599.00    138286.50
 1124.52        2966.50           1442       33244.00    145518.80
 1124.55        2966.75           1446       34916.00    152873.00
 1124.59        2967.00           1449       35404.00    155020.10
 1124.62        2967.25           1452       35473.00    155323.70
 1124.65        2967.50           1456       35332.00    154703.30
 1124.68        2967.75           1459       35424.00    155108.10
 1124.71        2968.00           1462       35180.00    154034.50
 1124.74        2968.25           1466       34295.00    150141.20
 1124.77        2968.50           1469       33008.00    144481.10
 1124.80        2968.75           1472       31517.00    137926.10
 1124.83        2969.00           1476       29505.00    129084.80
 1124.87        2969.25           1479       27690.00    121113.20
 1124.90        2969.50           1482       26115.00    114198.80
 1124.93        2969.75           1486       24040.00    105093.70
 1124.96        2970.00           1489       22323.00     97563.27
 1124.99        2970.25           1492       20844.00     91079.39
 1125.02        2970.50           1496       18571.00     81119.58
 1125.05        2970.75           1499       16910.00     73845.19
 1125.08        2971.00           1502       15412.00     67287.40
 1125.11        2971.25           1506       13139.00     57341.80
 1125.15        2971.50           1509       11662.00     50882.32
 1125.18        2971.75           1513        9411.00     41042.66
 1125.21        2972.00           1516        7904.00     34458.45
 1125.24        2972.25           1519        6119.00     26663.00
 1125.27        2972.50           1523        3981.00     17330.72
 1125.30        2972.75           1526        2534.00     11017.59
 1125.33        2973.00           1529        1272.00      5513.55
 1125.36        2973.25           1533         509.00      2186.72
 1125.39        2973.50           1536         335.00      1428.13
 1125.42        2973.75           1539         282.00      1197.08
 1125.46        2974.00           1543         228.00       961.67
 1125.49        2974.25           1546         175.00       730.62
 1125.52        2974.50           1549         132.00       543.16
 1125.55        2974.75           1553          85.00       338.28
 1125.58        2975.00           1556          64.00       246.73
 1125.61        2975.25           1559          61.00       233.65
 1125.64        2975.50           1563          45.00       163.91
 1125.67        2975.75           1566          44.00       159.55
 1125.70        2976.00           1569          45.00       163.91
 1125.73        2976.25           1573          46.00       168.27
 1125.76        2976.50           1576          42.00       150.83
 1125.79        2976.75           1579          49.00       181.34
 1125.83        2977.00           1583          50.00       185.70
 1125.86        2977.25           1586          48.00       176.98
 1125.89        2977.50           1590          43.00       155.19
 1125.92        2977.75           1593          37.00       129.03
 1125.95        2978.00           1596          51.00       190.06
 1125.98        2978.25           1600          46.00       168.27
 1126.01        2978.50           1603          43.00       155.19
 1126.04        2978.75           1606          49.00       181.34
 1126.07        2979.00           1610          49.00       181.34
 1126.10        2979.25           1613          40.00       142.11
 1126.13        2979.50           1616          44.00       159.55
 1126.17        2979.75           1620          41.00       146.47
 1126.20        2980.00           1623          47.00       172.63
 1126.23        2980.25           1626          36.00       124.67
 1126.26        2980.50           1630          40.00       142.11
 1126.29        2980.75           1633          51.00       190.06
 1126.32        2981.00           1637          48.00       176.98
 1126.35        2981.25           1640          47.00       172.63
 1126.38        2981.50           1643          45.00       163.91
 1126.41        2981.75           1647          43.00       155.19
 1126.44        2982.00           1650          50.00       185.70
 1126.48        2982.25           1653          46.00       168.27
