************************************************************
  HS Scan of (1) Internal mercury lamp
************************************************************
Integration time is 0.2294 seconds per sample
dh010317Manchester 53.47 2.23 2.750537pr1000
************************************************************
Dead Time -------------------------  3E-08 
Number of Cycles Used -------------  4 
Starting Wavelength (Angstroms) ---  2950 
Final Wavelength (Angstoms) -------  2984 
Wavelength Increment (Angstroms) --  .25 
Filter Wheel #1 Position ---------- (1) Ground quartz diffuser (ND=2.32)
Filter Wheel #2 Position ---------- (1) Neutral Density 0.494



************************************************************
HS scan start time = 04:06:47
Dark Count =  6.9 


Time (GMT)  Wavelength (Ang)  Step Number  Raw Counts  Counts/Second

  247.15        2950.00           1222          47.00       174.80
  247.22        2950.25           1226          43.00       157.37
  247.25        2950.50           1229          51.00       192.24
  247.28        2950.75           1232          51.00       192.24
  247.31        2951.00           1236          48.00       179.16
  247.34        2951.25           1239          47.00       174.80
  247.37        2951.50           1242          46.00       170.45
  247.40        2951.75           1246          52.00       196.60
  247.43        2952.00           1249          46.00       170.45
  247.46        2952.25           1252          48.00       179.16
  247.49        2952.50           1256          47.00       174.80
  247.52        2952.75           1259          45.00       166.09
  247.55        2953.00           1262          46.00       170.45
  247.58        2953.25           1266          47.00       174.80
  247.61        2953.50           1269          49.00       183.52
  247.64        2953.75           1272          43.00       157.37
  247.68        2954.00           1276          48.00       179.16
  247.71        2954.25           1279          49.00       183.52
  247.74        2954.50           1282          46.00       170.45
  247.77        2954.75           1286          48.00       179.16
  247.80        2955.00           1289          51.00       192.24
  247.83        2955.25           1292          41.00       148.65
  247.86        2955.50           1296          45.00       166.09
  247.89        2955.75           1299          43.00       157.37
  247.92        2956.00           1302          43.00       157.37
  247.95        2956.25           1306          44.00       161.73
  247.99        2956.50           1309          47.00       174.80
  248.02        2956.75           1312          48.00       179.16
  248.05        2957.00           1316          46.00       170.45
  248.08        2957.25           1319          50.00       187.88
  248.11        2957.50           1322          52.00       196.60
  248.14        2957.75           1326          55.00       209.68
  248.17        2958.00           1329          48.00       179.16
  248.20        2958.25           1332          46.00       170.45
  248.23        2958.50           1336          49.00       183.52
  248.26        2958.75           1339          47.00       174.80
  248.29        2959.00           1342          46.00       170.45
  248.32        2959.25           1346          52.00       196.60
  248.36        2959.50           1349          53.00       200.96
  248.39        2959.75           1352          59.00       227.12
  248.42        2960.00           1356          82.00       327.38
  248.45        2960.25           1359         107.00       436.36
  248.48        2960.50           1362         145.00       602.02
  248.51        2960.75           1366         209.00       881.02
  248.54        2961.00           1369         258.00      1094.63
  248.57        2961.25           1372         295.00      1255.93
  248.60        2961.50           1376         365.00      1561.10
  248.63        2961.75           1379         528.00      2271.73
  248.67        2962.00           1382         902.00      3902.37
  248.70        2962.25           1386        2542.00     11054.67
  248.73        2962.50           1389        4136.00     18009.29
  248.76        2962.75           1392        5791.00     25233.13
  248.79        2963.00           1396        8021.00     34971.72
  248.82        2963.25           1399        9566.00     41722.20
  248.85        2963.50           1402       11361.00     49568.43
  248.88        2963.75           1406       13607.00     59391.26
  248.91        2964.00           1409       15259.00     66619.94
  248.94        2964.25           1412       17063.00     74517.31
  248.97        2964.50           1416       19134.00     83588.16
  249.00        2964.75           1419       20836.00     91046.52
  249.03        2965.00           1422       22655.00     99021.28
  249.07        2965.25           1426       24716.00    108061.60
  249.10        2965.50           1429       26562.00    116163.10
  249.13        2965.75           1432       28293.00    123763.40
  249.16        2966.00           1436       30451.00    133243.40
  249.19        2966.25           1439       32159.00    140750.40
  249.22        2966.50           1442       33720.00    147614.40
  249.25        2966.75           1446       35155.00    153926.70
  249.28        2967.00           1449       36007.00    157675.70
  249.31        2967.25           1452       36051.00    157869.30
  249.34        2967.50           1456       36059.00    157904.50
  249.37        2967.75           1459       36249.00    158740.70
  249.41        2968.00           1462       35808.00    156800.00
  249.44        2968.25           1466       35053.00    153477.90
  249.47        2968.50           1469       33794.00    147939.80
  249.50        2968.75           1472       32072.00    140368.00
  249.53        2969.00           1476       30144.00    131894.40
  249.56        2969.25           1479       28396.00    124215.70
  249.59        2969.50           1482       26863.00    117484.40
  249.62        2969.75           1486       24734.00    108140.60
  249.66        2970.00           1489       23121.00    101064.90
  249.69        2970.25           1492       21455.00     93759.88
  249.72        2970.50           1496       19287.00     84258.49
  249.75        2970.75           1499       17732.00     77446.96
  249.78        2971.00           1502       16092.00     70266.10
  249.81        2971.25           1506       13750.00     60016.86
  249.84        2971.50           1509       12033.00     52506.79
  249.87        2971.75           1513        9736.00     42465.14
  249.90        2972.00           1516        8195.00     35731.83
  249.93        2972.25           1519        6569.00     28630.08
  249.97        2972.50           1523        4503.00     19610.93
  250.00        2972.75           1526        2966.00     12904.30
  250.03        2973.00           1529        1598.00      6937.36
  250.06        2973.25           1533         617.00      2659.76
  250.09        2973.50           1536         406.00      1739.85
  250.12        2973.75           1539         305.00      1299.53
  250.15        2974.00           1543         260.00      1103.35
  250.18        2974.25           1546         195.00       819.99
  250.21        2974.50           1549         151.00       628.17
  250.24        2974.75           1553         102.00       414.56
  250.27        2975.00           1556          79.00       314.30
  250.30        2975.25           1559          55.00       209.68
  250.33        2975.50           1563          53.00       200.96
  250.37        2975.75           1566          55.00       209.68
  250.40        2976.00           1569          50.00       187.88
  250.43        2976.25           1573          48.00       179.16
  250.46        2976.50           1576          40.00       144.29
  250.49        2976.75           1579          45.00       166.09
  250.52        2977.00           1583          45.00       166.09
  250.55        2977.25           1586          42.00       153.01
  250.58        2977.50           1590          46.00       170.45
  250.61        2977.75           1593          46.00       170.45
  250.64        2978.00           1596          45.00       166.09
  250.67        2978.25           1600          48.00       179.16
  250.70        2978.50           1603          46.00       170.45
  250.73        2978.75           1606          47.00       174.80
  250.76        2979.00           1610          48.00       179.16
  250.80        2979.25           1613          42.00       153.01
  250.83        2979.50           1616          47.00       174.80
  250.86        2979.75           1620          48.00       179.16
  250.89        2980.00           1623          42.00       153.01
  250.92        2980.25           1626          45.00       166.09
  250.95        2980.50           1630          44.00       161.73
  250.98        2980.75           1633          48.00       179.16
  251.01        2981.00           1637          47.00       174.80
  251.04        2981.25           1640          44.00       161.73
  251.07        2981.50           1643          45.00       166.09
  251.10        2981.75           1647          38.00       135.57
  251.13        2982.00           1650          45.00       166.09
  251.16        2982.25           1653          42.00       153.01
  251.19        2982.50           1657          50.00       187.88
  251.23        2982.75           1660          47.00       174.80
  251.26        2983.00           1663          48.00       179.16
  251.29        2983.25           1667          50.00       187.88
  251.32        2983.50           1670          49.00       183.52
  251.35        2983.75           1673          41.00       148.65
  251.38        2984.00           1677          47.00       174.80
HS scan finished at 04:11:36
end
************************************************************
  HS Scan of (1) Internal mercury lamp
************************************************************
Integration time is 0.2294 seconds per sample
dh010317Manchester 53.47 2.23 2.804185pr1000
************************************************************
Dead Time -------------------------  3E-08 
Number of Cycles Used -------------  4 
Starting Wavelength (Angstroms) ---  2950 
Final Wavelength (Angstoms) -------  2984 
Wavelength Increment (Angstroms) --  .25 
Filter Wheel #1 Position ---------- (1) Ground quartz diffuser (ND=2.32)
Filter Wheel #2 Position ---------- (1) Neutral Density 0.494



************************************************************
HS scan start time = 18:42:03
Dark Count =  7.1 


Time (GMT)  Wavelength (Ang)  Step Number  Raw Counts  Counts/Second

 1122.42        2950.00           1222          42.00       152.14
 1122.48        2950.25           1226          50.00       187.01
 1122.51        2950.50           1229          50.00       187.01
 1122.54        2950.75           1232          40.00       143.42
 1122.58        2951.00           1236          50.00       187.01
 1122.61        2951.25           1239          47.00       173.93
 1122.64        2951.50           1242          54.00       204.45
 1122.67        2951.75           1246          49.00       182.65
 1122.70        2952.00           1249          44.00       160.86
 1122.73        2952.25           1252          48.00       178.29
 1122.76        2952.50           1256          41.00       147.78
 1122.79        2952.75           1259          50.00       187.01
 1122.82        2953.00           1262          46.00       169.57
 1122.86        2953.25           1266          45.00       165.21
 1122.89        2953.50           1269          46.00       169.57
 1122.92        2953.75           1272          49.00       182.65
 1122.95        2954.00           1276          44.00       160.86
 1122.98        2954.25           1279          51.00       191.37
 1123.01        2954.50           1282          43.00       156.50
 1123.04        2954.75           1286          43.00       156.50
 1123.07        2955.00           1289          43.00       156.50
 1123.10        2955.25           1292          49.00       182.65
 1123.13        2955.50           1296          44.00       160.86
 1123.16        2955.75           1299          43.00       156.50
 1123.19        2956.00           1302          49.00       182.65
 1123.22        2956.25           1306          47.00       173.93
 1123.25        2956.50           1309          46.00       169.57
 1123.28        2956.75           1312          42.00       152.14
 1123.31        2957.00           1316          42.00       152.14
 1123.34        2957.25           1319          42.00       152.14
 1123.38        2957.50           1322          46.00       169.57
 1123.41        2957.75           1326          45.00       165.21
 1123.44        2958.00           1329          46.00       169.57
 1123.47        2958.25           1332          59.00       226.24
 1123.50        2958.50           1336          53.00       200.09
 1123.53        2958.75           1339          51.00       191.37
 1123.56        2959.00           1342          53.00       200.09
 1123.59        2959.25           1346          55.00       208.81
 1123.62        2959.50           1349          53.00       200.09
 1123.65        2959.75           1352          61.00       234.96
 1123.68        2960.00           1356          94.00       378.82
 1123.72        2960.25           1359         127.00       522.68
 1123.75        2960.50           1362         188.00       788.60
 1123.78        2960.75           1366         225.00       949.90
 1123.81        2961.00           1369         274.00      1163.51
 1123.84        2961.25           1372         309.00      1316.09
 1123.87        2961.50           1376         403.00      1725.90
 1123.90        2961.75           1379         618.00      2663.25
 1123.93        2962.00           1382        1199.00      5196.54
 1123.96        2962.25           1386        2867.00     12471.54
 1123.99        2962.50           1389        4500.00     19596.96
 1124.02        2962.75           1392        5931.00     25843.48
 1124.05        2963.00           1396        8079.00     35224.22
 1124.09        2963.25           1399        9712.00     42359.38
 1124.12        2963.50           1402       11539.00     50345.82
 1124.15        2963.75           1406       13638.00     59526.00
 1124.18        2964.00           1409       15362.00     67069.88
 1124.21        2964.25           1412       17058.00     74494.55
 1124.24        2964.50           1416       19379.00     84660.71
 1124.27        2964.75           1419       20916.00     91396.29
 1124.30        2965.00           1422       22458.00     98156.53
 1124.33        2965.25           1426       24704.00    108008.10
 1124.37        2965.50           1429       26259.00    114832.10
 1124.40        2965.75           1432       27936.00    122194.70
 1124.43        2966.00           1436       30110.00    131744.20
 1124.46        2966.25           1439       32010.00    140094.50
 1124.49        2966.50           1442       33186.00    145265.10
 1124.52        2966.75           1446       35099.00    153679.40
 1124.55        2967.00           1449       35828.00    156887.10
 1124.58        2967.25           1452       35833.00    156909.10
 1124.61        2967.50           1456       35915.00    157269.90
 1124.65        2967.75           1459       35801.00    156768.30
 1124.68        2968.00           1462       35643.00    156073.00
 1124.71        2968.25           1466       34700.00    151924.10
 1124.74        2968.50           1469       33479.00    146553.60
 1124.77        2968.75           1472       32035.00    140204.40
 1124.80        2969.00           1476       29761.00    130210.80
 1124.83        2969.25           1479       28246.00    123556.10
 1124.86        2969.50           1482       26506.00    115916.40
 1124.89        2969.75           1486       24469.00    106977.00
 1124.93        2970.00           1489       22673.00     99099.33
 1124.96        2970.25           1492       21119.00     92286.10
 1124.99        2970.50           1496       19012.00     83052.80
 1125.02        2970.75           1499       17403.00     76005.28
 1125.05        2971.00           1502       15673.00     68431.11
 1125.08        2971.25           1506       13734.00     59945.99
 1125.11        2971.50           1509       11802.00     51495.80
 1125.14        2971.75           1513        9515.00     41498.45
 1125.17        2972.00           1516        7898.00     34433.55
 1125.21        2972.25           1519        6181.00     26935.01
 1125.24        2972.50           1523        4144.00     18043.33
 1125.27        2972.75           1526        2567.00     11162.85
 1125.30        2973.00           1529        1171.00      5074.44
 1125.33        2973.25           1533         483.00      2074.67
 1125.36        2973.50           1536         333.00      1420.72
 1125.39        2973.75           1539         293.00      1246.34
 1125.42        2974.00           1543         243.00      1028.37
 1125.45        2974.25           1546         186.00       779.88
 1125.48        2974.50           1549         142.00       588.07
 1125.51        2974.75           1553          97.00       391.90
 1125.55        2975.00           1556          67.00       261.12
 1125.58        2975.25           1559          56.00       213.17
 1125.61        2975.50           1563          43.00       156.50
 1125.64        2975.75           1566          45.00       165.21
 1125.67        2976.00           1569          46.00       169.57
 1125.70        2976.25           1573          43.00       156.50
 1125.73        2976.50           1576          41.00       147.78
 1125.76        2976.75           1579          46.00       169.57
 1125.79        2977.00           1583          43.00       156.50
 1125.82        2977.25           1586          49.00       182.65
 1125.85        2977.50           1590          44.00       160.86
 1125.88        2977.75           1593          50.00       187.01
 1125.91        2978.00           1596          47.00       173.93
 1125.94        2978.25           1600          46.00       169.57
 1125.97        2978.50           1603          47.00       173.93
 1126.01        2978.75           1606          47.00       173.93
 1126.04        2979.00           1610          45.00       165.21
 1126.07        2979.25           1613          40.00       143.42
 1126.10        2979.50           1616          45.00       165.21
 1126.13        2979.75           1620          44.00       160.86
 1126.16        2980.00           1623          39.00       139.06
 1126.19        2980.25           1626          45.00       165.21
 1126.22        2980.50           1630          39.00       139.06
 1126.25        2980.75           1633          40.00       143.42
 1126.28        2981.00           1637          49.00       182.65
 1126.31        2981.25           1640          42.00       152.14
 1126.35        2981.50           1643          48.00       178.29
 1126.38        2981.75           1647          47.00       173.93
 1126.41        2982.00           1650          43.00       156.50
 1126.44        2982.25           1653          43.00       156.50
