************************************************************
  HS Scan of (1) Internal mercury lamp
************************************************************
Integration time is 0.2294 seconds per sample
dh050319Manchester 53.47 2.23 2.804185pr1000
************************************************************
Dead Time -------------------------  3E-08 
Number of Cycles Used -------------  4 
Starting Wavelength (Angstroms) ---  2950 
Final Wavelength (Angstoms) -------  2984 
Wavelength Increment (Angstroms) --  .25 
Filter Wheel #1 Position ---------- (1) Ground quartz diffuser (ND=2.32)
Filter Wheel #2 Position ---------- (1) Neutral Density 0.494



************************************************************
HS scan start time = 03:56:48
Dark Count =  3.9 


Time (GMT)  Wavelength (Ang)  Step Number  Raw Counts  Counts/Second

  237.17        2950.00           1222          62.00       253.27
  237.24        2950.25           1226          54.00       218.40
  237.27        2950.50           1229          57.00       231.48
  237.30        2950.75           1232          59.00       240.19
  237.34        2951.00           1236          55.00       222.76
  237.37        2951.25           1239          58.00       235.83
  237.40        2951.50           1242          57.00       231.48
  237.43        2951.75           1246          47.00       187.88
  237.46        2952.00           1249          63.00       257.63
  237.49        2952.25           1252          60.00       244.55
  237.52        2952.50           1256          52.00       209.68
  237.55        2952.75           1259          57.00       231.48
  237.58        2953.00           1262          50.00       200.96
  237.61        2953.25           1266          53.00       214.04
  237.64        2953.50           1269          55.00       222.76
  237.68        2953.75           1272          48.00       192.24
  237.71        2954.00           1276          58.00       235.83
  237.74        2954.25           1279          60.00       244.55
  237.77        2954.50           1282          59.00       240.19
  237.80        2954.75           1286          56.00       227.12
  237.83        2955.00           1289          57.00       231.48
  237.86        2955.25           1292          59.00       240.19
  237.89        2955.50           1296          54.00       218.40
  237.92        2955.75           1299          52.00       209.68
  237.95        2956.00           1302          57.00       231.48
  237.99        2956.25           1306          57.00       231.48
  238.02        2956.50           1309          49.00       196.60
  238.05        2956.75           1312          54.00       218.40
  238.08        2957.00           1316          50.00       200.96
  238.11        2957.25           1319          48.00       192.24
  238.14        2957.50           1322          56.00       227.12
  238.17        2957.75           1326          54.00       218.40
  238.20        2958.00           1329          53.00       214.04
  238.23        2958.25           1332          53.00       214.04
  238.26        2958.50           1336          52.00       209.68
  238.29        2958.75           1339          59.00       240.19
  238.32        2959.00           1342          59.00       240.19
  238.35        2959.25           1346          59.00       240.19
  238.38        2959.50           1349          60.00       244.55
  238.42        2959.75           1352          64.00       261.99
  238.45        2960.00           1356          86.00       357.89
  238.48        2960.25           1359          91.00       379.69
  238.51        2960.50           1362         121.00       510.47
  238.54        2960.75           1366         166.00       706.64
  238.57        2961.00           1369         199.00       850.50
  238.60        2961.25           1372         247.00      1059.75
  238.63        2961.50           1376         285.00      1225.42
  238.66        2961.75           1379         429.00      1853.20
  238.69        2962.00           1382        1021.00      4434.33
  238.73        2962.25           1386        2383.00     10374.20
  238.76        2962.50           1389        3521.00     15338.79
  238.79        2962.75           1392        4797.00     20907.18
  238.82        2963.00           1396        6377.00     27804.79
  238.85        2963.25           1399        7563.00     32984.24
  238.88        2963.50           1402        8693.00     37920.62
  238.91        2963.75           1406       10436.00     45537.76
  238.94        2964.00           1409       11575.00     50517.22
  238.97        2964.25           1412       13044.00     56941.57
  239.01        2964.50           1416       14614.00     63810.36
  239.04        2964.75           1419       15829.00     69127.96
  239.07        2965.00           1422       16899.00     73812.35
  239.10        2965.25           1426       18556.00     81069.21
  239.13        2965.50           1429       19754.00     86317.83
  239.16        2965.75           1432       21030.00     91910.01
  239.19        2966.00           1436       22597.00     98780.09
  239.22        2966.25           1439       23826.00    104170.30
  239.25        2966.50           1442       25047.00    109527.10
  239.29        2966.75           1446       26066.00    113999.10
  239.32        2967.00           1449       26307.00    115056.90
  239.35        2967.25           1452       26308.00    115061.30
  239.38        2967.50           1456       26363.00    115302.70
  239.41        2967.75           1459       26333.00    115171.00
  239.44        2968.00           1462       26247.00    114793.50
  239.47        2968.25           1466       25365.00    110922.60
  239.50        2968.50           1469       24582.00    107486.90
  239.54        2968.75           1472       23133.00    101130.70
  239.57        2969.00           1476       21525.00     94079.88
  239.60        2969.25           1479       20300.00     88710.49
  239.63        2969.50           1482       19159.00     83710.84
  239.66        2969.75           1486       17440.00     76181.33
  239.69        2970.00           1489       16333.00     71334.28
  239.72        2970.25           1492       15104.00     65954.70
  239.75        2970.50           1496       13501.00     58940.66
  239.78        2970.75           1499       12306.00     53713.78
  239.82        2971.00           1502       11148.00     48650.29
  239.85        2971.25           1506        9504.00     41464.36
  239.88        2971.50           1509        8284.00     36133.74
  239.91        2971.75           1513        6564.00     28621.34
  239.94        2972.00           1516        5388.00     23486.90
  239.97        2972.25           1519        4334.00     18886.46
  240.00        2972.50           1523        2701.00     11761.34
  240.03        2972.75           1526        1494.00      6496.91
  240.07        2973.00           1529         692.00      2999.83
  240.10        2973.25           1533         364.00      1569.82
  240.13        2973.50           1536         286.00      1229.78
  240.16        2973.75           1539         249.00      1068.47
  240.19        2974.00           1543         207.00       885.38
  240.22        2974.25           1546         149.00       632.53
  240.25        2974.50           1549         133.00       562.78
  240.28        2974.75           1553          85.00       353.53
  240.31        2975.00           1556          78.00       323.02
  240.34        2975.25           1559          49.00       196.60
  240.38        2975.50           1563          53.00       214.04
  240.41        2975.75           1566          51.00       205.32
  240.44        2976.00           1569          49.00       196.60
  240.47        2976.25           1573          53.00       214.04
  240.50        2976.50           1576          47.00       187.88
  240.53        2976.75           1579          52.00       209.68
  240.56        2977.00           1583          53.00       214.04
  240.59        2977.25           1586          47.00       187.88
  240.62        2977.50           1590          52.00       209.68
  240.65        2977.75           1593          54.00       218.40
  240.68        2978.00           1596          51.00       205.32
  240.72        2978.25           1600          49.00       196.60
  240.75        2978.50           1603          53.00       214.04
  240.78        2978.75           1606          51.00       205.32
  240.81        2979.00           1610          50.00       200.96
  240.84        2979.25           1613          49.00       196.60
  240.87        2979.50           1616          56.00       227.12
  240.90        2979.75           1620          54.00       218.40
  240.93        2980.00           1623          50.00       200.96
  240.96        2980.25           1626          48.00       192.24
  240.99        2980.50           1630          59.00       240.19
  241.02        2980.75           1633          49.00       196.60
  241.06        2981.00           1637          53.00       214.04
  241.09        2981.25           1640          43.00       170.45
  241.12        2981.50           1643          52.00       209.68
  241.15        2981.75           1647          54.00       218.40
  241.18        2982.00           1650          52.00       209.68
  241.21        2982.25           1653          51.00       205.32
  241.24        2982.50           1657          46.00       183.52
  241.27        2982.75           1660          44.00       174.80
  241.30        2983.00           1663          47.00       187.88
  241.33        2983.25           1667          45.00       179.16
  241.36        2983.50           1670          53.00       214.04
  241.39        2983.75           1673          47.00       187.88
  241.43        2984.00           1677          46.00       183.52
HS scan finished at 04:01:39
end
************************************************************
  HS Scan of (1) Internal mercury lamp
************************************************************
Integration time is 0.2294 seconds per sample
dh050319Manchester 53.47 2.23 2.804185pr1000
************************************************************
Dead Time -------------------------  3E-08 
Number of Cycles Used -------------  4 
Starting Wavelength (Angstroms) ---  2950 
Final Wavelength (Angstoms) -------  2984 
Wavelength Increment (Angstroms) --  .25 
Filter Wheel #1 Position ---------- (1) Ground quartz diffuser (ND=2.32)
Filter Wheel #2 Position ---------- (1) Neutral Density 0.494



************************************************************
HS scan start time = 18:42:09
Dark Count =  4.8 


Time (GMT)  Wavelength (Ang)  Step Number  Raw Counts  Counts/Second

 1122.51        2950.00           1222          62.00       249.35
 1122.58        2950.25           1226          52.00       205.76
 1122.61        2950.50           1229          51.00       201.40
 1122.64        2950.75           1232          62.00       249.35
 1122.67        2951.00           1236          49.00       192.68
 1122.71        2951.25           1239          61.00       244.99
 1122.74        2951.50           1242          59.00       236.27
 1122.77        2951.75           1246          58.00       231.91
 1122.80        2952.00           1249          57.00       227.55
 1122.83        2952.25           1252          58.00       231.91
 1122.86        2952.50           1256          53.00       210.11
 1122.89        2952.75           1259          54.00       214.47
 1122.92        2953.00           1262          45.00       175.24
 1122.95        2953.25           1266          57.00       227.55
 1122.98        2953.50           1269          57.00       227.55
 1123.01        2953.75           1272          62.00       249.35
 1123.05        2954.00           1276          52.00       205.76
 1123.08        2954.25           1279          51.00       201.40
 1123.11        2954.50           1282          54.00       214.47
 1123.14        2954.75           1286          50.00       197.04
 1123.17        2955.00           1289          58.00       231.91
 1123.20        2955.25           1292          47.00       183.96
 1123.23        2955.50           1296          49.00       192.68
 1123.26        2955.75           1299          56.00       223.19
 1123.29        2956.00           1302          57.00       227.55
 1123.32        2956.25           1306          48.00       188.32
 1123.35        2956.50           1309          49.00       192.68
 1123.39        2956.75           1312          55.00       218.83
 1123.42        2957.00           1316          52.00       205.76
 1123.45        2957.25           1319          73.00       297.30
 1123.48        2957.50           1322          59.00       236.27
 1123.51        2957.75           1326          58.00       231.91
 1123.54        2958.00           1329          56.00       223.19
 1123.57        2958.25           1332          53.00       210.11
 1123.60        2958.50           1336          52.00       205.76
 1123.63        2958.75           1339          48.00       188.32
 1123.66        2959.00           1342          56.00       223.19
 1123.69        2959.25           1346          65.00       262.43
 1123.72        2959.50           1349          58.00       231.91
 1123.75        2959.75           1352          74.00       301.66
 1123.78        2960.00           1356          97.00       401.92
 1123.81        2960.25           1359         109.00       454.23
 1123.84        2960.50           1362         134.00       563.22
 1123.87        2960.75           1366         182.00       772.47
 1123.91        2961.00           1369         210.00       894.53
 1123.94        2961.25           1372         233.00       994.80
 1123.97        2961.50           1376         315.00      1352.28
 1124.00        2961.75           1379         458.00      1975.71
 1124.03        2962.00           1382        1036.00      4495.81
 1124.06        2962.25           1386        2437.00     10605.82
 1124.09        2962.50           1389        3573.00     15561.75
 1124.12        2962.75           1392        4682.00     20401.32
 1124.15        2963.00           1396        6186.00     26966.88
 1124.18        2963.25           1399        7395.00     32246.53
 1124.21        2963.50           1402        8788.00     38331.76
 1124.25        2963.75           1406       10374.00     45262.82
 1124.28        2964.00           1409       11567.00     50478.31
 1124.31        2964.25           1412       12888.00     56255.28
 1124.34        2964.50           1416       14624.00     63850.18
 1124.37        2964.75           1419       15904.00     69452.32
 1124.40        2965.00           1422       17093.00     74657.87
 1124.43        2965.25           1426       18571.00     81130.97
 1124.46        2965.50           1429       19773.00     86397.14
 1124.49        2965.75           1432       20961.00     91603.62
 1124.53        2966.00           1436       22747.00     99433.92
 1124.56        2966.25           1439       23727.00    103732.10
 1124.59        2966.50           1442       24826.00    108553.50
 1124.62        2966.75           1446       25903.00    113279.70
 1124.65        2967.00           1449       26243.00    114772.00
 1124.68        2967.25           1452       26326.00    115136.30
 1124.71        2967.50           1456       26326.00    115136.30
 1124.74        2967.75           1459       26257.00    114833.50
 1124.77        2968.00           1462       26217.00    114657.90
 1124.80        2968.25           1466       25214.00    110256.00
 1124.84        2968.50           1469       24200.00    105807.00
 1124.87        2968.75           1472       23278.00    101762.70
 1124.90        2969.00           1476       21627.00     94523.10
 1124.93        2969.25           1479       20446.00     89346.40
 1124.96        2969.50           1482       19387.00     84705.82
 1124.99        2969.75           1486       17797.00     77740.81
 1125.02        2970.00           1489       16506.00     72087.72
 1125.05        2970.25           1492       15219.00     66454.06
 1125.08        2970.50           1496       13590.00     59326.07
 1125.11        2970.75           1499       12318.00     53762.33
 1125.15        2971.00           1502       11147.00     48641.99
 1125.18        2971.25           1506        9561.00     41709.52
 1125.21        2971.50           1509        8284.00     36129.81
 1125.24        2971.75           1513        6697.00     29198.19
 1125.27        2972.00           1516        5529.00     24098.50
 1125.30        2972.25           1519        4355.00     18974.18
 1125.33        2972.50           1523        2820.00     12276.53
 1125.36        2972.75           1526        1766.00      7679.19
 1125.39        2973.00           1529         805.00      3488.60
 1125.43        2973.25           1533         378.00      1626.93
 1125.46        2973.50           1536         286.00      1225.85
 1125.49        2973.75           1539         245.00      1047.11
 1125.52        2974.00           1543         214.00       911.97
 1125.55        2974.25           1546         158.00       667.84
 1125.58        2974.50           1549         132.00       554.50
 1125.61        2974.75           1553          91.00       375.77
 1125.64        2975.00           1556          69.00       279.86
 1125.67        2975.25           1559          65.00       262.43
 1125.70        2975.50           1563          55.00       218.83
 1125.73        2975.75           1566          49.00       192.68
 1125.77        2976.00           1569          50.00       197.04
 1125.80        2976.25           1573          50.00       197.04
 1125.83        2976.50           1576          50.00       197.04
 1125.86        2976.75           1579          55.00       218.83
 1125.89        2977.00           1583          47.00       183.96
 1125.92        2977.25           1586          45.00       175.24
 1125.95        2977.50           1590          49.00       192.68
 1125.98        2977.75           1593          51.00       201.40
 1126.01        2978.00           1596          52.00       205.76
 1126.04        2978.25           1600          53.00       210.11
 1126.07        2978.50           1603          59.00       236.27
 1126.10        2978.75           1606          47.00       183.96
 1126.14        2979.00           1610          51.00       201.40
 1126.17        2979.25           1613          48.00       188.32
 1126.20        2979.50           1616          50.00       197.04
 1126.23        2979.75           1620          52.00       205.76
 1126.26        2980.00           1623          46.00       179.60
 1126.29        2980.25           1626          50.00       197.04
 1126.32        2980.50           1630          50.00       197.04
 1126.35        2980.75           1633          49.00       192.68
 1126.38        2981.00           1637          48.00       188.32
 1126.41        2981.25           1640          54.00       214.47
 1126.45        2981.50           1643          49.00       192.68
 1126.48        2981.75           1647          52.00       205.76
 1126.51        2982.00           1650          49.00       192.68
 1126.54        2982.25           1653          49.00       192.68
