************************************************************
  HS Scan of (1) Internal mercury lamp
************************************************************
Integration time is 0.2294 seconds per sample
dh030317Manchester 53.47 2.23 2.750537pr1000
************************************************************
Dead Time -------------------------  3E-08 
Number of Cycles Used -------------  4 
Starting Wavelength (Angstroms) ---  2950 
Final Wavelength (Angstoms) -------  2984 
Wavelength Increment (Angstroms) --  .25 
Filter Wheel #1 Position ---------- (1) Ground quartz diffuser (ND=2.32)
Filter Wheel #2 Position ---------- (1) Neutral Density 0.494



************************************************************
HS scan start time = 04:01:06
Dark Count =  5.6 


Time (GMT)  Wavelength (Ang)  Step Number  Raw Counts  Counts/Second

  241.48        2950.00           1222          45.00       171.75
  241.54        2950.25           1226          49.00       189.19
  241.57        2950.50           1229          45.00       171.75
  241.60        2950.75           1232          51.00       197.91
  241.64        2951.00           1236          51.00       197.91
  241.67        2951.25           1239          50.00       193.55
  241.70        2951.50           1242          41.00       154.32
  241.73        2951.75           1246          51.00       197.91
  241.76        2952.00           1249          50.00       193.55
  241.79        2952.25           1252          46.00       176.11
  241.82        2952.50           1256          45.00       171.75
  241.85        2952.75           1259          48.00       184.83
  241.88        2953.00           1262          43.00       163.03
  241.91        2953.25           1266          49.00       189.19
  241.94        2953.50           1269          38.00       141.24
  241.98        2953.75           1272          43.00       163.03
  242.01        2954.00           1276          51.00       197.91
  242.04        2954.25           1279          43.00       163.03
  242.07        2954.50           1282          46.00       176.11
  242.10        2954.75           1286          46.00       176.11
  242.13        2955.00           1289          44.00       167.39
  242.16        2955.25           1292          43.00       163.03
  242.19        2955.50           1296          45.00       171.75
  242.22        2955.75           1299          56.00       219.71
  242.25        2956.00           1302          41.00       154.32
  242.28        2956.25           1306          47.00       180.47
  242.31        2956.50           1309          47.00       180.47
  242.34        2956.75           1312          48.00       184.83
  242.38        2957.00           1316          44.00       167.39
  242.41        2957.25           1319          39.00       145.60
  242.44        2957.50           1322          38.00       141.24
  242.47        2957.75           1326          50.00       193.55
  242.50        2958.00           1329          49.00       189.19
  242.53        2958.25           1332          41.00       154.32
  242.56        2958.50           1336          49.00       189.19
  242.59        2958.75           1339          54.00       210.99
  242.62        2959.00           1342          46.00       176.11
  242.65        2959.25           1346          49.00       189.19
  242.69        2959.50           1349          55.00       215.35
  242.72        2959.75           1352          72.00       289.45
  242.75        2960.00           1356          99.00       407.15
  242.78        2960.25           1359         134.00       559.73
  242.81        2960.50           1362         183.00       773.34
  242.84        2960.75           1366         229.00       973.87
  242.87        2961.00           1369         291.00      1244.16
  242.90        2961.25           1372         309.00      1322.63
  242.93        2961.50           1376         401.00      1723.72
  242.97        2961.75           1379         490.00      2111.73
  243.00        2962.00           1382         838.00      3628.99
  243.03        2962.25           1386        2215.00      9634.00
  243.06        2962.50           1389        3759.00     16369.85
  243.09        2962.75           1392        5119.00     22305.24
  243.12        2963.00           1396        7345.00     32024.65
  243.15        2963.25           1399        9092.00     39656.57
  243.18        2963.50           1402       10809.00     47160.84
  243.21        2963.75           1406       12859.00     56124.94
  243.24        2964.00           1409       14624.00     63846.68
  243.28        2964.25           1412       16167.00     70600.12
  243.31        2964.50           1416       18663.00     81530.48
  243.34        2964.75           1419       20260.00     88527.74
  243.37        2965.00           1422       21868.00     95576.18
  243.40        2965.25           1426       23960.00    104750.60
  243.43        2965.50           1429       25740.00    112560.80
  243.46        2965.75           1432       27462.00    120120.00
  243.49        2966.00           1436       29677.00    129848.30
  243.52        2966.25           1439       31273.00    136861.60
  243.56        2966.50           1442       32923.00    144115.20
  243.59        2966.75           1446       34643.00    151679.90
  243.62        2967.00           1449       35656.00    156136.80
  243.65        2967.25           1452       35962.00    157483.40
  243.68        2967.50           1456       36047.00    157857.40
  243.71        2967.75           1459       35731.00    156466.80
  243.74        2968.00           1462       35927.00    157329.30
  243.77        2968.25           1466       35145.00    153888.40
  243.80        2968.50           1469       34119.00    149375.00
  243.83        2968.75           1472       32709.00    143174.20
  243.87        2969.00           1476       30736.00    134501.50
  243.90        2969.25           1479       29056.00    127120.30
  243.93        2969.50           1482       27244.00    119162.80
  243.96        2969.75           1486       25229.00    110318.30
  243.99        2970.00           1489       23576.00    103066.20
  244.02        2970.25           1492       21775.00     95168.44
  244.05        2970.50           1496       19789.00     86463.75
  244.08        2970.75           1499       18082.00     78985.55
  244.11        2971.00           1502       16417.00     71694.59
  244.14        2971.25           1506       14470.00     63172.80
  244.17        2971.50           1509       12536.00     54712.23
  244.21        2971.75           1513       10335.00     45088.85
  244.24        2972.00           1516        8748.00     38153.50
  244.27        2972.25           1519        7045.00     30714.43
  244.30        2972.50           1523        4884.00     21279.49
  244.33        2972.75           1526        3270.00     14236.24
  244.36        2973.00           1529        1762.00      7658.25
  244.39        2973.25           1533         572.00      2469.23
  244.42        2973.50           1536         362.00      1553.69
  244.45        2973.75           1539         271.00      1156.97
  244.49        2974.00           1543         212.00       899.76
  244.52        2974.25           1546         167.00       703.59
  244.55        2974.50           1549         118.00       489.98
  244.58        2974.75           1553          88.00       359.20
  244.61        2975.00           1556          54.00       210.99
  244.64        2975.25           1559          49.00       189.19
  244.67        2975.50           1563          54.00       210.99
  244.70        2975.75           1566          53.00       206.63
  244.73        2976.00           1569          52.00       202.27
  244.76        2976.25           1573          53.00       206.63
  244.80        2976.50           1576          43.00       163.03
  244.83        2976.75           1579          48.00       184.83
  244.86        2977.00           1583          45.00       171.75
  244.89        2977.25           1586          47.00       180.47
  244.92        2977.50           1590          39.00       145.60
  244.95        2977.75           1593          46.00       176.11
  244.98        2978.00           1596          55.00       215.35
  245.01        2978.25           1600          53.00       206.63
  245.04        2978.50           1603          47.00       180.47
  245.07        2978.75           1606          43.00       163.03
  245.10        2979.00           1610          45.00       171.75
  245.13        2979.25           1613          50.00       193.55
  245.16        2979.50           1616          46.00       176.11
  245.19        2979.75           1620          43.00       163.03
  245.22        2980.00           1623          43.00       163.03
  245.26        2980.25           1626          45.00       171.75
  245.29        2980.50           1630          46.00       176.11
  245.32        2980.75           1633          47.00       180.47
  245.35        2981.00           1637          47.00       180.47
  245.38        2981.25           1640          36.00       132.52
  245.41        2981.50           1643          48.00       184.83
  245.44        2981.75           1647          39.00       145.60
  245.47        2982.00           1650          49.00       189.19
  245.50        2982.25           1653          42.00       158.68
  245.53        2982.50           1657          47.00       180.47
  245.56        2982.75           1660          46.00       176.11
  245.60        2983.00           1663          54.00       210.99
  245.63        2983.25           1667          43.00       163.03
  245.66        2983.50           1670          45.00       171.75
  245.69        2983.75           1673          47.00       180.47
  245.72        2984.00           1677          42.00       158.68
HS scan finished at 04:05:56
end
************************************************************
  HS Scan of (1) Internal mercury lamp
************************************************************
Integration time is 0.2294 seconds per sample
dh030317Manchester 53.47 2.23 2.804185pr1000
************************************************************
Dead Time -------------------------  3E-08 
Number of Cycles Used -------------  4 
Starting Wavelength (Angstroms) ---  2950 
Final Wavelength (Angstoms) -------  2984 
Wavelength Increment (Angstroms) --  .25 
Filter Wheel #1 Position ---------- (1) Ground quartz diffuser (ND=2.32)
Filter Wheel #2 Position ---------- (1) Neutral Density 0.494



************************************************************
HS scan start time = 18:42:05
Dark Count =  3.2 


Time (GMT)  Wavelength (Ang)  Step Number  Raw Counts  Counts/Second

 1122.45        2950.00           1222          48.00       195.29
 1122.52        2950.25           1226          48.00       195.29
 1122.55        2950.50           1229          59.00       243.25
 1122.58        2950.75           1232          45.00       182.22
 1122.61        2951.00           1236          45.00       182.22
 1122.64        2951.25           1239          47.00       190.93
 1122.67        2951.50           1242          46.00       186.57
 1122.70        2951.75           1246          49.00       199.65
 1122.74        2952.00           1249          45.00       182.22
 1122.77        2952.25           1252          47.00       190.93
 1122.80        2952.50           1256          46.00       186.57
 1122.83        2952.75           1259          47.00       190.93
 1122.86        2953.00           1262          38.00       151.70
 1122.89        2953.25           1266          45.00       182.22
 1122.92        2953.50           1269          49.00       199.65
 1122.95        2953.75           1272          47.00       190.93
 1122.98        2954.00           1276          52.00       212.73
 1123.01        2954.25           1279          46.00       186.57
 1123.05        2954.50           1282          49.00       199.65
 1123.08        2954.75           1286          48.00       195.29
 1123.11        2955.00           1289          46.00       186.57
 1123.14        2955.25           1292          49.00       199.65
 1123.17        2955.50           1296          43.00       173.50
 1123.20        2955.75           1299          52.00       212.73
 1123.23        2956.00           1302          43.00       173.50
 1123.26        2956.25           1306          44.00       177.86
 1123.29        2956.50           1309          47.00       190.93
 1123.32        2956.75           1312          45.00       182.22
 1123.35        2957.00           1316          48.00       195.29
 1123.38        2957.25           1319          44.00       177.86
 1123.41        2957.50           1322          53.00       217.09
 1123.45        2957.75           1326          46.00       186.57
 1123.48        2958.00           1329          41.00       164.78
 1123.51        2958.25           1332          39.00       156.06
 1123.54        2958.50           1336          44.00       177.86
 1123.57        2958.75           1339          48.00       195.29
 1123.60        2959.00           1342          46.00       186.57
 1123.63        2959.25           1346          45.00       182.22
 1123.66        2959.50           1349          57.00       234.53
 1123.69        2959.75           1352          66.00       273.76
 1123.72        2960.00           1356         108.00       456.85
 1123.75        2960.25           1359         143.00       609.43
 1123.79        2960.50           1362         168.00       718.41
 1123.82        2960.75           1366         232.00       997.41
 1123.85        2961.00           1369         264.00      1136.92
 1123.88        2961.25           1372         299.00      1289.50
 1123.91        2961.50           1376         413.00      1786.50
 1123.94        2961.75           1379         658.00      2854.65
 1123.97        2962.00           1382        1432.00      6229.59
 1124.00        2962.25           1386        3358.00     14630.66
 1124.03        2962.50           1389        4915.00     21425.28
 1124.06        2962.75           1392        6467.00     28200.83
 1124.09        2963.00           1396        8507.00     37111.04
 1124.13        2963.25           1399       10246.00     44710.33
 1124.16        2963.50           1402       11971.00     52251.85
 1124.19        2963.75           1406       14168.00     61861.87
 1124.22        2964.00           1409       15934.00     69590.65
 1124.25        2964.25           1412       17474.00     76333.28
 1124.28        2964.50           1416       19925.00     87070.22
 1124.31        2964.75           1419       21271.00     92969.49
 1124.34        2965.00           1422       22975.00    100440.80
 1124.37        2965.25           1426       25501.00    111522.50
 1124.41        2965.50           1429       27221.00    119072.40
 1124.44        2965.75           1432       28606.00    125154.30
 1124.47        2966.00           1436       31069.00    135975.50
 1124.50        2966.25           1439       32290.00    141342.60
 1124.53        2966.50           1442       33661.00    147371.10
 1124.56        2966.75           1446       35400.00    155020.90
 1124.59        2967.00           1449       35808.00    156816.20
 1124.62        2967.25           1452       35841.00    156961.40
 1124.65        2967.50           1456       35849.00    156996.60
 1124.69        2967.75           1459       35634.00    156050.60
 1124.72        2968.00           1462       35358.00    154836.10
 1124.75        2968.25           1466       34326.00    150296.00
 1124.78        2968.50           1469       33105.00    144926.00
 1124.81        2968.75           1472       31321.00    137083.10
 1124.84        2969.00           1476       29291.00    128163.10
 1124.87        2969.25           1479       27660.00    120999.90
 1124.90        2969.50           1482       25974.00    113598.40
 1124.93        2969.75           1486       23923.00    104598.90
 1124.97        2970.00           1489       22258.00     97296.66
 1125.00        2970.25           1492       20566.00     89879.34
 1125.03        2970.50           1496       18552.00     81054.76
 1125.06        2970.75           1499       16769.00     73246.22
 1125.09        2971.00           1502       15093.00     65909.62
 1125.12        2971.25           1506       12913.00     56371.63
 1125.15        2971.50           1509       11102.00     48452.24
 1125.18        2971.75           1513        8952.00     39055.32
 1125.21        2972.00           1516        7390.00     32231.68
 1125.25        2972.25           1519        5756.00     25096.48
 1125.28        2972.50           1523        3566.00     15538.19
 1125.31        2972.75           1526        2190.00      9535.42
 1125.34        2973.00           1529        1023.00      4446.10
 1125.37        2973.25           1533         438.00      1895.49
 1125.40        2973.50           1536         349.00      1507.48
 1125.43        2973.75           1539         302.00      1302.58
 1125.46        2974.00           1543         249.00      1071.53
 1125.49        2974.25           1546         188.00       805.60
 1125.52        2974.50           1549         152.00       648.66
 1125.55        2974.75           1553          95.00       400.18
 1125.59        2975.00           1556          73.00       304.27
 1125.62        2975.25           1559          61.00       251.96
 1125.65        2975.50           1563          48.00       195.29
 1125.68        2975.75           1566          53.00       217.09
 1125.71        2976.00           1569          53.00       217.09
 1125.74        2976.25           1573          47.00       190.93
 1125.77        2976.50           1576          47.00       190.93
 1125.80        2976.75           1579          51.00       208.37
 1125.83        2977.00           1583          44.00       177.86
 1125.86        2977.25           1586          47.00       190.93
 1125.89        2977.50           1590          44.00       177.86
 1125.92        2977.75           1593          49.00       199.65
 1125.96        2978.00           1596          47.00       190.93
 1125.99        2978.25           1600          43.00       173.50
 1126.02        2978.50           1603          45.00       182.22
 1126.05        2978.75           1606          46.00       186.57
 1126.08        2979.00           1610          41.00       164.78
 1126.11        2979.25           1613          45.00       182.22
 1126.14        2979.50           1616          43.00       173.50
 1126.17        2979.75           1620          43.00       173.50
 1126.20        2980.00           1623          48.00       195.29
 1126.23        2980.25           1626          54.00       221.45
 1126.26        2980.50           1630          43.00       173.50
 1126.29        2980.75           1633          45.00       182.22
 1126.33        2981.00           1637          45.00       182.22
 1126.36        2981.25           1640          55.00       225.81
 1126.39        2981.50           1643          45.00       182.22
 1126.42        2981.75           1647          47.00       190.93
 1126.45        2982.00           1650          45.00       182.22
 1126.48        2982.25           1653          43.00       173.50
