************************************************************
  HS Scan of (1) Internal mercury lamp
************************************************************
Integration time is 0.2294 seconds per sample
dh060319Manchester 53.47 2.23 2.804185pr1000
************************************************************
Dead Time -------------------------  3E-08 
Number of Cycles Used -------------  4 
Starting Wavelength (Angstroms) ---  2950 
Final Wavelength (Angstoms) -------  2984 
Wavelength Increment (Angstroms) --  .25 
Filter Wheel #1 Position ---------- (1) Ground quartz diffuser (ND=2.32)
Filter Wheel #2 Position ---------- (1) Neutral Density 0.494



************************************************************
HS scan start time = 03:53:54
Dark Count =  7.2 


Time (GMT)  Wavelength (Ang)  Step Number  Raw Counts  Counts/Second

  234.27        2950.00           1222          70.00       273.76
  234.33        2950.25           1226          49.00       182.22
  234.36        2950.50           1229          60.00       230.17
  234.39        2950.75           1232          66.00       256.32
  234.43        2951.00           1236          51.00       190.93
  234.46        2951.25           1239          49.00       182.22
  234.49        2951.50           1242          57.00       217.09
  234.52        2951.75           1246          54.00       204.01
  234.55        2952.00           1249          53.00       199.65
  234.58        2952.25           1252          55.00       208.37
  234.61        2952.50           1256          51.00       190.93
  234.64        2952.75           1259          46.00       169.14
  234.67        2953.00           1262          59.00       225.81
  234.70        2953.25           1266          56.00       212.73
  234.73        2953.50           1269          44.00       160.42
  234.76        2953.75           1272          49.00       182.22
  234.80        2954.00           1276          61.00       234.53
  234.83        2954.25           1279          52.00       195.29
  234.86        2954.50           1282          58.00       221.45
  234.89        2954.75           1286          46.00       169.14
  234.92        2955.00           1289          57.00       217.09
  234.95        2955.25           1292          65.00       251.96
  234.98        2955.50           1296          55.00       208.37
  235.01        2955.75           1299          49.00       182.22
  235.04        2956.00           1302          49.00       182.22
  235.08        2956.25           1306          46.00       169.14
  235.11        2956.50           1309          47.00       173.50
  235.14        2956.75           1312          54.00       204.01
  235.17        2957.00           1316          53.00       199.65
  235.20        2957.25           1319          60.00       230.17
  235.23        2957.50           1322          49.00       182.22
  235.26        2957.75           1326          53.00       199.65
  235.29        2958.00           1329          56.00       212.73
  235.32        2958.25           1332          51.00       190.93
  235.36        2958.50           1336          59.00       225.81
  235.39        2958.75           1339          52.00       195.29
  235.42        2959.00           1342          53.00       199.65
  235.45        2959.25           1346          56.00       212.73
  235.48        2959.50           1349          59.00       225.81
  235.51        2959.75           1352          70.00       273.76
  235.54        2960.00           1356          87.00       347.87
  235.57        2960.25           1359          98.00       395.82
  235.60        2960.50           1362         122.00       500.44
  235.63        2960.75           1366         166.00       692.26
  235.67        2961.00           1369         200.00       840.47
  235.70        2961.25           1372         238.00      1006.13
  235.73        2961.50           1376         281.00      1193.59
  235.76        2961.75           1379         339.00      1446.44
  235.79        2962.00           1382         615.00      2649.73
  235.82        2962.25           1386        1711.00      7428.86
  235.85        2962.50           1389        2873.00     12497.28
  235.88        2962.75           1392        4125.00     17959.98
  235.91        2963.00           1396        5777.00     25170.70
  235.95        2963.25           1399        6945.00     30270.72
  235.98        2963.50           1402        8161.00     35581.99
  236.01        2963.75           1406        9835.00     42896.49
  236.05        2964.00           1409       11066.00     48277.37
  236.08        2964.25           1412       12516.00     54617.76
  236.11        2964.50           1416       13941.00     60851.18
  236.14        2964.75           1419       15135.00     66075.93
  236.17        2965.00           1422       16404.00     71630.66
  236.20        2965.25           1426       17888.00     78128.86
  236.25        2965.50           1429       19239.00     84046.88
  236.29        2965.75           1432       20565.00     89857.43
  236.33        2966.00           1436       22129.00     96713.51
  236.37        2966.25           1439       23408.00    102322.30
  236.41        2966.50           1442       24575.00    107441.70
  236.44        2966.75           1446       25799.00    112812.70
  236.48        2967.00           1449       26278.00    114915.10
  236.52        2967.25           1452       26483.00    115815.00
  236.55        2967.50           1456       26249.00    114787.80
  236.58        2967.75           1459       26505.00    115911.50
  236.61        2968.00           1462       26439.00    115621.80
  236.65        2968.25           1466       25784.00    112746.90
  236.68        2968.50           1469       24779.00    108336.70
  236.71        2968.75           1472       23650.00    103383.80
  236.74        2969.00           1476       22150.00     96805.58
  236.78        2969.25           1479       20855.00     91128.49
  236.82        2969.50           1482       19699.00     86062.38
  236.87        2969.75           1486       18074.00     78943.50
  236.91        2970.00           1489       16868.00     73662.18
  236.96        2970.25           1492       15691.00     68509.46
  236.99        2970.50           1496       14011.00     61157.44
  237.02        2970.75           1499       12754.00     55658.69
  237.05        2971.00           1502       11732.00     51189.28
  237.08        2971.25           1506       10073.00     43936.69
  237.11        2971.50           1509        8872.00     38688.30
  237.15        2971.75           1513        7250.00     31602.75
  237.18        2972.00           1516        6066.00     26432.46
  237.21        2972.25           1519        4844.00     21097.92
  237.24        2972.50           1523        3234.00     14072.20
  237.27        2972.75           1526        2062.00      8959.69
  237.30        2973.00           1529        1070.00      4633.60
  237.33        2973.25           1533         408.00      1747.26
  237.36        2973.50           1536         282.00      1197.95
  237.39        2973.75           1539         217.00       914.58
  237.43        2974.00           1543         199.00       836.12
  237.46        2974.25           1546         159.00       661.74
  237.49        2974.50           1549         123.00       504.80
  237.52        2974.75           1553          94.00       378.38
  237.55        2975.00           1556          72.00       282.48
  237.58        2975.25           1559          65.00       251.96
  237.61        2975.50           1563          61.00       234.53
  237.64        2975.75           1566          54.00       204.01
  237.67        2976.00           1569          44.00       160.42
  237.70        2976.25           1573          49.00       182.22
  237.73        2976.50           1576          49.00       182.22
  237.76        2976.75           1579          55.00       208.37
  237.80        2977.00           1583          44.00       160.42
  237.83        2977.25           1586          47.00       173.50
  237.86        2977.50           1590          55.00       208.37
  237.89        2977.75           1593          57.00       217.09
  237.92        2978.00           1596          46.00       169.14
  237.95        2978.25           1600          54.00       204.01
  237.98        2978.50           1603          52.00       195.29
  238.01        2978.75           1606          51.00       190.93
  238.04        2979.00           1610          46.00       169.14
  238.07        2979.25           1613          49.00       182.22
  238.10        2979.50           1616          53.00       199.65
  238.13        2979.75           1620          49.00       182.22
  238.17        2980.00           1623          47.00       173.50
  238.20        2980.25           1626          47.00       173.50
  238.23        2980.50           1630          52.00       195.29
  238.26        2980.75           1633          55.00       208.37
  238.29        2981.00           1637          53.00       199.65
  238.32        2981.25           1640          44.00       160.42
  238.35        2981.50           1643          49.00       182.22
  238.38        2981.75           1647          55.00       208.37
  238.42        2982.00           1650          45.00       164.78
  238.45        2982.25           1653          54.00       204.01
  238.48        2982.50           1657          49.00       182.22
  238.51        2982.75           1660          55.00       208.37
  238.54        2983.00           1663          45.00       164.78
  238.57        2983.25           1667          49.00       182.22
  238.60        2983.50           1670          48.00       177.86
  238.63        2983.75           1673          47.00       173.50
  238.66        2984.00           1677          55.00       208.37
HS scan finished at 03:58:53
end
************************************************************
  HS Scan of (1) Internal mercury lamp
************************************************************
Integration time is 0.2294 seconds per sample
dh060319Manchester 53.47 2.23 2.804185pr1000
************************************************************
Dead Time -------------------------  3E-08 
Number of Cycles Used -------------  4 
Starting Wavelength (Angstroms) ---  2950 
Final Wavelength (Angstoms) -------  2984 
Wavelength Increment (Angstroms) --  .25 
Filter Wheel #1 Position ---------- (1) Ground quartz diffuser (ND=2.32)
Filter Wheel #2 Position ---------- (1) Neutral Density 0.494



************************************************************
HS scan start time = 18:42:11
Dark Count =  4.5 


Time (GMT)  Wavelength (Ang)  Step Number  Raw Counts  Counts/Second

 1122.56        2950.00           1222          48.00       189.63
 1122.62        2950.25           1226          54.00       215.78
 1122.66        2950.50           1229          55.00       220.14
 1122.69        2950.75           1232          58.00       233.22
 1122.72        2951.00           1236          56.00       224.50
 1122.75        2951.25           1239          49.00       193.99
 1122.78        2951.50           1242          54.00       215.78
 1122.81        2951.75           1246          55.00       220.14
 1122.84        2952.00           1249          56.00       224.50
 1122.87        2952.25           1252          55.00       220.14
 1122.90        2952.50           1256          57.00       228.86
 1122.93        2952.75           1259          53.00       211.42
 1122.96        2953.00           1262          56.00       224.50
 1123.00        2953.25           1266          49.00       193.99
 1123.03        2953.50           1269          56.00       224.50
 1123.06        2953.75           1272          61.00       246.30
 1123.09        2954.00           1276          54.00       215.78
 1123.12        2954.25           1279          57.00       228.86
 1123.15        2954.50           1282          55.00       220.14
 1123.18        2954.75           1286          51.00       202.70
 1123.21        2955.00           1289          56.00       224.50
 1123.24        2955.25           1292          58.00       233.22
 1123.27        2955.50           1296          62.00       250.66
 1123.30        2955.75           1299          55.00       220.14
 1123.33        2956.00           1302          57.00       228.86
 1123.36        2956.25           1306          55.00       220.14
 1123.39        2956.50           1309          56.00       224.50
 1123.42        2956.75           1312          58.00       233.22
 1123.46        2957.00           1316          58.00       233.22
 1123.49        2957.25           1319          48.00       189.63
 1123.52        2957.50           1322          49.00       193.99
 1123.55        2957.75           1326          55.00       220.14
 1123.58        2958.00           1329          53.00       211.42
 1123.61        2958.25           1332          61.00       246.30
 1123.64        2958.50           1336          57.00       228.86
 1123.67        2958.75           1339          54.00       215.78
 1123.70        2959.00           1342          43.00       167.83
 1123.73        2959.25           1346          54.00       215.78
 1123.76        2959.50           1349          56.00       224.50
 1123.79        2959.75           1352          62.00       250.66
 1123.82        2960.00           1356          80.00       329.12
 1123.85        2960.25           1359         112.00       468.62
 1123.88        2960.50           1362         150.00       634.28
 1123.92        2960.75           1366         204.00       869.68
 1123.95        2961.00           1369         211.00       900.20
 1123.98        2961.25           1372         237.00      1013.54
 1124.01        2961.50           1376         289.00      1240.24
 1124.04        2961.75           1379         393.00      1693.63
 1124.07        2962.00           1382         764.00      3311.14
 1124.10        2962.25           1386        2004.00      8718.50
 1124.13        2962.50           1389        3163.00     13774.22
 1124.16        2962.75           1392        4283.00     18661.27
 1124.19        2963.00           1396        5842.00     25466.27
 1124.22        2963.25           1399        7154.00     31195.27
 1124.25        2963.50           1402        8501.00     37079.15
 1124.29        2963.75           1406        9948.00     43402.16
 1124.32        2964.00           1409       11357.00     49561.44
 1124.35        2964.25           1412       12616.00     55066.92
 1124.38        2964.50           1416       14243.00     62184.34
 1124.41        2964.75           1419       15306.00     66836.15
 1124.44        2965.00           1422       16579.00     72408.65
 1124.47        2965.25           1426       18463.00     80659.20
 1124.50        2965.50           1429       19787.00     86459.81
 1124.53        2965.75           1432       21024.00     91881.09
 1124.56        2966.00           1436       22477.00     98251.25
 1124.60        2966.25           1439       23836.00    104211.50
 1124.63        2966.50           1442       25079.00    109664.90
 1124.66        2966.75           1446       26066.00    113996.40
 1124.69        2967.00           1449       26320.00    115111.30
 1124.72        2967.25           1452       26390.00    115418.60
 1124.75        2967.50           1456       26482.00    115822.40
 1124.78        2967.75           1459       26432.00    115602.90
 1124.81        2968.00           1462       26392.00    115427.40
 1124.84        2968.25           1466       25633.00    112096.00
 1124.88        2968.50           1469       24415.00    106751.50
 1124.91        2968.75           1472       23401.00    102303.50
 1124.94        2969.00           1476       21659.00     94664.71
 1124.97        2969.25           1479       20331.00     88843.72
 1125.00        2969.50           1482       19251.00     84111.28
 1125.03        2969.75           1486       17724.00     77422.44
 1125.06        2970.00           1489       16435.00     71778.21
 1125.09        2970.25           1492       15405.00     67269.45
 1125.12        2970.50           1496       13886.00     60622.36
 1125.16        2970.75           1499       12632.00     55136.90
 1125.19        2971.00           1502       11492.00     50151.69
 1125.22        2971.25           1506        9928.00     43314.75
 1125.25        2971.50           1509        8619.00     37594.69
 1125.28        2971.75           1513        6882.00     30007.39
 1125.31        2972.00           1516        5681.00     24763.38
 1125.34        2972.25           1519        4373.00     19054.04
 1125.37        2972.50           1523        2903.00     12639.93
 1125.40        2972.75           1526        1748.00      7602.00
 1125.43        2973.00           1529         796.00      3450.66
 1125.47        2973.25           1533         371.00      1597.72
 1125.50        2973.50           1536         286.00      1227.16
 1125.53        2973.75           1539         231.00       987.39
 1125.56        2974.00           1543         216.00       922.00
 1125.59        2974.25           1546         154.00       651.71
 1125.62        2974.50           1549         132.00       555.81
 1125.65        2974.75           1553          93.00       385.79
 1125.68        2975.00           1556          69.00       281.17
 1125.71        2975.25           1559          58.00       233.22
 1125.75        2975.50           1563          51.00       202.70
 1125.78        2975.75           1566          54.00       215.78
 1125.81        2976.00           1569          54.00       215.78
 1125.84        2976.25           1573          50.00       198.34
 1125.87        2976.50           1576          50.00       198.34
 1125.90        2976.75           1579          53.00       211.42
 1125.93        2977.00           1583          49.00       193.99
 1125.96        2977.25           1586          52.00       207.06
 1125.99        2977.50           1590          50.00       198.34
 1126.02        2977.75           1593          51.00       202.70
 1126.05        2978.00           1596          49.00       193.99
 1126.08        2978.25           1600          52.00       207.06
 1126.12        2978.50           1603          55.00       220.14
 1126.15        2978.75           1606          43.00       167.83
 1126.18        2979.00           1610          48.00       189.63
 1126.21        2979.25           1613          53.00       211.42
 1126.24        2979.50           1616          49.00       193.99
 1126.27        2979.75           1620          58.00       233.22
 1126.30        2980.00           1623          53.00       211.42
 1126.33        2980.25           1626          55.00       220.14
 1126.36        2980.50           1630          58.00       233.22
 1126.39        2980.75           1633          51.00       202.70
 1126.42        2981.00           1637          48.00       189.63
 1126.46        2981.25           1640          59.00       237.58
 1126.49        2981.50           1643          51.00       202.70
 1126.52        2981.75           1647          46.00       180.91
 1126.55        2982.00           1650          45.00       176.55
 1126.58        2982.25           1653          45.00       176.55
