************************************************************
  HS Scan of (1) Internal mercury lamp
************************************************************
Integration time is 0.2294 seconds per sample
dh060317Manchester 53.47 2.23 2.750537pr1000
************************************************************
Dead Time -------------------------  3E-08 
Number of Cycles Used -------------  4 
Starting Wavelength (Angstroms) ---  2950 
Final Wavelength (Angstoms) -------  2984 
Wavelength Increment (Angstroms) --  .25 
Filter Wheel #1 Position ---------- (1) Ground quartz diffuser (ND=2.32)
Filter Wheel #2 Position ---------- (1) Neutral Density 0.494



************************************************************
HS scan start time = 03:52:14
Dark Count =  6.6 


Time (GMT)  Wavelength (Ang)  Step Number  Raw Counts  Counts/Second

  232.60        2950.00           1222          45.00       167.39
  232.67        2950.25           1226          52.00       197.91
  232.70        2950.50           1229          46.00       171.75
  232.73        2950.75           1232          47.00       176.11
  232.76        2951.00           1236          55.00       210.99
  232.79        2951.25           1239          46.00       171.75
  232.82        2951.50           1242          43.00       158.68
  232.85        2951.75           1246          47.00       176.11
  232.88        2952.00           1249          48.00       180.47
  232.91        2952.25           1252          43.00       158.68
  232.94        2952.50           1256          42.00       154.32
  232.98        2952.75           1259          51.00       193.55
  233.01        2953.00           1262          47.00       176.11
  233.04        2953.25           1266          40.00       145.60
  233.07        2953.50           1269          37.00       132.52
  233.10        2953.75           1272          49.00       184.83
  233.13        2954.00           1276          43.00       158.68
  233.16        2954.25           1279          48.00       180.47
  233.19        2954.50           1282          41.00       149.96
  233.22        2954.75           1286          46.00       171.75
  233.25        2955.00           1289          45.00       167.39
  233.29        2955.25           1292          46.00       171.75
  233.32        2955.50           1296          34.00       119.44
  233.35        2955.75           1299          47.00       176.11
  233.38        2956.00           1302          40.00       145.60
  233.41        2956.25           1306          47.00       176.11
  233.44        2956.50           1309          51.00       193.55
  233.47        2956.75           1312          46.00       171.75
  233.50        2957.00           1316          43.00       158.68
  233.53        2957.25           1319          48.00       180.47
  233.56        2957.50           1322          43.00       158.68
  233.59        2957.75           1326          49.00       184.83
  233.62        2958.00           1329          45.00       167.39
  233.65        2958.25           1332          48.00       180.47
  233.69        2958.50           1336          38.00       136.88
  233.72        2958.75           1339          46.00       171.75
  233.75        2959.00           1342          52.00       197.91
  233.78        2959.25           1346          45.00       167.39
  233.81        2959.50           1349          51.00       193.55
  233.84        2959.75           1352          68.00       267.66
  233.87        2960.00           1356          94.00       381.00
  233.90        2960.25           1359         122.00       503.06
  233.93        2960.50           1362         154.00       642.56
  233.96        2960.75           1366         214.00       904.12
  233.99        2961.00           1369         248.00      1052.34
  234.03        2961.25           1372         292.00      1244.16
  234.06        2961.50           1376         381.00      1632.16
  234.09        2961.75           1379         595.00      2565.15
  234.12        2962.00           1382        1215.00      5268.49
  234.15        2962.25           1386        2838.00     12347.21
  234.18        2962.50           1389        4446.00     19363.47
  234.21        2962.75           1392        6123.00     26683.95
  234.24        2963.00           1396        8220.00     35842.36
  234.27        2963.25           1399        9965.00     43467.29
  234.30        2963.50           1402       11667.00     50907.69
  234.33        2963.75           1406       13938.00     60840.68
  234.36        2964.00           1409       15549.00     67890.53
  234.40        2964.25           1412       17258.00     75372.52
  234.43        2964.50           1416       19483.00     85118.56
  234.46        2964.75           1419       21092.00     92169.94
  234.49        2965.00           1422       22623.00     98882.26
  234.52        2965.25           1426       24970.00    109177.40
  234.55        2965.50           1429       26526.00    116006.40
  234.58        2965.75           1432       28159.00    123176.20
  234.61        2966.00           1436       30412.00    133073.40
  234.64        2966.25           1439       32115.00    140558.30
  234.68        2966.50           1442       33679.00    147435.30
  234.71        2966.75           1446       35236.00    154284.40
  234.74        2967.00           1449       35747.00    156532.80
  234.77        2967.25           1452       36147.00    158293.10
  234.80        2967.50           1456       35855.00    157008.10
  234.83        2967.75           1459       35845.00    156964.10
  234.86        2968.00           1462       35720.00    156414.00
  234.89        2968.25           1466       34944.00    152999.70
  234.92        2968.50           1469       33704.00    147545.30
  234.96        2968.75           1472       32225.00    141041.90
  234.99        2969.00           1476       29894.00    130797.30
  235.02        2969.25           1479       28073.00    122798.60
  235.05        2969.50           1482       26556.00    116138.00
  235.08        2969.75           1486       24327.00    106356.20
  235.11        2970.00           1489       22752.00     99447.96
  235.14        2970.25           1492       21291.00     93042.27
  235.17        2970.50           1496       19136.00     83598.25
  235.20        2970.75           1499       17408.00     76029.36
  235.23        2971.00           1502       15869.00     69291.24
  235.27        2971.25           1506       13618.00     59440.69
  235.30        2971.50           1509       11788.00     51436.77
  235.33        2971.75           1513        9580.00     41784.70
  235.36        2972.00           1516        7908.00     34479.42
  235.39        2972.25           1519        6430.00     28024.43
  235.42        2972.50           1523        4188.00     18237.53
  235.45        2972.75           1526        2646.00     11509.64
  235.48        2973.00           1529        1263.00      5477.80
  235.51        2973.25           1533         508.00      2185.85
  235.55        2973.50           1536         374.00      1601.65
  235.58        2973.75           1539         306.00      1305.20
  235.61        2974.00           1543         251.00      1065.42
  235.64        2974.25           1546         201.00       847.45
  235.67        2974.50           1549         159.00       664.36
  235.70        2974.75           1553         102.00       415.87
  235.73        2975.00           1556          68.00       267.66
  235.76        2975.25           1559          59.00       228.42
  235.79        2975.50           1563          52.00       197.91
  235.82        2975.75           1566          39.00       141.24
  235.85        2976.00           1569          47.00       176.11
  235.88        2976.25           1573          43.00       158.68
  235.91        2976.50           1576          41.00       149.96
  235.94        2976.75           1579          48.00       180.47
  235.98        2977.00           1583          54.00       206.63
  236.01        2977.25           1586          46.00       171.75
  236.04        2977.50           1590          42.00       154.32
  236.07        2977.75           1593          34.00       119.44
  236.10        2978.00           1596          47.00       176.11
  236.13        2978.25           1600          49.00       184.83
  236.16        2978.50           1603          41.00       149.96
  236.19        2978.75           1606          47.00       176.11
  236.22        2979.00           1610          50.00       189.19
  236.25        2979.25           1613          45.00       167.39
  236.29        2979.50           1616          42.00       154.32
  236.32        2979.75           1620          51.00       193.55
  236.35        2980.00           1623          39.00       141.24
  236.38        2980.25           1626          45.00       167.39
  236.41        2980.50           1630          39.00       141.24
  236.44        2980.75           1633          43.00       158.68
  236.47        2981.00           1637          49.00       184.83
  236.50        2981.25           1640          42.00       154.32
  236.53        2981.50           1643          43.00       158.68
  236.56        2981.75           1647          46.00       171.75
  236.59        2982.00           1650          46.00       171.75
  236.62        2982.25           1653          47.00       176.11
  236.66        2982.50           1657          48.00       180.47
  236.69        2982.75           1660          42.00       154.32
  236.72        2983.00           1663          46.00       171.75
  236.75        2983.25           1667          54.00       206.63
  236.78        2983.50           1670          48.00       180.47
  236.81        2983.75           1673          47.00       176.11
  236.84        2984.00           1677          32.00       110.72
HS scan finished at 03:57:04
end
************************************************************
  HS Scan of (1) Internal mercury lamp
************************************************************
Integration time is 0.2294 seconds per sample
dh060317Manchester 53.47 2.23 2.804185pr1000
************************************************************
Dead Time -------------------------  3E-08 
Number of Cycles Used -------------  4 
Starting Wavelength (Angstroms) ---  2950 
Final Wavelength (Angstoms) -------  2984 
Wavelength Increment (Angstroms) --  .25 
Filter Wheel #1 Position ---------- (1) Ground quartz diffuser (ND=2.32)
Filter Wheel #2 Position ---------- (1) Neutral Density 0.494



************************************************************
HS scan start time = 18:41:59
Dark Count =  7.6 


Time (GMT)  Wavelength (Ang)  Step Number  Raw Counts  Counts/Second

 1122.36        2950.00           1222          45.00       163.03
 1122.43        2950.25           1226          55.00       206.63
 1122.46        2950.50           1229          44.00       158.68
 1122.49        2950.75           1232          43.00       154.32
 1122.52        2951.00           1236          40.00       141.24
 1122.55        2951.25           1239          49.00       180.47
 1122.58        2951.50           1242          48.00       176.11
 1122.61        2951.75           1246          48.00       176.11
 1122.64        2952.00           1249          48.00       176.11
 1122.67        2952.25           1252          42.00       149.96
 1122.70        2952.50           1256          45.00       163.03
 1122.73        2952.75           1259          44.00       158.68
 1122.76        2953.00           1262          43.00       154.32
 1122.80        2953.25           1266          45.00       163.03
 1122.83        2953.50           1269          44.00       158.68
 1122.86        2953.75           1272          45.00       163.03
 1122.89        2954.00           1276          40.00       141.24
 1122.92        2954.25           1279          51.00       189.19
 1122.95        2954.50           1282          46.00       167.39
 1122.98        2954.75           1286          45.00       163.03
 1123.01        2955.00           1289          45.00       163.03
 1123.04        2955.25           1292          39.00       136.88
 1123.07        2955.50           1296          45.00       163.03
 1123.10        2955.75           1299          41.00       145.60
 1123.13        2956.00           1302          49.00       180.47
 1123.16        2956.25           1306          51.00       189.19
 1123.19        2956.50           1309          54.00       202.27
 1123.22        2956.75           1312          44.00       158.68
 1123.25        2957.00           1316          43.00       154.32
 1123.28        2957.25           1319          43.00       154.32
 1123.31        2957.50           1322          53.00       197.91
 1123.34        2957.75           1326          44.00       158.68
 1123.37        2958.00           1329          46.00       167.39
 1123.40        2958.25           1332          45.00       163.03
 1123.44        2958.50           1336          49.00       180.47
 1123.47        2958.75           1339          43.00       154.32
 1123.50        2959.00           1342          47.00       171.75
 1123.53        2959.25           1346          49.00       180.47
 1123.56        2959.50           1349          59.00       224.06
 1123.59        2959.75           1352          77.00       302.53
 1123.62        2960.00           1356         118.00       481.26
 1123.65        2960.25           1359         141.00       581.53
 1123.68        2960.50           1362         179.00       747.18
 1123.72        2960.75           1366         234.00       986.95
 1123.75        2961.00           1369         270.00      1143.89
 1123.78        2961.25           1372         335.00      1427.26
 1123.81        2961.50           1376         443.00      1898.10
 1123.84        2961.75           1379         787.00      3397.91
 1123.87        2962.00           1382        1600.00      6943.03
 1123.90        2962.25           1386        3537.00     15392.46
 1123.93        2962.50           1389        5167.00     22506.04
 1123.96        2962.75           1392        6746.00     29399.94
 1123.99        2963.00           1396        8846.00     38572.95
 1124.02        2963.25           1399       10421.00     45456.02
 1124.06        2963.50           1402       12071.00     52669.91
 1124.09        2963.75           1406       14296.00     62402.68
 1124.12        2964.00           1409       15880.00     69335.01
 1124.15        2964.25           1412       17705.00     77325.65
 1124.18        2964.50           1416       19969.00     87243.74
 1124.21        2964.75           1419       21804.00     95286.83
 1124.24        2965.00           1422       23478.00    102627.60
 1124.27        2965.25           1426       25804.00    112832.90
 1124.31        2965.50           1429       27225.00    119070.60
 1124.34        2965.75           1432       28807.00    126017.80
 1124.37        2966.00           1436       31296.00    136953.90
 1124.40        2966.25           1439       32565.00    142532.30
 1124.43        2966.50           1442       34002.00    148851.50
 1124.46        2966.75           1446       35228.00    154244.80
 1124.49        2967.00           1449       35535.00    155595.60
 1124.52        2967.25           1452       35598.00    155872.80
 1124.55        2967.50           1456       35534.00    155591.20
 1124.59        2967.75           1459       35599.00    155877.20
 1124.62        2968.00           1462       35251.00    154346.00
 1124.65        2968.25           1466       33864.00    148244.60
 1124.68        2968.50           1469       32583.00    142611.50
 1124.71        2968.75           1472       30889.00    135165.10
 1124.74        2969.00           1476       28835.00    126140.80
 1124.77        2969.25           1479       27226.00    119075.00
 1124.80        2969.50           1482       25710.00    112420.40
 1124.83        2969.75           1486       23545.00    102921.50
 1124.86        2970.00           1489       21884.00     95637.57
 1124.89        2970.25           1492       20226.00     88369.98
 1124.93        2970.50           1496       18050.00     78836.63
 1124.96        2970.75           1499       16237.00     70897.81
 1124.99        2971.00           1502       14775.00     64498.71
 1125.02        2971.25           1506       12410.00     54152.42
 1125.05        2971.50           1509       10768.00     46972.86
 1125.08        2971.75           1513        8545.00     37257.84
 1125.11        2972.00           1516        6973.00     30391.26
 1125.14        2972.25           1519        5235.00     22802.86
 1125.17        2972.50           1523        3353.00     14589.65
 1125.20        2972.75           1526        2014.00      8748.59
 1125.23        2973.00           1529         921.00      3982.17
 1125.26        2973.25           1533         415.00      1776.03
 1125.29        2973.50           1536         327.00      1392.39
 1125.33        2973.75           1539         262.00      1109.02
 1125.36        2974.00           1543         224.00       943.36
 1125.39        2974.25           1546         149.00       616.40
 1125.42        2974.50           1549         115.00       468.18
 1125.45        2974.75           1553          77.00       302.53
 1125.48        2975.00           1556          60.00       228.42
 1125.51        2975.25           1559          53.00       197.91
 1125.54        2975.50           1563          52.00       193.55
 1125.57        2975.75           1566          41.00       145.60
 1125.60        2976.00           1569          44.00       158.68
 1125.63        2976.25           1573          43.00       154.32
 1125.67        2976.50           1576          46.00       167.39
 1125.70        2976.75           1579          49.00       180.47
 1125.73        2977.00           1583          54.00       202.27
 1125.76        2977.25           1586          47.00       171.75
 1125.79        2977.50           1590          41.00       145.60
 1125.82        2977.75           1593          46.00       167.39
 1125.85        2978.00           1596          57.00       215.35
 1125.88        2978.25           1600          46.00       167.39
 1125.91        2978.50           1603          42.00       149.96
 1125.94        2978.75           1606          50.00       184.83
 1125.97        2979.00           1610          49.00       180.47
 1126.00        2979.25           1613          42.00       149.96
 1126.03        2979.50           1616          47.00       171.75
 1126.06        2979.75           1620          47.00       171.75
 1126.09        2980.00           1623          46.00       167.39
 1126.13        2980.25           1626          44.00       158.68
 1126.16        2980.50           1630          50.00       184.83
 1126.19        2980.75           1633          42.00       149.96
 1126.22        2981.00           1637          45.00       163.03
 1126.25        2981.25           1640          41.00       145.60
 1126.28        2981.50           1643          48.00       176.11
 1126.31        2981.75           1647          47.00       171.75
 1126.34        2982.00           1650          49.00       180.47
 1126.37        2982.25           1653          44.00       158.68
