************************************************************
  HS Scan of (1) Internal mercury lamp
************************************************************
Integration time is 0.2294 seconds per sample
dh020319Manchester 53.47 2.23 2.804185pr1000
************************************************************
Dead Time -------------------------  3E-08 
Number of Cycles Used -------------  4 
Starting Wavelength (Angstroms) ---  2950 
Final Wavelength (Angstoms) -------  2984 
Wavelength Increment (Angstroms) --  .25 
Filter Wheel #1 Position ---------- (1) Ground quartz diffuser (ND=2.32)
Filter Wheel #2 Position ---------- (1) Neutral Density 0.494



************************************************************
HS scan start time = 04:05:26
Dark Count =  9.100001 


Time (GMT)  Wavelength (Ang)  Step Number  Raw Counts  Counts/Second

  245.81        2950.00           1222          51.00       182.65
  245.87        2950.25           1226          64.00       239.32
  245.90        2950.50           1229          55.00       200.09
  245.93        2950.75           1232          45.00       156.50
  245.97        2951.00           1236          56.00       204.45
  246.00        2951.25           1239          54.00       195.73
  246.03        2951.50           1242          53.00       191.37
  246.06        2951.75           1246          51.00       182.65
  246.09        2952.00           1249          60.00       221.88
  246.12        2952.25           1252          55.00       200.09
  246.15        2952.50           1256          55.00       200.09
  246.18        2952.75           1259          57.00       208.81
  246.21        2953.00           1262          58.00       213.17
  246.24        2953.25           1266          51.00       182.65
  246.27        2953.50           1269          54.00       195.73
  246.31        2953.75           1272          67.00       252.40
  246.34        2954.00           1276          57.00       208.81
  246.37        2954.25           1279          49.00       173.93
  246.40        2954.50           1282          58.00       213.17
  246.43        2954.75           1286          51.00       182.65
  246.46        2955.00           1289          53.00       191.37
  246.49        2955.25           1292          53.00       191.37
  246.52        2955.50           1296          54.00       195.73
  246.55        2955.75           1299          50.00       178.29
  246.58        2956.00           1302          56.00       204.45
  246.61        2956.25           1306          54.00       195.73
  246.64        2956.50           1309          62.00       230.60
  246.67        2956.75           1312          50.00       178.29
  246.70        2957.00           1316          55.00       200.09
  246.73        2957.25           1319          49.00       173.93
  246.77        2957.50           1322          52.00       187.01
  246.80        2957.75           1326          51.00       182.65
  246.83        2958.00           1329          62.00       230.60
  246.86        2958.25           1332          62.00       230.60
  246.89        2958.50           1336          59.00       217.53
  246.92        2958.75           1339          46.00       160.86
  246.95        2959.00           1342          56.00       204.45
  246.98        2959.25           1346          55.00       200.09
  247.01        2959.50           1349          58.00       213.17
  247.04        2959.75           1352          67.00       252.40
  247.08        2960.00           1356          80.00       309.07
  247.11        2960.25           1359          95.00       374.46
  247.14        2960.50           1362         121.00       487.80
  247.17        2960.75           1366         161.00       662.18
  247.20        2961.00           1369         200.00       832.19
  247.23        2961.25           1372         237.00       993.49
  247.26        2961.50           1376         274.00      1154.79
  247.29        2961.75           1379         396.00      1686.66
  247.32        2962.00           1382         902.00      3892.78
  247.35        2962.25           1386        2294.00      9963.31
  247.38        2962.50           1389        3408.00     14823.07
  247.42        2962.75           1392        4701.00     20465.48
  247.45        2963.00           1396        6194.00     26983.04
  247.48        2963.25           1399        7485.00     32620.84
  247.51        2963.50           1402        8633.00     37635.76
  247.54        2963.75           1406       10137.00     44208.12
  247.57        2964.00           1409       11528.00     50288.98
  247.60        2964.25           1412       12710.00     55457.93
  247.63        2964.50           1416       14326.00     62527.39
  247.66        2964.75           1419       15546.00     67866.46
  247.70        2965.00           1422       16863.00     73631.97
  247.73        2965.25           1426       18471.00     80674.10
  247.76        2965.50           1429       19614.00     85681.59
  247.79        2965.75           1432       20682.00     90361.89
  247.82        2966.00           1436       22198.00     97007.71
  247.85        2966.25           1439       23282.00    101761.40
  247.88        2966.50           1442       24454.00    106902.50
  247.91        2966.75           1446       25673.00    112251.40
  247.94        2967.00           1449       26095.00    114103.50
  247.97        2967.25           1452       25982.00    113607.60
  248.00        2967.50           1456       26210.00    114608.30
  248.03        2967.75           1459       26039.00    113857.70
  248.07        2968.00           1462       26003.00    113699.70
  248.10        2968.25           1466       25208.00    110210.80
  248.13        2968.50           1469       24161.00    105617.00
  248.16        2968.75           1472       23074.00    100849.10
  248.19        2969.00           1476       21555.00     94188.62
  248.22        2969.25           1479       20273.00     88569.38
  248.25        2969.50           1482       19282.00     84226.94
  248.28        2969.75           1486       17685.00     77231.48
  248.31        2970.00           1489       16436.00     71762.44
  248.35        2970.25           1492       15347.00     66995.46
  248.38        2970.50           1496       13692.00     59753.49
  248.41        2970.75           1499       12441.00     54281.44
  248.44        2971.00           1502       11205.00     48876.76
  248.47        2971.25           1506        9671.00     42171.46
  248.50        2971.50           1509        8360.00     36443.05
  248.53        2971.75           1513        6793.00     29598.63
  248.56        2972.00           1516        5600.00     24389.68
  248.59        2972.25           1519        4431.00     19287.09
  248.62        2972.50           1523        2898.00     12598.05
  248.66        2972.75           1526        1781.00      7725.85
  248.69        2973.00           1529         827.00      3565.77
  248.72        2973.25           1533         358.00      1520.99
  248.75        2973.50           1536         277.00      1167.87
  248.78        2973.75           1539         244.00      1024.01
  248.81        2974.00           1543         199.00       827.83
  248.84        2974.25           1546         158.00       649.10
  248.87        2974.50           1549         121.00       487.80
  248.90        2974.75           1553          85.00       330.87
  248.94        2975.00           1556          65.00       243.68
  248.97        2975.25           1559          61.00       226.24
  249.00        2975.50           1563          62.00       230.60
  249.03        2975.75           1566          51.00       182.65
  249.06        2976.00           1569          55.00       200.09
  249.09        2976.25           1573          54.00       195.73
  249.12        2976.50           1576          54.00       195.73
  249.15        2976.75           1579          54.00       195.73
  249.18        2977.00           1583          45.00       156.50
  249.21        2977.25           1586          50.00       178.29
  249.24        2977.50           1590          48.00       169.57
  249.28        2977.75           1593          46.00       160.86
  249.31        2978.00           1596          43.00       147.78
  249.34        2978.25           1600          54.00       195.73
  249.37        2978.50           1603          51.00       182.65
  249.40        2978.75           1606          51.00       182.65
  249.43        2979.00           1610          48.00       169.57
  249.46        2979.25           1613          49.00       173.93
  249.49        2979.50           1616          51.00       182.65
  249.53        2979.75           1620          48.00       169.57
  249.56        2980.00           1623          44.00       152.14
  249.59        2980.25           1626          64.00       239.32
  249.62        2980.50           1630          46.00       160.86
  249.65        2980.75           1633          60.00       221.88
  249.68        2981.00           1637          50.00       178.29
  249.71        2981.25           1640          54.00       195.73
  249.74        2981.50           1643          54.00       195.73
  249.77        2981.75           1647          61.00       226.24
  249.80        2982.00           1650          57.00       208.81
  249.83        2982.25           1653          53.00       191.37
  249.86        2982.50           1657          46.00       160.86
  249.89        2982.75           1660          47.00       165.21
  249.93        2983.00           1663          47.00       165.21
  249.96        2983.25           1667          50.00       178.29
  249.99        2983.50           1670          47.00       165.21
  250.02        2983.75           1673          45.00       156.50
  250.05        2984.00           1677          39.00       130.34
HS scan finished at 04:10:16
end
************************************************************
  HS Scan of (1) Internal mercury lamp
************************************************************
Integration time is 0.2294 seconds per sample
dh020319Manchester 53.47 2.23 2.804185pr1000
************************************************************
Dead Time -------------------------  3E-08 
Number of Cycles Used -------------  4 
Starting Wavelength (Angstroms) ---  2950 
Final Wavelength (Angstoms) -------  2984 
Wavelength Increment (Angstroms) --  .25 
Filter Wheel #1 Position ---------- (1) Ground quartz diffuser (ND=2.32)
Filter Wheel #2 Position ---------- (1) Neutral Density 0.494



************************************************************
HS scan start time = 18:42:10
Dark Count =  7.8 


Time (GMT)  Wavelength (Ang)  Step Number  Raw Counts  Counts/Second

 1122.54        2950.00           1222          50.00       183.96
 1122.60        2950.25           1226          55.00       205.76
 1122.63        2950.50           1229          56.00       210.11
 1122.66        2950.75           1232          48.00       175.24
 1122.70        2951.00           1236          56.00       210.11
 1122.73        2951.25           1239          56.00       210.11
 1122.76        2951.50           1242          57.00       214.47
 1122.79        2951.75           1246          51.00       188.32
 1122.82        2952.00           1249          57.00       214.47
 1122.85        2952.25           1252          54.00       201.40
 1122.88        2952.50           1256          54.00       201.40
 1122.91        2952.75           1259          51.00       188.32
 1122.94        2953.00           1262          62.00       236.27
 1122.97        2953.25           1266          58.00       218.83
 1123.00        2953.50           1269          52.00       192.68
 1123.03        2953.75           1272          51.00       188.32
 1123.06        2954.00           1276          53.00       197.04
 1123.10        2954.25           1279          53.00       197.04
 1123.13        2954.50           1282          54.00       201.40
 1123.16        2954.75           1286          55.00       205.76
 1123.19        2955.00           1289          52.00       192.68
 1123.22        2955.25           1292          53.00       197.04
 1123.25        2955.50           1296          54.00       201.40
 1123.28        2955.75           1299          53.00       197.04
 1123.31        2956.00           1302          48.00       175.24
 1123.34        2956.25           1306          55.00       205.76
 1123.38        2956.50           1309          58.00       218.83
 1123.41        2956.75           1312          50.00       183.96
 1123.44        2957.00           1316          54.00       201.40
 1123.47        2957.25           1319          63.00       240.63
 1123.50        2957.50           1322          47.00       170.88
 1123.53        2957.75           1326          51.00       188.32
 1123.56        2958.00           1329          54.00       201.40
 1123.59        2958.25           1332          52.00       192.68
 1123.62        2958.50           1336          57.00       214.47
 1123.65        2958.75           1339          51.00       188.32
 1123.68        2959.00           1342          52.00       192.68
 1123.71        2959.25           1346          58.00       218.83
 1123.74        2959.50           1349          63.00       240.63
 1123.78        2959.75           1352          76.00       297.30
 1123.81        2960.00           1356          97.00       388.85
 1123.84        2960.25           1359         128.00       523.98
 1123.87        2960.50           1362         150.00       619.89
 1123.90        2960.75           1366         189.00       789.91
 1123.93        2961.00           1369         211.00       885.81
 1123.96        2961.25           1372         264.00      1116.86
 1123.99        2961.50           1376         322.00      1369.72
 1124.02        2961.75           1379         476.00      2041.10
 1124.05        2962.00           1382        1067.00      4617.90
 1124.08        2962.25           1386        2402.00     10440.06
 1124.12        2962.50           1389        3505.00     15251.96
 1124.15        2962.75           1392        4727.00     20584.64
 1124.18        2963.00           1396        6315.00     27517.04
 1124.21        2963.25           1399        7506.00     32718.24
 1124.24        2963.50           1402        8753.00     38165.73
 1124.27        2963.75           1406       10372.00     45240.96
 1124.30        2964.00           1409       11574.00     50495.79
 1124.33        2964.25           1412       12840.00     56032.21
 1124.36        2964.50           1416       14531.00     63430.09
 1124.39        2964.75           1419       15854.00     69220.32
 1124.42        2965.00           1422       17065.00     74522.13
 1124.46        2965.25           1426       18699.00     81678.53
 1124.49        2965.50           1429       19888.00     86887.92
 1124.52        2965.75           1432       20984.00     91691.28
 1124.55        2966.00           1436       22580.00     98688.44
 1124.58        2966.25           1439       23643.00    103350.50
 1124.61        2966.50           1442       24872.00    108742.10
 1124.64        2966.75           1446       25887.00    113196.30
 1124.67        2967.00           1449       26130.00    114262.90
 1124.70        2967.25           1452       26184.00    114499.90
 1124.74        2967.50           1456       26123.00    114232.10
 1124.77        2967.75           1459       26157.00    114381.40
 1124.80        2968.00           1462       25949.00    113468.40
 1124.83        2968.25           1466       25200.00    110181.40
 1124.86        2968.50           1469       24172.00    105671.00
 1124.89        2968.75           1472       22866.00     99942.62
 1124.92        2969.00           1476       21380.00     93427.14
 1124.95        2969.25           1479       20235.00     88408.53
 1124.98        2969.50           1482       18942.00     82743.06
 1125.01        2969.75           1486       17315.00     75616.85
 1125.05        2970.00           1489       16167.00     70590.50
 1125.08        2970.25           1492       14993.00     65451.85
 1125.11        2970.50           1496       13488.00     58866.73
 1125.14        2970.75           1499       12438.00     54274.01
 1125.17        2971.00           1502       11241.00     49039.84
 1125.20        2971.25           1506        9565.00     41713.90
 1125.23        2971.50           1509        8268.00     36046.81
 1125.26        2971.75           1513        6766.00     29486.41
 1125.29        2972.00           1516        5408.00     23557.18
 1125.33        2972.25           1519        4333.00     18865.08
 1125.36        2972.50           1523        2756.00     11984.26
 1125.39        2972.75           1526        1637.00      7103.52
 1125.42        2973.00           1529         768.00      3314.19
 1125.45        2973.25           1533         337.00      1435.11
 1125.48        2973.50           1536         240.00      1012.24
 1125.51        2973.75           1539         216.00       907.61
 1125.54        2974.00           1543         179.00       746.31
 1125.57        2974.25           1546         139.00       571.94
 1125.61        2974.50           1549         110.00       445.52
 1125.64        2974.75           1553          74.00       288.58
 1125.67        2975.00           1556          64.00       244.99
 1125.70        2975.25           1559          52.00       192.68
 1125.73        2975.50           1563          55.00       205.76
 1125.76        2975.75           1566          51.00       188.32
 1125.79        2976.00           1569          50.00       183.96
 1125.82        2976.25           1573          50.00       183.96
 1125.85        2976.50           1576          52.00       192.68
 1125.88        2976.75           1579          51.00       188.32
 1125.92        2977.00           1583          51.00       188.32
 1125.95        2977.25           1586          51.00       188.32
 1125.98        2977.50           1590          49.00       179.60
 1126.01        2977.75           1593          50.00       183.96
 1126.04        2978.00           1596          56.00       210.11
 1126.07        2978.25           1600          51.00       188.32
 1126.10        2978.50           1603          49.00       179.60
 1126.13        2978.75           1606          57.00       214.47
 1126.16        2979.00           1610          45.00       162.16
 1126.19        2979.25           1613          53.00       197.04
 1126.22        2979.50           1616          51.00       188.32
 1126.25        2979.75           1620          48.00       175.24
 1126.28        2980.00           1623          47.00       170.88
 1126.31        2980.25           1626          49.00       179.60
 1126.35        2980.50           1630          55.00       205.76
 1126.38        2980.75           1633          49.00       179.60
 1126.41        2981.00           1637          54.00       201.40
 1126.44        2981.25           1640          45.00       162.16
 1126.47        2981.50           1643          59.00       223.19
 1126.50        2981.75           1647          45.00       162.16
 1126.53        2982.00           1650          51.00       188.32
 1126.56        2982.25           1653          53.00       197.04
