************************************************************
  HS Scan of (1) Internal mercury lamp
************************************************************
Integration time is 0.2294 seconds per sample
dh050317Manchester 53.47 2.23 2.750537pr1000
************************************************************
Dead Time -------------------------  3E-08 
Number of Cycles Used -------------  4 
Starting Wavelength (Angstroms) ---  2950 
Final Wavelength (Angstoms) -------  2984 
Wavelength Increment (Angstroms) --  .25 
Filter Wheel #1 Position ---------- (1) Ground quartz diffuser (ND=2.32)
Filter Wheel #2 Position ---------- (1) Neutral Density 0.494



************************************************************
HS scan start time = 03:55:16
Dark Count =  5.7 


Time (GMT)  Wavelength (Ang)  Step Number  Raw Counts  Counts/Second

  235.63        2950.00           1222          50.00       193.11
  235.70        2950.25           1226          41.00       153.88
  235.73        2950.50           1229          57.00       223.63
  235.76        2950.75           1232          44.00       166.96
  235.79        2951.00           1236          41.00       153.88
  235.82        2951.25           1239          41.00       153.88
  235.86        2951.50           1242          48.00       184.40
  235.89        2951.75           1246          44.00       166.96
  235.92        2952.00           1249          43.00       162.60
  235.95        2952.25           1252          38.00       140.80
  235.98        2952.50           1256          45.00       171.32
  236.01        2952.75           1259          52.00       201.83
  236.04        2953.00           1262          55.00       214.91
  236.07        2953.25           1266          47.00       180.04
  236.10        2953.50           1269          57.00       223.63
  236.13        2953.75           1272          43.00       162.60
  236.16        2954.00           1276          47.00       180.04
  236.19        2954.25           1279          43.00       162.60
  236.22        2954.50           1282          41.00       153.88
  236.25        2954.75           1286          46.00       175.68
  236.28        2955.00           1289          46.00       175.68
  236.31        2955.25           1292          48.00       184.40
  236.34        2955.50           1296          38.00       140.80
  236.38        2955.75           1299          45.00       171.32
  236.41        2956.00           1302          54.00       210.55
  236.44        2956.25           1306          40.00       149.52
  236.47        2956.50           1309          47.00       180.04
  236.50        2956.75           1312          43.00       162.60
  236.53        2957.00           1316          48.00       184.40
  236.56        2957.25           1319          39.00       145.16
  236.59        2957.50           1322          53.00       206.19
  236.62        2957.75           1326          48.00       184.40
  236.65        2958.00           1329          41.00       153.88
  236.68        2958.25           1332          47.00       180.04
  236.72        2958.50           1336          44.00       166.96
  236.75        2958.75           1339          47.00       180.04
  236.78        2959.00           1342          51.00       197.47
  236.81        2959.25           1346          48.00       184.40
  236.84        2959.50           1349          47.00       180.04
  236.87        2959.75           1352          60.00       236.71
  236.90        2960.00           1356          72.00       289.02
  236.93        2960.25           1359         118.00       489.55
  236.96        2960.50           1362         158.00       663.92
  236.99        2960.75           1366         208.00       881.89
  237.02        2961.00           1369         251.00      1069.35
  237.06        2961.25           1372         313.00      1339.64
  237.09        2961.50           1376         400.00      1718.92
  237.12        2961.75           1379         731.00      3162.03
  237.15        2962.00           1382        1522.00      6611.16
  237.18        2962.25           1386        3367.00     14659.02
  237.21        2962.50           1389        5019.00     21868.31
  237.24        2962.75           1392        6730.00     29338.36
  237.27        2963.00           1396        8806.00     38406.48
  237.30        2963.25           1399       10529.00     45936.41
  237.34        2963.50           1402       12225.00     53351.67
  237.37        2963.75           1406       14553.00     63535.55
  237.40        2964.00           1409       16093.00     70275.73
  237.43        2964.25           1412       17653.00     77106.24
  237.46        2964.50           1416       20010.00     87431.74
  237.49        2964.75           1419       21682.00     94760.29
  237.52        2965.00           1422       23360.00    102118.40
  237.55        2965.25           1426       25392.00    111033.20
  237.58        2965.50           1429       27031.00    118227.20
  237.62        2965.75           1432       28899.00    126430.30
  237.65        2966.00           1436       31003.00    135674.50
  237.68        2966.25           1439       32615.00    142760.50
  237.71        2966.50           1442       34062.00    149123.80
  237.74        2966.75           1446       35567.00    155744.80
  237.77        2967.00           1449       36079.00    157997.80
  237.80        2967.25           1452       36033.00    157795.40
  237.83        2967.50           1456       35972.00    157526.90
  237.86        2967.75           1459       35966.00    157500.50
  237.89        2968.00           1462       35538.00    155617.10
  237.93        2968.25           1466       34481.00    150966.90
  237.96        2968.50           1469       33037.00    144616.10
  237.99        2968.75           1472       31594.00    138272.10
  238.02        2969.00           1476       29226.00    127866.60
  238.05        2969.25           1479       27566.00    120576.20
  238.08        2969.50           1482       26015.00    113767.30
  238.11        2969.75           1486       23812.00    104101.00
  238.14        2970.00           1489       22164.00     96873.54
  238.17        2970.25           1492       20616.00     90087.53
  238.21        2970.50           1496       18609.00     81293.49
  238.24        2970.75           1499       16763.00     73209.00
  238.27        2971.00           1502       15160.00     66191.90
  238.30        2971.25           1506       12802.00     55875.19
  238.33        2971.50           1509       11234.00     49018.42
  238.36        2971.75           1513        8806.00     38406.48
  238.39        2972.00           1516        7217.00     31465.17
  238.42        2972.25           1519        5723.00     24941.50
  238.45        2972.50           1523        3518.00     15317.85
  238.49        2972.75           1526        2065.00      8979.31
  238.52        2973.00           1529         956.00      4143.06
  238.55        2973.25           1533         460.00      1980.50
  238.58        2973.50           1536         360.00      1544.54
  238.61        2973.75           1539         290.00      1239.37
  238.64        2974.00           1543         258.00      1099.86
  238.67        2974.25           1546         193.00       816.50
  238.70        2974.50           1549         141.00       589.81
  238.73        2974.75           1553          99.00       406.72
  238.77        2975.00           1556          84.00       341.33
  238.80        2975.25           1559          56.00       219.27
  238.83        2975.50           1563          52.00       201.83
  238.86        2975.75           1566          48.00       184.40
  238.89        2976.00           1569          54.00       210.55
  238.92        2976.25           1573          46.00       175.68
  238.95        2976.50           1576          52.00       201.83
  238.98        2976.75           1579          52.00       201.83
  239.01        2977.00           1583          48.00       184.40
  239.04        2977.25           1586          45.00       171.32
  239.07        2977.50           1590          49.00       188.75
  239.10        2977.75           1593          49.00       188.75
  239.14        2978.00           1596          43.00       162.60
  239.17        2978.25           1600          45.00       171.32
  239.20        2978.50           1603          41.00       153.88
  239.23        2978.75           1606          42.00       158.24
  239.26        2979.00           1610          44.00       166.96
  239.29        2979.25           1613          58.00       227.99
  239.32        2979.50           1616          47.00       180.04
  239.35        2979.75           1620          46.00       175.68
  239.38        2980.00           1623          43.00       162.60
  239.41        2980.25           1626          54.00       210.55
  239.44        2980.50           1630          44.00       166.96
  239.48        2980.75           1633          44.00       166.96
  239.51        2981.00           1637          50.00       193.11
  239.54        2981.25           1640          41.00       153.88
  239.57        2981.50           1643          41.00       153.88
  239.60        2981.75           1647          38.00       140.80
  239.63        2982.00           1650          39.00       145.16
  239.66        2982.25           1653          39.00       145.16
  239.69        2982.50           1657          44.00       166.96
  239.72        2982.75           1660          43.00       162.60
  239.75        2983.00           1663          42.00       158.24
  239.78        2983.25           1667          48.00       184.40
  239.81        2983.50           1670          45.00       171.32
  239.84        2983.75           1673          41.00       153.88
  239.87        2984.00           1677          50.00       193.11
HS scan finished at 04:00:05
end
************************************************************
  HS Scan of (1) Internal mercury lamp
************************************************************
Integration time is 0.2294 seconds per sample
dh050317Manchester 53.47 2.23 2.750537pr1000
************************************************************
Dead Time -------------------------  3E-08 
Number of Cycles Used -------------  4 
Starting Wavelength (Angstroms) ---  2950 
Final Wavelength (Angstoms) -------  2984 
Wavelength Increment (Angstroms) --  .25 
Filter Wheel #1 Position ---------- (1) Ground quartz diffuser (ND=2.32)
Filter Wheel #2 Position ---------- (1) Neutral Density 0.494



************************************************************
HS scan start time = 18:42:04
Dark Count =  7.5 


Time (GMT)  Wavelength (Ang)  Step Number  Raw Counts  Counts/Second

 1122.43        2950.00           1222          51.00       189.63
 1122.50        2950.25           1226          52.00       193.99
 1122.53        2950.50           1229          41.00       146.03
 1122.56        2950.75           1232          40.00       141.67
 1122.59        2951.00           1236          44.00       159.11
 1122.62        2951.25           1239          44.00       159.11
 1122.65        2951.50           1242          44.00       159.11
 1122.68        2951.75           1246          44.00       159.11
 1122.72        2952.00           1249          50.00       185.27
 1122.75        2952.25           1252          43.00       154.75
 1122.78        2952.50           1256          60.00       228.86
 1122.81        2952.75           1259          42.00       150.39
 1122.84        2953.00           1262          44.00       159.11
 1122.87        2953.25           1266          43.00       154.75
 1122.90        2953.50           1269          48.00       176.55
 1122.93        2953.75           1272          48.00       176.55
 1122.96        2954.00           1276          42.00       150.39
 1122.99        2954.25           1279          51.00       189.63
 1123.02        2954.50           1282          48.00       176.55
 1123.05        2954.75           1286          47.00       172.19
 1123.09        2955.00           1289          46.00       167.83
 1123.12        2955.25           1292          53.00       198.34
 1123.15        2955.50           1296          47.00       172.19
 1123.18        2955.75           1299          50.00       185.27
 1123.21        2956.00           1302          50.00       185.27
 1123.24        2956.25           1306          47.00       172.19
 1123.27        2956.50           1309          53.00       198.34
 1123.30        2956.75           1312          49.00       180.91
 1123.33        2957.00           1316          49.00       180.91
 1123.36        2957.25           1319          46.00       167.83
 1123.39        2957.50           1322          47.00       172.19
 1123.42        2957.75           1326          48.00       176.55
 1123.46        2958.00           1329          44.00       159.11
 1123.49        2958.25           1332          49.00       180.91
 1123.52        2958.50           1336          46.00       167.83
 1123.55        2958.75           1339          48.00       176.55
 1123.58        2959.00           1342          47.00       172.19
 1123.61        2959.25           1346          47.00       172.19
 1123.64        2959.50           1349          59.00       224.50
 1123.67        2959.75           1352          65.00       250.66
 1123.70        2960.00           1356          86.00       342.20
 1123.73        2960.25           1359         118.00       481.70
 1123.76        2960.50           1362         160.00       664.79
 1123.80        2960.75           1366         226.00       952.51
 1123.83        2961.00           1369         276.00      1170.49
 1123.86        2961.25           1372         312.00      1327.43
 1123.89        2961.50           1376         378.00      1615.16
 1123.92        2961.75           1379         559.00      2404.27
 1123.95        2962.00           1382        1102.00      4771.83
 1123.98        2962.25           1386        2605.00     11326.87
 1124.01        2962.50           1389        4106.00     17875.76
 1124.04        2962.75           1392        5697.00     24820.13
 1124.07        2963.00           1396        7697.00     33553.81
 1124.10        2963.25           1399        9402.00     41002.89
 1124.14        2963.50           1402       11294.00     49272.87
 1124.17        2963.75           1406       13599.00     59353.63
 1124.20        2964.00           1409       15278.00     66700.47
 1124.23        2964.25           1412       17097.00     74663.57
 1124.26        2964.50           1416       19198.00     83865.93
 1124.29        2964.75           1419       20924.00     91429.61
 1124.32        2965.00           1422       22535.00     98492.43
 1124.35        2965.25           1426       24565.00    107396.50
 1124.38        2965.50           1429       26357.00    115260.50
 1124.41        2965.75           1432       27906.00    122061.20
 1124.45        2966.00           1436       30335.00    132731.10
 1124.48        2966.25           1439       31887.00    139552.10
 1124.51        2966.50           1442       33118.00    144964.30
 1124.54        2966.75           1446       35003.00    153255.30
 1124.57        2967.00           1449       35575.00    155772.00
 1124.60        2967.25           1452       35604.00    155899.60
 1124.63        2967.50           1456       35603.00    155895.20
 1124.66        2967.75           1459       35643.00    156071.30
 1124.70        2968.00           1462       35393.00    154971.20
 1124.73        2968.25           1466       34713.00    151979.50
 1124.76        2968.50           1469       33523.00    146745.30
 1124.79        2968.75           1472       32111.00    140536.80
 1124.82        2969.00           1476       29816.00    130450.70
 1124.85        2969.25           1479       28110.00    122957.10
 1124.88        2969.50           1482       26554.00    116125.30
 1124.91        2969.75           1486       24363.00    106510.20
 1124.94        2970.00           1489       22646.00     98979.18
 1124.98        2970.25           1492       21138.00     92367.62
 1125.01        2970.50           1496       18887.00     82503.43
 1125.04        2970.75           1499       17302.00     75561.24
 1125.07        2971.00           1502       15775.00     68875.83
 1125.10        2971.25           1506       13534.00     59069.27
 1125.13        2971.50           1509       12023.00     52460.44
 1125.16        2971.75           1513        9939.00     43349.71
 1125.19        2972.00           1516        8326.00     36301.51
 1125.22        2972.25           1519        6546.00     28527.02
 1125.25        2972.50           1523        4377.00     19058.41
 1125.28        2972.75           1526        2868.00     12474.15
 1125.32        2973.00           1529        1520.00      6594.59
 1125.35        2973.25           1533         545.00      2343.23
 1125.38        2973.50           1536         364.00      1554.13
 1125.41        2973.75           1539         276.00      1170.49
 1125.44        2974.00           1543         235.00       991.75
 1125.47        2974.25           1546         166.00       690.95
 1125.50        2974.50           1549         142.00       586.32
 1125.53        2974.75           1553          97.00       390.15
 1125.56        2975.00           1556          71.00       276.81
 1125.59        2975.25           1559          63.00       241.94
 1125.63        2975.50           1563          53.00       198.34
 1125.66        2975.75           1566          47.00       172.19
 1125.69        2976.00           1569          46.00       167.83
 1125.72        2976.25           1573          42.00       150.39
 1125.75        2976.50           1576          49.00       180.91
 1125.78        2976.75           1579          50.00       185.27
 1125.81        2977.00           1583          43.00       154.75
 1125.84        2977.25           1586          46.00       167.83
 1125.87        2977.50           1590          42.00       150.39
 1125.90        2977.75           1593          52.00       193.99
 1125.93        2978.00           1596          38.00       132.96
 1125.96        2978.25           1600          42.00       150.39
 1126.00        2978.50           1603          44.00       159.11
 1126.03        2978.75           1606          46.00       167.83
 1126.06        2979.00           1610          40.00       141.67
 1126.09        2979.25           1613          52.00       193.99
 1126.12        2979.50           1616          50.00       185.27
 1126.15        2979.75           1620          48.00       176.55
 1126.18        2980.00           1623          40.00       141.67
 1126.21        2980.25           1626          40.00       141.67
 1126.24        2980.50           1630          35.00       119.88
 1126.27        2980.75           1633          44.00       159.11
 1126.30        2981.00           1637          45.00       163.47
 1126.34        2981.25           1640          41.00       146.03
 1126.37        2981.50           1643          47.00       172.19
 1126.40        2981.75           1647          46.00       167.83
 1126.43        2982.00           1650          42.00       150.39
 1126.46        2982.25           1653          47.00       172.19
