************************************************************
  HS Scan of (1) Internal mercury lamp
************************************************************
Integration time is 0.2294 seconds per sample
dh160319Manchester 53.47 2.23 2.804185pr1000
************************************************************
Dead Time -------------------------  3E-08 
Number of Cycles Used -------------  4 
Starting Wavelength (Angstroms) ---  2950 
Final Wavelength (Angstoms) -------  2984 
Wavelength Increment (Angstroms) --  .25 
Filter Wheel #1 Position ---------- (1) Ground quartz diffuser (ND=2.32)
Filter Wheel #2 Position ---------- (1) Neutral Density 0.494



************************************************************
HS scan start time = 03:21:39
Dark Count =  8.100001 


Time (GMT)  Wavelength (Ang)  Step Number  Raw Counts  Counts/Second

  202.02        2950.00           1222          52.00       191.37
  202.09        2950.25           1226          53.00       195.73
  202.12        2950.50           1229          57.00       213.17
  202.15        2950.75           1232          60.00       226.24
  202.18        2951.00           1236          55.00       204.45
  202.21        2951.25           1239          55.00       204.45
  202.25        2951.50           1242          61.00       230.60
  202.28        2951.75           1246          49.00       178.29
  202.31        2952.00           1249          52.00       191.37
  202.34        2952.25           1252          53.00       195.73
  202.37        2952.50           1256          53.00       195.73
  202.40        2952.75           1259          56.00       208.81
  202.43        2953.00           1262          54.00       200.09
  202.46        2953.25           1266          53.00       195.73
  202.49        2953.50           1269          51.00       187.01
  202.52        2953.75           1272          57.00       213.17
  202.56        2954.00           1276          52.00       191.37
  202.59        2954.25           1279          53.00       195.73
  202.62        2954.50           1282          59.00       221.88
  202.65        2954.75           1286          59.00       221.88
  202.68        2955.00           1289          54.00       200.09
  202.71        2955.25           1292          61.00       230.60
  202.74        2955.50           1296          57.00       213.17
  202.77        2955.75           1299          45.00       160.86
  202.80        2956.00           1302          50.00       182.65
  202.84        2956.25           1306          55.00       204.45
  202.87        2956.50           1309          49.00       178.29
  202.90        2956.75           1312          57.00       213.17
  202.93        2957.00           1316          52.00       191.37
  202.96        2957.25           1319          56.00       208.81
  202.99        2957.50           1322          59.00       221.88
  203.02        2957.75           1326          57.00       213.17
  203.05        2958.00           1329          55.00       204.45
  203.08        2958.25           1332          58.00       217.53
  203.11        2958.50           1336          52.00       191.37
  203.14        2958.75           1339          50.00       182.65
  203.17        2959.00           1342          48.00       173.93
  203.21        2959.25           1346          63.00       239.32
  203.24        2959.50           1349          62.00       234.96
  203.27        2959.75           1352          67.00       256.76
  203.30        2960.00           1356          85.00       335.23
  203.33        2960.25           1359         126.00       513.96
  203.36        2960.50           1362         138.00       566.27
  203.39        2960.75           1366         199.00       832.19
  203.42        2961.00           1369         202.00       845.27
  203.45        2961.25           1372         235.00       989.13
  203.48        2961.50           1376         285.00      1207.11
  203.51        2961.75           1379         391.00      1669.22
  203.55        2962.00           1382         679.00      2924.84
  203.58        2962.25           1386        1791.00      7773.83
  203.61        2962.50           1389        2976.00     12942.69
  203.64        2962.75           1392        4136.00     18004.06
  203.67        2963.00           1396        5636.00     24551.21
  203.70        2963.25           1399        6846.00     29834.45
  203.73        2963.50           1402        8107.00     35342.16
  203.76        2963.75           1406        9660.00     42127.76
  203.79        2964.00           1409       11063.00     48260.32
  203.82        2964.25           1412       12295.00     53647.31
  203.85        2964.50           1416       14005.00     61127.26
  203.89        2964.75           1419       15155.00     66159.52
  203.92        2965.00           1422       16482.00     71968.21
  203.95        2965.25           1426       18052.00     78843.21
  203.98        2965.50           1429       19278.00     84213.81
  204.01        2965.75           1432       20388.00     89077.75
  204.04        2966.00           1436       21942.00     95889.66
  204.07        2966.25           1439       23132.00    101107.90
  204.10        2966.50           1442       24131.00    105489.80
  204.13        2966.75           1446       25650.00    112154.90
  204.17        2967.00           1449       26397.00    115433.50
  204.20        2967.25           1452       26479.00    115793.50
  204.23        2967.50           1456       26381.00    115363.30
  204.26        2967.75           1459       26465.00    115732.00
  204.29        2968.00           1462       26474.00    115771.50
  204.32        2968.25           1466       25768.00    112672.70
  204.35        2968.50           1469       24991.00    109263.00
  204.38        2968.75           1472       23943.00    104665.10
  204.41        2969.00           1476       22417.00     97972.38
  204.45        2969.25           1479       21127.00     92316.78
  204.48        2969.50           1482       19920.00     87026.83
  204.51        2969.75           1486       18319.00     80012.68
  204.54        2970.00           1489       16974.00     74122.36
  204.57        2970.25           1492       15876.00     69315.31
  204.60        2970.50           1496       14243.00     62168.59
  204.63        2970.75           1499       12923.00     56393.94
  204.66        2971.00           1502       11713.00     51102.26
  204.69        2971.25           1506       10109.00     44090.10
  204.73        2971.50           1509        8778.00     38273.65
  204.76        2971.75           1513        7298.00     31808.46
  204.79        2972.00           1516        6164.00     26856.42
  204.82        2972.25           1519        4910.00     21382.06
  204.85        2972.50           1523        3301.00     14360.59
  204.88        2972.75           1526        2102.00      9130.22
  204.91        2973.00           1529        1072.00      4638.40
  204.94        2973.25           1533         405.00      1730.26
  204.97        2973.50           1536         274.00      1159.15
  205.01        2973.75           1539         237.00       997.85
  205.04        2974.00           1543         185.00       771.16
  205.07        2974.25           1546         156.00       644.74
  205.10        2974.50           1549         115.00       466.00
  205.13        2974.75           1553          87.00       343.94
  205.16        2975.00           1556          67.00       256.76
  205.19        2975.25           1559          53.00       195.73
  205.22        2975.50           1563          58.00       217.53
  205.25        2975.75           1566          60.00       226.24
  205.28        2976.00           1569          51.00       187.01
  205.31        2976.25           1573          55.00       204.45
  205.35        2976.50           1576          54.00       200.09
  205.38        2976.75           1579          49.00       178.29
  205.41        2977.00           1583          48.00       173.93
  205.44        2977.25           1586          56.00       208.81
  205.47        2977.50           1590          48.00       173.93
  205.50        2977.75           1593          56.00       208.81
  205.53        2978.00           1596          54.00       200.09
  205.56        2978.25           1600          53.00       195.73
  205.59        2978.50           1603          51.00       187.01
  205.62        2978.75           1606          46.00       165.21
  205.66        2979.00           1610          51.00       187.01
  205.69        2979.25           1613          53.00       195.73
  205.72        2979.50           1616          47.00       169.57
  205.75        2979.75           1620          42.00       147.78
  205.78        2980.00           1623          54.00       200.09
  205.81        2980.25           1626          60.00       226.24
  205.84        2980.50           1630          51.00       187.01
  205.87        2980.75           1633          60.00       226.24
  205.90        2981.00           1637          51.00       187.01
  205.93        2981.25           1640          52.00       191.37
  205.96        2981.50           1643          56.00       208.81
  205.99        2981.75           1647          54.00       200.09
  206.03        2982.00           1650          48.00       173.93
  206.06        2982.25           1653          55.00       204.45
  206.09        2982.50           1657          45.00       160.86
  206.12        2982.75           1660          44.00       156.50
  206.15        2983.00           1663          47.00       169.57
  206.18        2983.25           1667          48.00       173.93
  206.21        2983.50           1670          54.00       200.09
  206.24        2983.75           1673          49.00       178.29
  206.27        2984.00           1677          51.00       187.01
HS scan finished at 03:26:29
end
************************************************************
  HS Scan of (1) Internal mercury lamp
************************************************************
Integration time is 0.2294 seconds per sample
dh160319Manchester 53.47 2.23 2.804185pr1000
************************************************************
Dead Time -------------------------  3E-08 
Number of Cycles Used -------------  4 
Starting Wavelength (Angstroms) ---  2950 
Final Wavelength (Angstoms) -------  2984 
Wavelength Increment (Angstroms) --  .25 
Filter Wheel #1 Position ---------- (1) Ground quartz diffuser (ND=2.32)
Filter Wheel #2 Position ---------- (1) Neutral Density 0.494



************************************************************
HS scan start time = 19:12:06
Dark Count =  5.6 


Time (GMT)  Wavelength (Ang)  Step Number  Raw Counts  Counts/Second

 1152.47        2950.00           1222          59.00       232.78
 1152.54        2950.25           1226          50.00       193.55
 1152.57        2950.50           1229          46.00       176.11
 1152.60        2950.75           1232          48.00       184.83
 1152.63        2951.00           1236          57.00       224.06
 1152.66        2951.25           1239          53.00       206.63
 1152.69        2951.50           1242          54.00       210.99
 1152.72        2951.75           1246          54.00       210.99
 1152.76        2952.00           1249          58.00       228.42
 1152.79        2952.25           1252          55.00       215.35
 1152.82        2952.50           1256          54.00       210.99
 1152.85        2952.75           1259          49.00       189.19
 1152.88        2953.00           1262          54.00       210.99
 1152.91        2953.25           1266          55.00       215.35
 1152.94        2953.50           1269          49.00       189.19
 1152.97        2953.75           1272          49.00       189.19
 1153.00        2954.00           1276          53.00       206.63
 1153.03        2954.25           1279          49.00       189.19
 1153.06        2954.50           1282          55.00       215.35
 1153.09        2954.75           1286          51.00       197.91
 1153.12        2955.00           1289          51.00       197.91
 1153.15        2955.25           1292          62.00       245.86
 1153.18        2955.50           1296          48.00       184.83
 1153.22        2955.75           1299          55.00       215.35
 1153.25        2956.00           1302          52.00       202.27
 1153.28        2956.25           1306          50.00       193.55
 1153.31        2956.50           1309          63.00       250.22
 1153.34        2956.75           1312          56.00       219.71
 1153.37        2957.00           1316          49.00       189.19
 1153.40        2957.25           1319          51.00       197.91
 1153.43        2957.50           1322          54.00       210.99
 1153.46        2957.75           1326          65.00       258.94
 1153.49        2958.00           1329          60.00       237.14
 1153.52        2958.25           1332          55.00       215.35
 1153.56        2958.50           1336          55.00       215.35
 1153.59        2958.75           1339          50.00       193.55
 1153.62        2959.00           1342          59.00       232.78
 1153.65        2959.25           1346          52.00       202.27
 1153.68        2959.50           1349          57.00       224.06
 1153.71        2959.75           1352          79.00       319.97
 1153.74        2960.00           1356          84.00       341.76
 1153.77        2960.25           1359         121.00       503.06
 1153.80        2960.50           1362         128.00       533.57
 1153.83        2960.75           1366         174.00       734.11
 1153.86        2961.00           1369         213.00       904.12
 1153.89        2961.25           1372         241.00      1026.19
 1153.93        2961.50           1376         294.00      1257.24
 1153.96        2961.75           1379         380.00      1632.16
 1153.99        2962.00           1382         799.00      3458.95
 1154.02        2962.25           1386        2041.00      8875.08
 1154.05        2962.50           1389        3082.00     13416.04
 1154.08        2962.75           1392        4246.00     18495.00
 1154.11        2963.00           1396        5762.00     25112.20
 1154.14        2963.25           1399        6995.00     30496.07
 1154.17        2963.50           1402        8230.00     35890.41
 1154.20        2963.75           1406       10109.00     44101.03
 1154.23        2964.00           1409       11157.00     48682.21
 1154.27        2964.25           1412       12481.00     54471.68
 1154.30        2964.50           1416       13959.00     60936.93
 1154.33        2964.75           1419       15247.00     66573.10
 1154.36        2965.00           1422       16331.00     71318.08
 1154.39        2965.25           1426       18199.00     79498.00
 1154.42        2965.50           1429       19435.00     84912.62
 1154.45        2965.75           1432       20718.00     90535.02
 1154.48        2966.00           1436       22290.00     97426.46
 1154.52        2966.25           1439       23288.00    101803.00
 1154.55        2966.50           1442       24579.00    107466.20
 1154.58        2966.75           1446       25962.00    113535.10
 1154.61        2967.00           1449       26362.00    115290.80
 1154.64        2967.25           1452       26545.00    116094.10
 1154.67        2967.50           1456       26354.00    115255.70
 1154.70        2967.75           1459       26695.00    116752.60
 1154.73        2968.00           1462       26548.00    116107.30
 1154.76        2968.25           1466       25793.00    112793.40
 1154.80        2968.50           1469       24852.00    108664.10
 1154.83        2968.75           1472       23755.00    103851.40
 1154.86        2969.00           1476       22357.00     97720.24
 1154.89        2969.25           1479       21215.00     92713.50
 1154.92        2969.50           1482       19856.00     86757.34
 1154.95        2969.75           1486       18401.00     80382.80
 1154.98        2970.00           1489       17050.00     74466.09
 1155.01        2970.25           1492       15859.00     69251.84
 1155.04        2970.50           1496       14336.00     62586.46
 1155.08        2970.75           1499       13125.00     57288.44
 1155.11        2971.00           1502       11823.00     51594.19
 1155.14        2971.25           1506        9986.00     43563.44
 1155.17        2971.50           1509        8816.00     38450.61
 1155.20        2971.75           1513        7250.00     31609.74
 1155.23        2972.00           1516        5919.00     25797.64
 1155.26        2972.25           1519        4666.00     20328.00
 1155.29        2972.50           1523        3136.00     13651.62
 1155.32        2972.75           1526        1939.00      8430.21
 1155.36        2973.00           1529        1014.00      4396.40
 1155.39        2973.25           1533         372.00      1597.29
 1155.42        2973.50           1536         268.00      1143.89
 1155.45        2973.75           1539         235.00      1000.03
 1155.48        2974.00           1543         207.00       877.97
 1155.51        2974.25           1546         142.00       594.61
 1155.54        2974.50           1549         118.00       489.98
 1155.57        2974.75           1553          84.00       341.76
 1155.60        2975.00           1556          73.00       293.81
 1155.63        2975.25           1559          54.00       210.99
 1155.67        2975.50           1563          49.00       189.19
 1155.70        2975.75           1566          58.00       228.42
 1155.73        2976.00           1569          57.00       224.06
 1155.76        2976.25           1573          48.00       184.83
 1155.79        2976.50           1576          51.00       197.91
 1155.82        2976.75           1579          56.00       219.71
 1155.85        2977.00           1583          56.00       219.71
 1155.88        2977.25           1586          56.00       219.71
 1155.91        2977.50           1590          48.00       184.83
 1155.94        2977.75           1593          55.00       215.35
 1155.97        2978.00           1596          51.00       197.91
 1156.01        2978.25           1600          58.00       228.42
 1156.04        2978.50           1603          56.00       219.71
 1156.07        2978.75           1606          47.00       180.47
 1156.10        2979.00           1610          51.00       197.91
 1156.13        2979.25           1613          54.00       210.99
 1156.16        2979.50           1616          56.00       219.71
 1156.19        2979.75           1620          54.00       210.99
 1156.22        2980.00           1623          48.00       184.83
 1156.25        2980.25           1626          45.00       171.75
 1156.28        2980.50           1630          59.00       232.78
 1156.31        2980.75           1633          48.00       184.83
 1156.34        2981.00           1637          52.00       202.27
 1156.38        2981.25           1640          57.00       224.06
 1156.41        2981.50           1643          46.00       176.11
 1156.44        2981.75           1647          47.00       180.47
 1156.47        2982.00           1650          52.00       202.27
 1156.50        2982.25           1653          47.00       180.47
