************************************************************
  HS Scan of (1) Internal mercury lamp
************************************************************
Integration time is 0.2294 seconds per sample
dh150317Manchester 53.47 2.23 2.804185pr1000
************************************************************
Dead Time -------------------------  3E-08 
Number of Cycles Used -------------  4 
Starting Wavelength (Angstroms) ---  2950 
Final Wavelength (Angstoms) -------  2984 
Wavelength Increment (Angstroms) --  .25 
Filter Wheel #1 Position ---------- (1) Ground quartz diffuser (ND=2.32)
Filter Wheel #2 Position ---------- (1) Neutral Density 0.494



************************************************************
HS scan start time = 03:22:04
Dark Count =  6.4 


Time (GMT)  Wavelength (Ang)  Step Number  Raw Counts  Counts/Second

  202.44        2950.00           1222          49.00       185.70
  202.51        2950.25           1226          41.00       150.83
  202.54        2950.50           1229          48.00       181.34
  202.57        2950.75           1232          46.00       172.63
  202.60        2951.00           1236          43.00       159.55
  202.63        2951.25           1239          46.00       172.63
  202.66        2951.50           1242          57.00       220.58
  202.69        2951.75           1246          44.00       163.91
  202.72        2952.00           1249          48.00       181.34
  202.75        2952.25           1252          45.00       168.27
  202.79        2952.50           1256          43.00       159.55
  202.82        2952.75           1259          47.00       176.98
  202.85        2953.00           1262          47.00       176.98
  202.88        2953.25           1266          42.00       155.19
  202.91        2953.50           1269          48.00       181.34
  202.94        2953.75           1272          52.00       198.78
  202.97        2954.00           1276          47.00       176.98
  203.00        2954.25           1279          53.00       203.14
  203.03        2954.50           1282          47.00       176.98
  203.06        2954.75           1286          54.00       207.50
  203.09        2955.00           1289          50.00       190.06
  203.13        2955.25           1292          54.00       207.50
  203.16        2955.50           1296          43.00       159.55
  203.19        2955.75           1299          46.00       172.63
  203.22        2956.00           1302          51.00       194.42
  203.25        2956.25           1306          45.00       168.27
  203.28        2956.50           1309          49.00       185.70
  203.31        2956.75           1312          57.00       220.58
  203.34        2957.00           1316          41.00       150.83
  203.37        2957.25           1319          41.00       150.83
  203.40        2957.50           1322          47.00       176.98
  203.43        2957.75           1326          50.00       190.06
  203.46        2958.00           1329          48.00       181.34
  203.49        2958.25           1332          42.00       155.19
  203.52        2958.50           1336          48.00       181.34
  203.55        2958.75           1339          44.00       163.91
  203.58        2959.00           1342          44.00       163.91
  203.61        2959.25           1346          58.00       224.94
  203.64        2959.50           1349          47.00       176.98
  203.68        2959.75           1352          65.00       255.45
  203.71        2960.00           1356          83.00       333.92
  203.74        2960.25           1359         108.00       442.90
  203.77        2960.50           1362         148.00       617.27
  203.80        2960.75           1366         201.00       848.32
  203.83        2961.00           1369         260.00      1105.53
  203.86        2961.25           1372         295.00      1258.11
  203.89        2961.50           1376         357.00      1528.41
  203.92        2961.75           1379         476.00      2047.21
  203.95        2962.00           1382         901.00      3900.20
  203.99        2962.25           1386        2351.00     10223.71
  204.02        2962.50           1389        3934.00     17129.99
  204.05        2962.75           1392        5526.00     24078.42
  204.08        2963.00           1396        7780.00     33921.17
  204.11        2963.25           1399        9416.00     41068.88
  204.14        2963.50           1402       11076.00     48324.59
  204.17        2963.75           1406       13128.00     57298.06
  204.20        2964.00           1409       14888.00     64998.46
  204.23        2964.25           1412       16570.00     72360.93
  204.26        2964.50           1416       18817.00     82201.59
  204.29        2964.75           1419       20761.00     90719.98
  204.33        2965.00           1422       22250.00     97247.56
  204.36        2965.25           1426       24669.00    107857.60
  204.39        2965.50           1429       26312.00    115067.90
  204.42        2965.75           1432       27798.00    121591.80
  204.45        2966.00           1436       30035.00    131417.70
  204.48        2966.25           1439       31628.00    138418.40
  204.51        2966.50           1442       33060.00    144714.10
  204.54        2966.75           1446       34963.00    153084.20
  204.57        2967.00           1449       35657.00    156137.70
  204.61        2967.25           1452       35893.00    157176.20
  204.64        2967.50           1456       35909.00    157246.60
  204.67        2967.75           1459       35957.00    157457.80
  204.70        2968.00           1462       35850.00    156987.00
  204.73        2968.25           1466       35271.00    154439.30
  204.76        2968.50           1469       33718.00    147607.70
  204.79        2968.75           1472       32260.00    141196.70
  204.82        2969.00           1476       30145.00    131901.00
  204.85        2969.25           1479       28623.00    125214.90
  204.89        2969.50           1482       26961.00    117916.80
  204.92        2969.75           1486       24706.00    108019.90
  204.95        2970.00           1489       23248.00    101624.10
  204.98        2970.25           1492       21632.00     94538.02
  205.01        2970.50           1496       19429.00     84882.84
  205.04        2970.75           1499       17718.00     77387.83
  205.07        2971.00           1502       16066.00     70154.48
  205.10        2971.25           1506       13772.00     60115.29
  205.13        2971.50           1509       12012.00     52417.15
  205.16        2971.75           1513        9870.00     43052.96
  205.19        2972.00           1516        8362.00     36463.58
  205.22        2972.25           1519        6684.00     29134.43
  205.26        2972.50           1523        4534.00     19748.40
  205.29        2972.75           1526        2997.00     13041.72
  205.32        2973.00           1529        1645.00      7144.51
  205.35        2973.25           1533         592.00      2552.94
  205.38        2973.50           1536         380.00      1628.68
  205.41        2973.75           1539         323.00      1380.18
  205.44        2974.00           1543         262.00      1114.25
  205.47        2974.25           1546         220.00       931.15
  205.51        2974.50           1549         172.00       721.90
  205.54        2974.75           1553         107.00       438.54
  205.57        2975.00           1556          84.00       338.28
  205.60        2975.25           1559          71.00       281.61
  205.63        2975.50           1563          46.00       172.63
  205.66        2975.75           1566          53.00       203.14
  205.69        2976.00           1569          44.00       163.91
  205.72        2976.25           1573          50.00       190.06
  205.75        2976.50           1576          48.00       181.34
  205.78        2976.75           1579          46.00       172.63
  205.81        2977.00           1583          45.00       168.27
  205.84        2977.25           1586          51.00       194.42
  205.87        2977.50           1590          43.00       159.55
  205.91        2977.75           1593          46.00       172.63
  205.94        2978.00           1596          43.00       159.55
  205.97        2978.25           1600          48.00       181.34
  206.00        2978.50           1603          46.00       172.63
  206.03        2978.75           1606          47.00       176.98
  206.06        2979.00           1610          44.00       163.91
  206.09        2979.25           1613          45.00       168.27
  206.12        2979.50           1616          46.00       172.63
  206.15        2979.75           1620          47.00       176.98
  206.18        2980.00           1623          45.00       168.27
  206.21        2980.25           1626          45.00       168.27
  206.24        2980.50           1630          44.00       163.91
  206.28        2980.75           1633          50.00       190.06
  206.31        2981.00           1637          46.00       172.63
  206.34        2981.25           1640          41.00       150.83
  206.37        2981.50           1643          46.00       172.63
  206.40        2981.75           1647          41.00       150.83
  206.43        2982.00           1650          40.00       146.47
  206.46        2982.25           1653          43.00       159.55
  206.49        2982.50           1657          44.00       163.91
  206.52        2982.75           1660          53.00       203.14
  206.55        2983.00           1663          47.00       176.98
  206.58        2983.25           1667          39.00       142.11
  206.62        2983.50           1670          43.00       159.55
  206.65        2983.75           1673          43.00       159.55
  206.68        2984.00           1677          42.00       155.19
HS scan finished at 03:26:54
end
************************************************************
  HS Scan of (1) Internal mercury lamp
************************************************************
Integration time is 0.2294 seconds per sample
dh150317Manchester 53.47 2.23 2.804185pr1000
************************************************************
Dead Time -------------------------  3E-08 
Number of Cycles Used -------------  4 
Starting Wavelength (Angstroms) ---  2950 
Final Wavelength (Angstoms) -------  2984 
Wavelength Increment (Angstroms) --  .25 
Filter Wheel #1 Position ---------- (1) Ground quartz diffuser (ND=2.32)
Filter Wheel #2 Position ---------- (1) Neutral Density 0.494



************************************************************
HS scan start time = 19:12:04
Dark Count =  5.9 


Time (GMT)  Wavelength (Ang)  Step Number  Raw Counts  Counts/Second

 1152.43        2950.00           1222          46.00       174.80
 1152.50        2950.25           1226          50.00       192.24
 1152.53        2950.50           1229          43.00       161.73
 1152.56        2950.75           1232          42.00       157.37
 1152.59        2951.00           1236          44.00       166.09
 1152.62        2951.25           1239          55.00       214.04
 1152.65        2951.50           1242          43.00       161.73
 1152.68        2951.75           1246          37.00       135.57
 1152.71        2952.00           1249          52.00       200.96
 1152.74        2952.25           1252          46.00       174.80
 1152.77        2952.50           1256          48.00       183.52
 1152.81        2952.75           1259          38.00       139.93
 1152.84        2953.00           1262          46.00       174.80
 1152.87        2953.25           1266          45.00       170.45
 1152.90        2953.50           1269          43.00       161.73
 1152.93        2953.75           1272          49.00       187.88
 1152.96        2954.00           1276          51.00       196.60
 1152.99        2954.25           1279          41.00       153.01
 1153.02        2954.50           1282          49.00       187.88
 1153.05        2954.75           1286          49.00       187.88
 1153.08        2955.00           1289          48.00       183.52
 1153.11        2955.25           1292          47.00       179.16
 1153.15        2955.50           1296          41.00       153.01
 1153.18        2955.75           1299          45.00       170.45
 1153.21        2956.00           1302          53.00       205.32
 1153.24        2956.25           1306          49.00       187.88
 1153.27        2956.50           1309          48.00       183.52
 1153.30        2956.75           1312          42.00       157.37
 1153.33        2957.00           1316          42.00       157.37
 1153.36        2957.25           1319          45.00       170.45
 1153.39        2957.50           1322          47.00       179.16
 1153.42        2957.75           1326          44.00       166.09
 1153.45        2958.00           1329          45.00       170.45
 1153.48        2958.25           1332          40.00       148.65
 1153.51        2958.50           1336          46.00       174.80
 1153.54        2958.75           1339          44.00       166.09
 1153.58        2959.00           1342          50.00       192.24
 1153.61        2959.25           1346          52.00       200.96
 1153.64        2959.50           1349          55.00       214.04
 1153.67        2959.75           1352          69.00       275.07
 1153.70        2960.00           1356          89.00       362.25
 1153.73        2960.25           1359         109.00       449.44
 1153.76        2960.50           1362         158.00       663.05
 1153.79        2960.75           1366         208.00       881.02
 1153.82        2961.00           1369         250.00      1064.11
 1153.85        2961.25           1372         295.00      1260.29
 1153.88        2961.50           1376         379.00      1626.50
 1153.92        2961.75           1379         546.00      2354.57
 1153.95        2962.00           1382        1098.00      4761.36
 1153.98        2962.25           1386        2864.00     12463.68
 1154.01        2962.50           1389        4551.00     19824.78
 1154.04        2962.75           1392        6094.00     26560.39
 1154.07        2963.00           1396        8224.00     35862.89
 1154.10        2963.25           1399        9894.00     43160.03
 1154.13        2963.50           1402       11454.00     49979.42
 1154.16        2963.75           1406       13608.00     59400.01
 1154.19        2964.00           1409       15261.00     66633.07
 1154.22        2964.25           1412       17014.00     74307.13
 1154.26        2964.50           1416       19275.00     84210.29
 1154.29        2964.75           1419       21079.00     92116.02
 1154.32        2965.00           1422       22686.00     99161.60
 1154.35        2965.25           1426       25027.00    109430.60
 1154.38        2965.50           1429       26795.00    117190.30
 1154.41        2965.75           1432       28356.00    124044.50
 1154.44        2966.00           1436       30563.00    133740.00
 1154.47        2966.25           1439       32085.00    140429.50
 1154.50        2966.50           1442       33557.00    146901.90
 1154.53        2966.75           1446       34865.00    152655.20
 1154.57        2967.00           1449       35227.00    154247.90
 1154.60        2967.25           1452       35590.00    155845.10
 1154.63        2967.50           1456       35440.00    155185.10
 1154.66        2967.75           1459       35447.00    155215.90
 1154.69        2968.00           1462       35081.00    153605.50
 1154.72        2968.25           1466       34207.00    149760.70
 1154.75        2968.50           1469       32820.00    143661.00
 1154.78        2968.75           1472       30970.00    135528.60
 1154.81        2969.00           1476       29070.00    127180.50
 1154.84        2969.25           1479       27217.00    119043.00
 1154.87        2969.50           1482       25842.00    113007.10
 1154.91        2969.75           1486       23381.00    102209.60
 1154.94        2970.00           1489       21808.00     95311.81
 1154.97        2970.25           1492       20186.00     88202.12
 1155.00        2970.50           1496       18292.00     79904.04
 1155.03        2970.75           1499       16636.00     72652.07
 1155.06        2971.00           1502       14743.00     64366.11
 1155.09        2971.25           1506       12572.00     54868.36
 1155.12        2971.50           1509       10803.00     47133.30
 1155.15        2971.75           1513        8571.00     37378.86
 1155.19        2972.00           1516        7194.00     31363.85
 1155.22        2972.25           1519        5490.00     23923.44
 1155.25        2972.50           1523        3512.00     15290.80
 1155.28        2972.75           1526        2074.00      9017.70
 1155.31        2973.00           1529         909.00      3937.26
 1155.34        2973.25           1533         461.00      1983.99
 1155.37        2973.50           1536         349.00      1495.71
 1155.40        2973.75           1539         289.00      1234.13
 1155.43        2974.00           1543         239.00      1016.16
 1155.46        2974.25           1546         188.00       793.83
 1155.49        2974.50           1549         122.00       506.11
 1155.53        2974.75           1553          87.00       353.53
 1155.56        2975.00           1556          65.00       257.63
 1155.59        2975.25           1559          59.00       231.48
 1155.62        2975.50           1563          44.00       166.09
 1155.65        2975.75           1566          48.00       183.52
 1155.68        2976.00           1569          46.00       174.80
 1155.71        2976.25           1573          46.00       174.80
 1155.74        2976.50           1576          40.00       148.65
 1155.77        2976.75           1579          41.00       153.01
 1155.80        2977.00           1583          45.00       170.45
 1155.83        2977.25           1586          53.00       205.32
 1155.87        2977.50           1590          40.00       148.65
 1155.90        2977.75           1593          48.00       183.52
 1155.93        2978.00           1596          54.00       209.68
 1155.96        2978.25           1600          44.00       166.09
 1155.99        2978.50           1603          49.00       187.88
 1156.02        2978.75           1606          42.00       157.37
 1156.05        2979.00           1610          45.00       170.45
 1156.08        2979.25           1613          47.00       179.16
 1156.11        2979.50           1616          47.00       179.16
 1156.14        2979.75           1620          50.00       192.24
 1156.17        2980.00           1623          45.00       170.45
 1156.20        2980.25           1626          48.00       183.52
 1156.24        2980.50           1630          45.00       170.45
 1156.27        2980.75           1633          47.00       179.16
 1156.30        2981.00           1637          47.00       179.16
 1156.33        2981.25           1640          48.00       183.52
 1156.36        2981.50           1643          43.00       161.73
 1156.39        2981.75           1647          46.00       174.80
 1156.42        2982.00           1650          49.00       187.88
 1156.45        2982.25           1653          43.00       161.73
