************************************************************
  HS Scan of (1) Internal mercury lamp
************************************************************
Integration time is 0.2294 seconds per sample
dh040419Manchester 53.47 2.23 2.804185pr1000
************************************************************
Dead Time -------------------------  3E-08 
Number of Cycles Used -------------  4 
Starting Wavelength (Angstroms) ---  2950 
Final Wavelength (Angstoms) -------  2984 
Wavelength Increment (Angstroms) --  .25 
Filter Wheel #1 Position ---------- (1) Ground quartz diffuser (ND=2.32)
Filter Wheel #2 Position ---------- (1) Neutral Density 0.494



************************************************************
HS scan start time = 01:40:49
Dark Count =  7.2 


Time (GMT)  Wavelength (Ang)  Step Number  Raw Counts  Counts/Second

  101.19        2950.00           1222          61.00       234.53
  101.26        2950.25           1226          52.00       195.29
  101.29        2950.50           1229          56.00       212.73
  101.32        2950.75           1232          49.00       182.22
  101.35        2951.00           1236          60.00       230.17
  101.38        2951.25           1239          50.00       186.57
  101.42        2951.50           1242          57.00       217.09
  101.45        2951.75           1246          56.00       212.73
  101.48        2952.00           1249          51.00       190.93
  101.51        2952.25           1252          51.00       190.93
  101.54        2952.50           1256          54.00       204.01
  101.57        2952.75           1259          53.00       199.65
  101.60        2953.00           1262          46.00       169.14
  101.63        2953.25           1266          59.00       225.81
  101.66        2953.50           1269          53.00       199.65
  101.69        2953.75           1272          57.00       217.09
  101.73        2954.00           1276          53.00       199.65
  101.76        2954.25           1279          57.00       217.09
  101.79        2954.50           1282          62.00       238.89
  101.82        2954.75           1286          57.00       217.09
  101.85        2955.00           1289          58.00       221.45
  101.88        2955.25           1292          57.00       217.09
  101.91        2955.50           1296          56.00       212.73
  101.94        2955.75           1299          54.00       204.01
  101.97        2956.00           1302          63.00       243.25
  102.00        2956.25           1306          49.00       182.22
  102.04        2956.50           1309          51.00       190.93
  102.07        2956.75           1312          56.00       212.73
  102.10        2957.00           1316          60.00       230.17
  102.13        2957.25           1319          55.00       208.37
  102.16        2957.50           1322          55.00       208.37
  102.19        2957.75           1326          52.00       195.29
  102.22        2958.00           1329          64.00       247.60
  102.25        2958.25           1332          56.00       212.73
  102.28        2958.50           1336          54.00       204.01
  102.31        2958.75           1339          51.00       190.93
  102.34        2959.00           1342          54.00       204.01
  102.38        2959.25           1346          61.00       234.53
  102.41        2959.50           1349          64.00       247.60
  102.44        2959.75           1352          74.00       291.20
  102.47        2960.00           1356          94.00       378.38
  102.50        2960.25           1359         132.00       544.04
  102.53        2960.50           1362         167.00       696.61
  102.56        2960.75           1366         204.00       857.91
  102.59        2961.00           1369         234.00       988.70
  102.62        2961.25           1372         272.00      1154.36
  102.65        2961.50           1376         326.00      1389.77
  102.68        2961.75           1379         522.00      2244.27
  102.72        2962.00           1382        1037.00      4489.71
  102.75        2962.25           1386        2520.00     10957.40
  102.78        2962.50           1389        3739.00     16275.60
  102.81        2962.75           1392        4821.00     20997.53
  102.84        2963.00           1396        6405.00     27912.64
  102.87        2963.25           1399        7739.00     33738.58
  102.90        2963.50           1402        8893.00     38780.05
  102.93        2963.75           1406       10679.00     46585.55
  102.96        2964.00           1409       11990.00     52317.45
  102.99        2964.25           1412       13174.00     57495.78
  103.03        2964.50           1416       14672.00     64049.72
  103.06        2964.75           1419       16066.00     70150.98
  103.09        2965.00           1422       17209.00     75155.31
  103.12        2965.25           1426       18749.00     81900.20
  103.15        2965.50           1429       20119.00     87902.83
  103.18        2965.75           1432       21407.00     93548.13
  103.21        2966.00           1436       23234.00    101559.20
  103.24        2966.25           1439       24495.00    107090.70
  103.28        2966.50           1442       25309.00    110662.30
  103.31        2966.75           1446       26525.00    115999.30
  103.34        2967.00           1449       26770.00    117074.80
  103.37        2967.25           1452       26906.00    117671.90
  103.40        2967.50           1456       26933.00    117790.40
  103.43        2967.75           1459       27059.00    118343.60
  103.46        2968.00           1462       26794.00    117180.20
  103.49        2968.25           1466       26010.00    113738.80
  103.52        2968.50           1469       24938.00    109034.40
  103.56        2968.75           1472       23750.00    103822.40
  103.59        2969.00           1476       22250.00     97244.06
  103.62        2969.25           1479       20898.00     91316.96
  103.65        2969.50           1482       19707.00     86097.43
  103.68        2969.75           1486       18118.00     79136.23
  103.71        2970.00           1489       16974.00     74126.30
  103.74        2970.25           1492       15661.00     68378.15
  103.77        2970.50           1496       14210.00     62028.13
  103.81        2970.75           1499       12858.00     56113.56
  103.84        2971.00           1502       11809.00     51525.97
  103.87        2971.25           1506       10080.00     43967.28
  103.90        2971.50           1509        8816.00     38443.61
  103.93        2971.75           1513        7080.00     30860.29
  103.96        2972.00           1516        5951.00     25930.36
  103.99        2972.25           1519        4758.00     20722.56
  104.02        2972.50           1523        3173.00     13806.07
  104.05        2972.75           1526        2085.00      9060.00
  104.08        2973.00           1529         969.00      4193.20
  104.11        2973.25           1533         371.00      1585.95
  104.14        2973.50           1536         270.00      1145.64
  104.17        2973.75           1539         211.00       888.43
  104.21        2974.00           1543         182.00       762.01
  104.24        2974.25           1546         128.00       526.60
  104.27        2974.50           1549         110.00       448.13
  104.30        2974.75           1553          72.00       282.48
  104.33        2975.00           1556          60.00       230.17
  104.36        2975.25           1559          54.00       204.01
  104.39        2975.50           1563          58.00       221.45
  104.42        2975.75           1566          52.00       195.29
  104.45        2976.00           1569          56.00       212.73
  104.48        2976.25           1573          48.00       177.86
  104.51        2976.50           1576          52.00       195.29
  104.54        2976.75           1579          56.00       212.73
  104.57        2977.00           1583          52.00       195.29
  104.61        2977.25           1586          52.00       195.29
  104.64        2977.50           1590          53.00       199.65
  104.67        2977.75           1593          45.00       164.78
  104.70        2978.00           1596          56.00       212.73
  104.73        2978.25           1600          56.00       212.73
  104.76        2978.50           1603          50.00       186.57
  104.79        2978.75           1606          50.00       186.57
  104.82        2979.00           1610          45.00       164.78
  104.85        2979.25           1613          49.00       182.22
  104.88        2979.50           1616          43.00       156.06
  104.92        2979.75           1620          47.00       173.50
  104.95        2980.00           1623          44.00       160.42
  104.98        2980.25           1626          53.00       199.65
  105.01        2980.50           1630          61.00       234.53
  105.04        2980.75           1633          49.00       182.22
  105.07        2981.00           1637          53.00       199.65
  105.10        2981.25           1640          49.00       182.22
  105.13        2981.50           1643          52.00       195.29
  105.16        2981.75           1647          52.00       195.29
  105.20        2982.00           1650          47.00       173.50
  105.23        2982.25           1653          51.00       190.93
  105.26        2982.50           1657          52.00       195.29
  105.29        2982.75           1660          58.00       221.45
  105.32        2983.00           1663          46.00       169.14
  105.35        2983.25           1667          53.00       199.65
  105.38        2983.50           1670          45.00       164.78
  105.41        2983.75           1673          48.00       177.86
  105.44        2984.00           1677          49.00       182.22
HS scan finished at 01:45:40
end
************************************************************
  HS Scan of (1) Internal mercury lamp
************************************************************
Integration time is 0.2294 seconds per sample
dh040419Manchester 53.47 2.23 2.804185pr1000
************************************************************
Dead Time -------------------------  3E-08 
Number of Cycles Used -------------  4 
Starting Wavelength (Angstroms) ---  2950 
Final Wavelength (Angstoms) -------  2984 
Wavelength Increment (Angstroms) --  .25 
Filter Wheel #1 Position ---------- (1) Ground quartz diffuser (ND=2.32)
Filter Wheel #2 Position ---------- (1) Neutral Density 0.494



************************************************************
HS scan start time = 19:42:17
Dark Count =  7 


Time (GMT)  Wavelength (Ang)  Step Number  Raw Counts  Counts/Second

 1182.65        2950.00           1222          57.00       217.96
 1182.71        2950.25           1226          55.00       209.24
 1182.74        2950.50           1229          51.00       191.81
 1182.77        2950.75           1232          53.00       200.52
 1182.80        2951.00           1236          55.00       209.24
 1182.84        2951.25           1239          62.00       239.76
 1182.87        2951.50           1242          50.00       187.45
 1182.90        2951.75           1246          57.00       217.96
 1182.93        2952.00           1249          56.00       213.60
 1182.96        2952.25           1252          60.00       231.04
 1182.99        2952.50           1256          56.00       213.60
 1183.02        2952.75           1259          55.00       209.24
 1183.05        2953.00           1262          49.00       183.09
 1183.08        2953.25           1266          53.00       200.52
 1183.11        2953.50           1269          60.00       231.04
 1183.14        2953.75           1272          50.00       187.45
 1183.18        2954.00           1276          56.00       213.60
 1183.21        2954.25           1279          53.00       200.52
 1183.24        2954.50           1282          52.00       196.17
 1183.27        2954.75           1286          62.00       239.76
 1183.30        2955.00           1289          50.00       187.45
 1183.33        2955.25           1292          53.00       200.52
 1183.36        2955.50           1296          55.00       209.24
 1183.39        2955.75           1299          59.00       226.68
 1183.42        2956.00           1302          50.00       187.45
 1183.46        2956.25           1306          56.00       213.60
 1183.49        2956.50           1309          54.00       204.88
 1183.52        2956.75           1312          50.00       187.45
 1183.55        2957.00           1316          56.00       213.60
 1183.58        2957.25           1319          55.00       209.24
 1183.61        2957.50           1322          44.00       161.29
 1183.64        2957.75           1326          59.00       226.68
 1183.67        2958.00           1329          54.00       204.88
 1183.71        2958.25           1332          50.00       187.45
 1183.74        2958.50           1336          65.00       252.84
 1183.77        2958.75           1339          54.00       204.88
 1183.80        2959.00           1342          53.00       200.52
 1183.83        2959.25           1346          55.00       209.24
 1183.86        2959.50           1349          60.00       231.04
 1183.89        2959.75           1352          69.00       270.27
 1183.92        2960.00           1356          79.00       313.87
 1183.95        2960.25           1359         113.00       462.08
 1183.98        2960.50           1362         133.00       549.27
 1184.02        2960.75           1366         179.00       749.80
 1184.05        2961.00           1369         206.00       867.50
 1184.08        2961.25           1372         268.00      1137.79
 1184.11        2961.50           1376         317.00      1351.41
 1184.14        2961.75           1379         445.00      1909.44
 1184.17        2962.00           1382         940.00      4067.63
 1184.20        2962.25           1386        2312.00     10050.98
 1184.23        2962.50           1389        3462.00     15067.84
 1184.26        2962.75           1392        4645.00     20230.24
 1184.29        2963.00           1396        6168.00     26878.68
 1184.33        2963.25           1399        7467.00     32551.39
 1184.36        2963.50           1402        8677.00     37837.17
 1184.39        2963.75           1406       10388.00     45314.40
 1184.42        2964.00           1409       11605.00     50634.84
 1184.45        2964.25           1412       12954.00     56534.34
 1184.48        2964.50           1416       14826.00     64724.51
 1184.51        2964.75           1419       15929.00     69552.13
 1184.54        2965.00           1422       17283.00     75480.24
 1184.57        2965.25           1426       18877.00     82461.82
 1184.61        2965.50           1429       20143.00     88008.87
 1184.64        2965.75           1432       21405.00     93540.24
 1184.67        2966.00           1436       22927.00    100213.70
 1184.70        2966.25           1439       24160.00    105621.90
 1184.73        2966.50           1442       25256.00    110430.60
 1184.76        2966.75           1446       26478.00    115793.90
 1184.79        2967.00           1449       26920.00    117734.20
 1184.82        2967.25           1452       26907.00    117677.10
 1184.86        2967.50           1456       26959.00    117905.40
 1184.89        2967.75           1459       26785.00    117141.50
 1184.92        2968.00           1462       26740.00    116944.00
 1184.95        2968.25           1466       25827.00    112936.50
 1184.98        2968.50           1469       24667.00    107846.20
 1185.01        2968.75           1472       23685.00    103538.20
 1185.04        2969.00           1476       22089.00     96539.00
 1185.07        2969.25           1479       20717.00     90524.50
 1185.10        2969.50           1482       19800.00     86505.81
 1185.14        2969.75           1486       18187.00     79439.31
 1185.17        2970.00           1489       16668.00     72787.38
 1185.20        2970.25           1492       15522.00     67770.60
 1185.23        2970.50           1496       13831.00     60370.80
 1185.26        2970.75           1499       12698.00     55414.63
 1185.29        2971.00           1502       11291.00     49261.94
 1185.32        2971.25           1506        9717.00     42381.66
 1185.35        2971.50           1509        8504.00     37081.33
 1185.38        2971.75           1513        7004.00     30529.26
 1185.42        2972.00           1516        5779.00     25180.31
 1185.45        2972.25           1519        4527.00     19715.23
 1185.48        2972.50           1523        2950.00     12834.06
 1185.51        2972.75           1526        1763.00      7656.51
 1185.54        2973.00           1529         771.00      3330.76
 1185.57        2973.25           1533         370.00      1582.46
 1185.60        2973.50           1536         276.00      1172.67
 1185.63        2973.75           1539         238.00      1007.01
 1185.66        2974.00           1543         209.00       880.58
 1185.70        2974.25           1546         154.00       640.81
 1185.73        2974.50           1549         130.00       536.19
 1185.76        2974.75           1553          87.00       348.74
 1185.79        2975.00           1556          72.00       283.35
 1185.82        2975.25           1559          61.00       235.40
 1185.85        2975.50           1563          46.00       170.01
 1185.88        2975.75           1566          45.00       165.65
 1185.91        2976.00           1569          60.00       231.04
 1185.94        2976.25           1573          57.00       217.96
 1185.97        2976.50           1576          53.00       200.52
 1186.01        2976.75           1579          58.00       222.32
 1186.04        2977.00           1583          55.00       209.24
 1186.07        2977.25           1586          57.00       217.96
 1186.10        2977.50           1590          51.00       191.81
 1186.13        2977.75           1593          52.00       196.17
 1186.16        2978.00           1596          48.00       178.73
 1186.19        2978.25           1600          47.00       174.37
 1186.22        2978.50           1603          47.00       174.37
 1186.25        2978.75           1606          53.00       200.52
 1186.28        2979.00           1610          45.00       165.65
 1186.32        2979.25           1613          56.00       213.60
 1186.35        2979.50           1616          58.00       222.32
 1186.38        2979.75           1620          51.00       191.81
 1186.41        2980.00           1623          52.00       196.17
 1186.44        2980.25           1626          47.00       174.37
 1186.47        2980.50           1630          50.00       187.45
 1186.50        2980.75           1633          54.00       204.88
 1186.53        2981.00           1637          52.00       196.17
 1186.56        2981.25           1640          50.00       187.45
 1186.59        2981.50           1643          43.00       156.93
 1186.62        2981.75           1647          49.00       183.09
 1186.65        2982.00           1650          43.00       156.93
 1186.68        2982.25           1653          50.00       187.45
