************************************************************
  HS Scan of (1) Internal mercury lamp
************************************************************
Integration time is 0.2294 seconds per sample
dh250517Manchester 53.47 2.23 2.857833pr1000
************************************************************
Dead Time -------------------------  3E-08 
Number of Cycles Used -------------  4 
Starting Wavelength (Angstroms) ---  2950 
Final Wavelength (Angstoms) -------  2984 
Wavelength Increment (Angstroms) --  .25 
Filter Wheel #1 Position ---------- (1) Ground quartz diffuser (ND=2.32)
Filter Wheel #2 Position ---------- (1) Neutral Density 0.494



************************************************************
HS scan start time = 01:29:21
Dark Count =  5.9 


Time (GMT)  Wavelength (Ang)  Step Number  Raw Counts  Counts/Second

   89.71        2950.00           1222          45.00       170.45
   89.78        2950.25           1226          51.00       196.60
   89.81        2950.50           1229          46.00       174.80
   89.84        2950.75           1232          47.00       179.16
   89.87        2951.00           1236          46.00       174.80
   89.90        2951.25           1239          41.00       153.01
   89.93        2951.50           1242          39.00       144.29
   89.97        2951.75           1246          53.00       205.32
   90.00        2952.00           1249          56.00       218.40
   90.03        2952.25           1252          48.00       183.52
   90.06        2952.50           1256          45.00       170.45
   90.09        2952.75           1259          53.00       205.32
   90.12        2953.00           1262          49.00       187.88
   90.15        2953.25           1266          44.00       166.09
   90.18        2953.50           1269          44.00       166.09
   90.21        2953.75           1272          43.00       161.73
   90.24        2954.00           1276          43.00       161.73
   90.27        2954.25           1279          51.00       196.60
   90.31        2954.50           1282          46.00       174.80
   90.34        2954.75           1286          37.00       135.57
   90.37        2955.00           1289          47.00       179.16
   90.40        2955.25           1292          42.00       157.37
   90.43        2955.50           1296          49.00       187.88
   90.46        2955.75           1299          41.00       153.01
   90.49        2956.00           1302          45.00       170.45
   90.52        2956.25           1306          47.00       179.16
   90.55        2956.50           1309          47.00       179.16
   90.58        2956.75           1312          56.00       218.40
   90.61        2957.00           1316          46.00       174.80
   90.64        2957.25           1319          53.00       205.32
   90.67        2957.50           1322          43.00       161.73
   90.70        2957.75           1326          40.00       148.65
   90.73        2958.00           1329          50.00       192.24
   90.76        2958.25           1332          42.00       157.37
   90.80        2958.50           1336          48.00       183.52
   90.83        2958.75           1339          50.00       192.24
   90.86        2959.00           1342          46.00       174.80
   90.89        2959.25           1346          52.00       200.96
   90.92        2959.50           1349          53.00       205.32
   90.95        2959.75           1352          75.00       301.22
   90.98        2960.00           1356         114.00       471.24
   91.01        2960.25           1359         159.00       667.41
   91.04        2960.50           1362         194.00       819.99
   91.07        2960.75           1366         259.00      1103.35
   91.10        2961.00           1369         285.00      1216.70
   91.13        2961.25           1372         341.00      1460.83
   91.16        2961.50           1376         476.00      2049.39
   91.20        2961.75           1379         813.00      3518.68
   91.23        2962.00           1382        1633.00      7094.36
   91.26        2962.25           1386        3538.00     15404.24
   91.29        2962.50           1389        5222.00     22753.54
   91.32        2962.75           1392        6822.00     29739.25
   91.35        2963.00           1396        9117.00     39764.49
   91.38        2963.25           1399       10731.00     46818.55
   91.41        2963.50           1402       12364.00     53958.68
   91.44        2963.75           1406       14840.00     64790.59
   91.47        2964.00           1409       16349.00     71395.56
   91.50        2964.25           1412       18289.00     79890.90
   91.53        2964.50           1416       20665.00     90301.41
   91.56        2964.75           1419       22522.00     98442.44
   91.60        2965.00           1422       24426.00    106793.70
   91.63        2965.25           1426       26485.00    115829.40
   91.66        2965.50           1429       28163.00    123196.90
   91.69        2965.75           1432       29999.00    131261.70
   91.72        2966.00           1436       32315.00    141440.70
   91.75        2966.25           1439       33904.00    148428.00
   91.78        2966.50           1442       35223.00    154230.30
   91.81        2966.75           1446       36669.00    160593.60
   91.85        2967.00           1449       37185.00    162864.90
   91.88        2967.25           1452       37174.00    162816.40
   91.91        2967.50           1456       37067.00    162345.40
   91.94        2967.75           1459       36996.00    162032.90
   91.97        2968.00           1462       36749.00    160945.70
   92.00        2968.25           1466       35485.00    155383.10
   92.03        2968.50           1469       34105.00    149312.10
   92.06        2968.75           1472       32576.00    142588.20
   92.09        2969.00           1476       30313.00    132641.40
   92.13        2969.25           1479       28866.00    126284.40
   92.16        2969.50           1482       26870.00    117519.50
   92.19        2969.75           1486       24769.00    108298.60
   92.22        2970.00           1489       22954.00    100336.90
   92.25        2970.25           1492       21215.00     92712.18
   92.28        2970.50           1496       19003.00     83018.62
   92.31        2970.75           1499       17310.00     75603.28
   92.34        2971.00           1502       15708.00     68589.56
   92.37        2971.25           1506       13279.00     57960.77
   92.41        2971.50           1509       11432.00     49883.23
   92.44        2971.75           1513        9115.00     39755.76
   92.47        2972.00           1516        7404.00     32281.03
   92.50        2972.25           1519        5911.00     25761.40
   92.53        2972.50           1523        3711.00     16159.10
   92.56        2972.75           1526        2232.00      9706.84
   92.59        2973.00           1529        1067.00      4626.19
   92.62        2973.25           1533         428.00      1840.12
   92.65        2973.50           1536         341.00      1460.83
   92.68        2973.75           1539         289.00      1234.13
   92.71        2974.00           1543         234.00       994.36
   92.74        2974.25           1546         173.00       728.44
   92.77        2974.50           1549         122.00       506.11
   92.81        2974.75           1553          86.00       349.18
   92.84        2975.00           1556          63.00       248.91
   92.87        2975.25           1559          49.00       187.88
   92.90        2975.50           1563          45.00       170.45
   92.93        2975.75           1566          54.00       209.68
   92.96        2976.00           1569          48.00       183.52
   92.99        2976.25           1573          44.00       166.09
   93.02        2976.50           1576          43.00       161.73
   93.05        2976.75           1579          53.00       205.32
   93.08        2977.00           1583          54.00       209.68
   93.11        2977.25           1586          49.00       187.88
   93.14        2977.50           1590          43.00       161.73
   93.18        2977.75           1593          41.00       153.01
   93.21        2978.00           1596          43.00       161.73
   93.24        2978.25           1600          49.00       187.88
   93.27        2978.50           1603          42.00       157.37
   93.30        2978.75           1606          49.00       187.88
   93.33        2979.00           1610          43.00       161.73
   93.36        2979.25           1613          44.00       166.09
   93.39        2979.50           1616          47.00       179.16
   93.42        2979.75           1620          42.00       157.37
   93.45        2980.00           1623          47.00       179.16
   93.48        2980.25           1626          46.00       174.80
   93.51        2980.50           1630          35.00       126.85
   93.54        2980.75           1633          43.00       161.73
   93.57        2981.00           1637          32.00       113.78
   93.60        2981.25           1640          43.00       161.73
   93.64        2981.50           1643          43.00       161.73
   93.67        2981.75           1647          38.00       139.93
   93.70        2982.00           1650          42.00       157.37
   93.73        2982.25           1653          47.00       179.16
   93.76        2982.50           1657          50.00       192.24
   93.79        2982.75           1660          42.00       157.37
   93.82        2983.00           1663          44.00       166.09
   93.85        2983.25           1667          42.00       157.37
   93.88        2983.50           1670          46.00       174.80
   93.91        2983.75           1673          37.00       135.57
   93.94        2984.00           1677          48.00       183.52
HS scan finished at 01:34:09
end
