************************************************************
  HS Scan of (1) Internal mercury lamp
************************************************************
Integration time is 0.2294 seconds per sample
dh130619Manchester 53.47 2.23 2.804185pr1000
************************************************************
Dead Time -------------------------  3E-08 
Number of Cycles Used -------------  4 
Starting Wavelength (Angstroms) ---  2950 
Final Wavelength (Angstoms) -------  2984 
Wavelength Increment (Angstroms) --  .25 
Filter Wheel #1 Position ---------- (1) Ground quartz diffuser (ND=2.32)
Filter Wheel #2 Position ---------- (1) Neutral Density 0.494



************************************************************
HS scan start time = 01:36:51
Dark Count =  4.9 


Time (GMT)  Wavelength (Ang)  Step Number  Raw Counts  Counts/Second

   97.22        2950.00           1222          57.00       227.12
   97.29        2950.25           1226          61.00       244.55
   97.32        2950.50           1229          56.00       222.76
   97.35        2950.75           1232          52.00       205.32
   97.38        2951.00           1236          57.00       227.12
   97.41        2951.25           1239          52.00       205.32
   97.44        2951.50           1242          54.00       214.04
   97.47        2951.75           1246          55.00       218.40
   97.50        2952.00           1249          60.00       240.19
   97.53        2952.25           1252          57.00       227.12
   97.57        2952.50           1256          55.00       218.40
   97.60        2952.75           1259          57.00       227.12
   97.63        2953.00           1262          52.00       205.32
   97.66        2953.25           1266          60.00       240.19
   97.69        2953.50           1269          64.00       257.63
   97.72        2953.75           1272          54.00       214.04
   97.75        2954.00           1276          60.00       240.19
   97.78        2954.25           1279          62.00       248.91
   97.81        2954.50           1282          66.00       266.35
   97.84        2954.75           1286          53.00       209.68
   97.87        2955.00           1289          57.00       227.12
   97.91        2955.25           1292          58.00       231.48
   97.94        2955.50           1296          50.00       196.60
   97.97        2955.75           1299          59.00       235.83
   98.00        2956.00           1302          68.00       275.07
   98.03        2956.25           1306          48.00       187.88
   98.06        2956.50           1309          61.00       244.55
   98.09        2956.75           1312          57.00       227.12
   98.12        2957.00           1316          50.00       196.60
   98.15        2957.25           1319          57.00       227.12
   98.18        2957.50           1322          54.00       214.04
   98.21        2957.75           1326          55.00       218.40
   98.24        2958.00           1329          58.00       231.48
   98.27        2958.25           1332          53.00       209.68
   98.30        2958.50           1336          58.00       231.48
   98.33        2958.75           1339          57.00       227.12
   98.37        2959.00           1342          63.00       253.27
   98.40        2959.25           1346          61.00       244.55
   98.43        2959.50           1349          58.00       231.48
   98.46        2959.75           1352          68.00       275.07
   98.49        2960.00           1356         100.00       414.56
   98.52        2960.25           1359         113.00       471.24
   98.55        2960.50           1362         140.00       588.94
   98.58        2960.75           1366         194.00       824.34
   98.61        2961.00           1369         227.00       968.21
   98.64        2961.25           1372         259.00      1107.71
   98.67        2961.50           1376         314.00      1347.48
   98.71        2961.75           1379         415.00      1787.80
   98.74        2962.00           1382         752.00      3257.08
   98.77        2962.25           1386        2092.00      9100.57
   98.80        2962.50           1389        3305.00     14392.00
   98.83        2962.75           1392        4460.00     19431.99
   98.86        2963.00           1396        6167.00     26883.49
   98.89        2963.25           1399        7465.00     32551.83
   98.92        2963.50           1402        8715.00     38012.38
   98.95        2963.75           1406       10360.00     45201.19
   98.98        2964.00           1409       11792.00     51461.69
   99.02        2964.25           1412       13038.00     56910.95
   99.05        2964.50           1416       14764.00     64462.38
   99.08        2964.75           1419       16007.00     69902.76
   99.11        2965.00           1422       17320.00     75651.45
   99.14        2965.25           1426       18923.00     82672.53
   99.17        2965.50           1429       20106.00     87855.93
   99.20        2965.75           1432       21613.00     94461.30
   99.23        2966.00           1436       23219.00    101503.50
   99.26        2966.25           1439       24305.00    106267.20
   99.30        2966.50           1442       25422.00    111168.30
   99.33        2966.75           1446       26806.00    117243.00
   99.36        2967.00           1449       27512.00    120342.60
   99.39        2967.25           1452       27459.00    120109.90
   99.42        2967.50           1456       27738.00    121334.90
   99.45        2967.75           1459       27514.00    120351.40
   99.48        2968.00           1462       27465.00    120136.20
   99.51        2968.25           1466       26879.00    117563.40
   99.54        2968.50           1469       25823.00    112928.10
   99.57        2968.75           1472       24596.00    107543.90
   99.61        2969.00           1476       22906.00    100130.80
   99.64        2969.25           1479       21807.00     95311.81
   99.67        2969.50           1482       20419.00     89227.62
   99.70        2969.75           1486       18745.00     81892.75
   99.73        2970.00           1489       17335.00     75717.13
   99.76        2970.25           1492       16206.00     70773.91
   99.79        2970.50           1496       14553.00     63539.05
   99.82        2970.75           1499       13243.00     57807.66
   99.85        2971.00           1502       12016.00     52441.21
   99.89        2971.25           1506       10370.00     45244.90
   99.92        2971.50           1509        8962.00     39091.59
   99.95        2971.75           1513        7301.00     31835.54
   99.98        2972.00           1516        6022.00     26250.40
  100.01        2972.25           1519        4675.00     20370.34
  100.04        2972.50           1523        3168.00     13794.29
  100.07        2972.75           1526        1979.00      8607.72
  100.10        2973.00           1529         983.00      4264.28
  100.13        2973.25           1533         362.00      1556.74
  100.16        2973.50           1536         280.00      1199.26
  100.19        2973.75           1539         231.00       985.64
  100.22        2974.00           1543         189.00       802.55
  100.26        2974.25           1546         165.00       697.92
  100.29        2974.50           1549         123.00       514.83
  100.32        2974.75           1553          89.00       366.61
  100.35        2975.00           1556          72.00       292.50
  100.38        2975.25           1559          60.00       240.19
  100.41        2975.50           1563          64.00       257.63
  100.44        2975.75           1566          54.00       214.04
  100.47        2976.00           1569          59.00       235.83
  100.50        2976.25           1573          61.00       244.55
  100.53        2976.50           1576          57.00       227.12
  100.56        2976.75           1579          50.00       196.60
  100.59        2977.00           1583          58.00       231.48
  100.62        2977.25           1586          56.00       222.76
  100.66        2977.50           1590          55.00       218.40
  100.69        2977.75           1593          51.00       200.96
  100.72        2978.00           1596          55.00       218.40
  100.75        2978.25           1600          59.00       235.83
  100.78        2978.50           1603          59.00       235.83
  100.81        2978.75           1606          56.00       222.76
  100.84        2979.00           1610          45.00       174.80
  100.87        2979.25           1613          54.00       214.04
  100.90        2979.50           1616          45.00       174.80
  100.93        2979.75           1620          54.00       214.04
  100.97        2980.00           1623          60.00       240.19
  101.00        2980.25           1626          57.00       227.12
  101.03        2980.50           1630          50.00       196.60
  101.06        2980.75           1633          47.00       183.52
  101.09        2981.00           1637          52.00       205.32
  101.12        2981.25           1640          50.00       196.60
  101.15        2981.50           1643          54.00       214.04
  101.18        2981.75           1647          44.00       170.45
  101.21        2982.00           1650          50.00       196.60
  101.24        2982.25           1653          49.00       192.24
  101.27        2982.50           1657          47.00       183.52
  101.30        2982.75           1660          50.00       196.60
  101.33        2983.00           1663          50.00       196.60
  101.37        2983.25           1667          58.00       231.48
  101.40        2983.50           1670          53.00       209.68
  101.43        2983.75           1673          52.00       205.32
  101.46        2984.00           1677          49.00       192.24
HS scan finished at 01:41:40
end
