************************************************************
  HS Scan of (1) Internal mercury lamp
************************************************************
Integration time is 0.2294 seconds per sample
dh140817Manchester 53.47 2.23 2.857833pr1000
************************************************************
Dead Time -------------------------  3E-08 
Number of Cycles Used -------------  4 
Starting Wavelength (Angstroms) ---  2950 
Final Wavelength (Angstoms) -------  2984 
Wavelength Increment (Angstroms) --  .25 
Filter Wheel #1 Position ---------- (1) Ground quartz diffuser (ND=2.32)
Filter Wheel #2 Position ---------- (1) Neutral Density 0.494



************************************************************
HS scan start time = 01:42:00
Dark Count =  6.9 


Time (GMT)  Wavelength (Ang)  Step Number  Raw Counts  Counts/Second

  102.37        2950.00           1222          90.00       362.25
  102.44        2950.25           1226          94.00       379.69
  102.47        2950.50           1229          85.00       340.46
  102.50        2950.75           1232          87.00       349.18
  102.53        2951.00           1236          83.00       331.74
  102.56        2951.25           1239          85.00       340.46
  102.59        2951.50           1242          90.00       362.25
  102.63        2951.75           1246          82.00       327.38
  102.66        2952.00           1249          77.00       305.58
  102.69        2952.25           1252          89.00       357.89
  102.72        2952.50           1256          93.00       375.33
  102.75        2952.75           1259          86.00       344.82
  102.78        2953.00           1262          88.00       353.53
  102.81        2953.25           1266          87.00       349.18
  102.84        2953.50           1269          85.00       340.46
  102.87        2953.75           1272          79.00       314.30
  102.90        2954.00           1276          86.00       344.82
  102.93        2954.25           1279          84.00       336.10
  102.96        2954.50           1282          78.00       309.94
  102.99        2954.75           1286          88.00       353.53
  103.02        2955.00           1289          88.00       353.53
  103.06        2955.25           1292          80.00       318.66
  103.09        2955.50           1296          88.00       353.53
  103.12        2955.75           1299          87.00       349.18
  103.15        2956.00           1302          86.00       344.82
  103.18        2956.25           1306          79.00       314.30
  103.21        2956.50           1309          87.00       349.18
  103.24        2956.75           1312          81.00       323.02
  103.27        2957.00           1316          87.00       349.18
  103.30        2957.25           1319          77.00       305.58
  103.33        2957.50           1322          82.00       327.38
  103.36        2957.75           1326          85.00       340.46
  103.39        2958.00           1329          81.00       323.02
  103.43        2958.25           1332          86.00       344.82
  103.46        2958.50           1336          83.00       331.74
  103.49        2958.75           1339          80.00       318.66
  103.52        2959.00           1342          85.00       340.46
  103.55        2959.25           1346          95.00       384.05
  103.58        2959.50           1349          96.00       388.41
  103.61        2959.75           1352         110.00       449.44
  103.64        2960.00           1356         127.00       523.55
  103.67        2960.25           1359         162.00       676.13
  103.70        2960.50           1362         205.00       863.58
  103.73        2960.75           1366         260.00      1103.35
  103.77        2961.00           1369         321.00      1369.28
  103.80        2961.25           1372         360.00      1539.30
  103.83        2961.50           1376         566.00      2437.41
  103.86        2961.75           1379        1241.00      5380.55
  103.89        2962.00           1382        2570.00     11176.81
  103.92        2962.25           1386        4795.00     20885.36
  103.95        2962.50           1389        6422.00     27988.18
  103.98        2962.75           1392        8066.00     35168.30
  104.01        2963.00           1396       10183.00     44418.79
  104.04        2963.25           1399       11795.00     51466.07
  104.08        2963.50           1402       13620.00     59448.13
  104.11        2963.75           1406       15980.00     69775.81
  104.14        2964.00           1409       17413.00     76049.94
  104.17        2964.25           1412       19260.00     84140.19
  104.20        2964.50           1416       21821.00     95364.42
  104.23        2964.75           1419       23576.00    103060.50
  104.26        2965.00           1422       25297.00    110611.00
  104.29        2965.25           1426       27394.00    119815.70
  104.32        2965.50           1429       29152.00    127536.30
  104.35        2965.75           1432       30681.00    134254.10
  104.38        2966.00           1436       32993.00    144417.30
  104.42        2966.25           1439       34477.00    150944.00
  104.45        2966.50           1442       35792.00    156729.50
  104.48        2966.75           1446       36527.00    159964.20
  104.51        2967.00           1449       36632.00    160426.30
  104.54        2967.25           1452       36756.00    160972.10
  104.57        2967.50           1456       36580.00    160197.40
  104.60        2967.75           1459       36340.00    159141.20
  104.63        2968.00           1462       35671.00    156197.10
  104.66        2968.25           1466       33980.00    148757.90
  104.69        2968.50           1469       32575.00    142579.40
  104.72        2968.75           1472       30729.00    134465.10
  104.76        2969.00           1476       28731.00    125687.10
  104.79        2969.25           1479       27130.00    118656.60
  104.82        2969.50           1482       25441.00    111242.90
  104.85        2969.75           1486       23357.00    102100.00
  104.88        2970.00           1489       21439.00     93689.72
  104.91        2970.25           1492       19716.00     86138.18
  104.94        2970.50           1496       17510.00     76474.74
  104.97        2970.75           1499       15764.00     68830.31
  105.00        2971.00           1502       14071.00     61421.27
  105.03        2971.25           1506       11641.00     50792.68
  105.07        2971.50           1509        9971.00     43492.19
  105.10        2971.75           1513        7737.00     33731.15
  105.13        2972.00           1516        6072.00     26459.97
  105.16        2972.25           1519        4602.00     20043.00
  105.19        2972.50           1523        2468.00     10731.88
  105.22        2972.75           1526        1165.00      5049.15
  105.25        2973.00           1529         660.00      2847.24
  105.28        2973.25           1533         449.00      1927.31
  105.31        2973.50           1536         376.00      1609.06
  105.34        2973.75           1539         337.00      1439.03
  105.37        2974.00           1543         284.00      1207.98
  105.40        2974.25           1546         219.00       924.61
  105.44        2974.50           1549         167.00       697.92
  105.47        2974.75           1553         123.00       506.11
  105.50        2975.00           1556         104.00       423.28
  105.53        2975.25           1559          87.00       349.18
  105.56        2975.50           1563          76.00       301.22
  105.59        2975.75           1566          81.00       323.02
  105.62        2976.00           1569          72.00       283.79
  105.65        2976.25           1573          77.00       305.58
  105.68        2976.50           1576          84.00       336.10
  105.71        2976.75           1579          78.00       309.94
  105.74        2977.00           1583          78.00       309.94
  105.77        2977.25           1586          76.00       301.22
  105.80        2977.50           1590          75.00       296.86
  105.84        2977.75           1593          79.00       314.30
  105.87        2978.00           1596          80.00       318.66
  105.90        2978.25           1600          80.00       318.66
  105.93        2978.50           1603          73.00       288.15
  105.96        2978.75           1606          75.00       296.86
  105.99        2979.00           1610          81.00       323.02
  106.02        2979.25           1613          76.00       301.22
  106.05        2979.50           1616          85.00       340.46
  106.08        2979.75           1620          67.00       261.99
  106.12        2980.00           1623          74.00       292.50
  106.15        2980.25           1626          80.00       318.66
  106.18        2980.50           1630          79.00       314.30
  106.21        2980.75           1633          67.00       261.99
  106.24        2981.00           1637          72.00       283.79
  106.27        2981.25           1640          78.00       309.94
  106.30        2981.50           1643          70.00       275.07
  106.33        2981.75           1647          78.00       309.94
  106.36        2982.00           1650          75.00       296.86
  106.39        2982.25           1653          74.00       292.50
  106.42        2982.50           1657          77.00       305.58
  106.45        2982.75           1660          74.00       292.50
  106.48        2983.00           1663          75.00       296.86
  106.51        2983.25           1667          69.00       270.71
  106.54        2983.50           1670          78.00       309.94
  106.57        2983.75           1673          78.00       309.94
  106.60        2984.00           1677          74.00       292.50
HS scan finished at 01:46:49
end
************************************************************
  HS Scan of (1) Internal mercury lamp
************************************************************
Integration time is 0.2294 seconds per sample
dh140817Manchester 53.47 2.23 2.911481pr1000
************************************************************
Dead Time -------------------------  3E-08 
Number of Cycles Used -------------  4 
Starting Wavelength (Angstroms) ---  2950 
Final Wavelength (Angstoms) -------  2984 
Wavelength Increment (Angstroms) --  .25 
Filter Wheel #1 Position ---------- (1) Ground quartz diffuser (ND=2.32)
Filter Wheel #2 Position ---------- (1) Neutral Density 0.494



************************************************************
HS scan start time = 20:41:58
Dark Count =  5.3 


Time (GMT)  Wavelength (Ang)  Step Number  Raw Counts  Counts/Second

 1242.34        2950.00           1222          87.00       356.15
 1242.40        2950.25           1226          82.00       334.35
 1242.43        2950.50           1229          90.00       369.23
 1242.46        2950.75           1232          86.00       351.79
 1242.49        2951.00           1236          86.00       351.79
 1242.52        2951.25           1239          88.00       360.51
 1242.56        2951.50           1242          91.00       373.59
 1242.59        2951.75           1246          83.00       338.71
 1242.62        2952.00           1249          80.00       325.64
 1242.65        2952.25           1252          84.00       343.07
 1242.68        2952.50           1256          83.00       338.71
 1242.71        2952.75           1259          96.00       395.38
 1242.74        2953.00           1262          92.00       377.95
 1242.77        2953.25           1266          88.00       360.51
 1242.80        2953.50           1269          82.00       334.35
 1242.83        2953.75           1272          87.00       356.15
 1242.86        2954.00           1276          85.00       347.43
 1242.89        2954.25           1279          79.00       321.28
 1242.92        2954.50           1282          93.00       382.31
 1242.95        2954.75           1286          86.00       351.79
 1242.98        2955.00           1289          82.00       334.35
 1243.01        2955.25           1292          76.00       308.20
 1243.05        2955.50           1296          80.00       325.64
 1243.08        2955.75           1299          85.00       347.43
 1243.11        2956.00           1302          86.00       351.79
 1243.14        2956.25           1306          75.00       303.84
 1243.17        2956.50           1309          75.00       303.84
 1243.20        2956.75           1312          85.00       347.43
 1243.23        2957.00           1316          85.00       347.43
 1243.26        2957.25           1319          78.00       316.92
 1243.29        2957.50           1322          86.00       351.79
 1243.32        2957.75           1326          76.00       308.20
 1243.35        2958.00           1329          90.00       369.23
 1243.38        2958.25           1332          88.00       360.51
 1243.41        2958.50           1336          83.00       338.71
 1243.44        2958.75           1339          89.00       364.87
 1243.48        2959.00           1342          79.00       321.28
 1243.51        2959.25           1346          86.00       351.79
 1243.54        2959.50           1349          95.00       391.02
 1243.57        2959.75           1352         105.00       434.62
 1243.60        2960.00           1356         141.00       591.55
 1243.63        2960.25           1359         173.00       731.05
 1243.66        2960.50           1362         212.00       901.07
 1243.69        2960.75           1366         284.00      1214.95
 1243.72        2961.00           1369         314.00      1345.74
 1243.75        2961.25           1372         365.00      1568.08
 1243.78        2961.50           1376         462.00      1990.96
 1243.81        2961.75           1379         633.00      2736.49
 1243.84        2962.00           1382        1441.00      6259.68
 1243.87        2962.25           1386        3336.00     14525.51
 1243.90        2962.50           1389        4930.00     21481.59
 1243.93        2962.75           1392        6504.00     28353.23
 1243.97        2963.00           1396        8652.00     37735.38
 1244.00        2963.25           1399       10303.00     44950.29
 1244.03        2963.50           1402       11909.00     51971.55
 1244.06        2963.75           1406       14241.00     62172.09
 1244.09        2964.00           1409       16013.00     69927.28
 1244.12        2964.25           1412       17944.00     78382.45
 1244.15        2964.50           1416       20463.00     89418.71
 1244.18        2964.75           1419       22061.00     96423.69
 1244.21        2965.00           1422       23929.00    104616.00
 1244.24        2965.25           1426       26100.00    114142.10
 1244.28        2965.50           1429       27915.00    122110.40
 1244.31        2965.75           1432       29696.00    129933.10
 1244.34        2966.00           1436       31783.00    139104.60
 1244.37        2966.25           1439       33180.00    145246.60
 1244.40        2966.50           1442       34914.00    152873.40
 1244.43        2966.75           1446       36473.00    159733.50
 1244.46        2967.00           1449       36588.00    160239.70
 1244.49        2967.25           1452       36848.00    161384.10
 1244.52        2967.50           1456       36788.00    161120.00
 1244.55        2967.75           1459       36590.00    160248.50
 1244.58        2968.00           1462       36469.00    159715.90
 1244.62        2968.25           1466       35551.00    155676.10
 1244.65        2968.50           1469       33815.00    148039.20
 1244.68        2968.75           1472       32403.00    141830.20
 1244.71        2969.00           1476       30060.00    131532.40
 1244.74        2969.25           1479       28508.00    124714.60
 1244.77        2969.50           1482       26766.00    117065.60
 1244.80        2969.75           1486       24653.00    107792.20
 1244.83        2970.00           1489       22866.00     99953.59
 1244.86        2970.25           1492       21206.00     92675.35
 1244.89        2970.50           1496       19201.00     83888.71
 1244.92        2970.75           1499       17234.00     75273.10
 1244.95        2971.00           1502       15571.00     67992.52
 1244.98        2971.25           1506       13296.00     58037.76
 1245.01        2971.50           1509       11593.00     50589.80
 1245.04        2971.75           1513        9387.00     40946.96
 1245.07        2972.00           1516        7674.00     33462.96
 1245.11        2972.25           1519        6089.00     26541.18
 1245.14        2972.50           1523        4041.00     17601.71
 1245.17        2972.75           1526        2387.00     10385.54
 1245.20        2973.00           1529        1036.00      4493.63
 1245.23        2973.25           1533         468.00      2017.12
 1245.26        2973.50           1536         372.00      1598.59
 1245.29        2973.75           1539         343.00      1472.17
 1245.32        2974.00           1543         276.00      1180.08
 1245.35        2974.25           1546         210.00       892.35
 1245.38        2974.50           1549         175.00       739.77
 1245.41        2974.75           1553         124.00       517.44
 1245.44        2975.00           1556         106.00       438.98
 1245.47        2975.25           1559          91.00       373.59
 1245.50        2975.50           1563          79.00       321.28
 1245.54        2975.75           1566          93.00       382.31
 1245.57        2976.00           1569          77.00       312.56
 1245.60        2976.25           1573          80.00       325.64
 1245.63        2976.50           1576          83.00       338.71
 1245.66        2976.75           1579          81.00       329.99
 1245.69        2977.00           1583          85.00       347.43
 1245.72        2977.25           1586          78.00       316.92
 1245.75        2977.50           1590          80.00       325.64
 1245.78        2977.75           1593          72.00       290.76
 1245.81        2978.00           1596          86.00       351.79
 1245.84        2978.25           1600          83.00       338.71
 1245.87        2978.50           1603          74.00       299.48
 1245.90        2978.75           1606          78.00       316.92
 1245.93        2979.00           1610          87.00       356.15
 1245.96        2979.25           1613          79.00       321.28
 1245.99        2979.50           1616          79.00       321.28
 1246.02        2979.75           1620          74.00       299.48
 1246.05        2980.00           1623          76.00       308.20
 1246.08        2980.25           1626          79.00       321.28
 1246.12        2980.50           1630          73.00       295.12
 1246.15        2980.75           1633          78.00       316.92
 1246.18        2981.00           1637          77.00       312.56
 1246.21        2981.25           1640          76.00       308.20
 1246.24        2981.50           1643          80.00       325.64
 1246.27        2981.75           1647          70.00       282.04
 1246.30        2982.00           1650          70.00       282.04
 1246.33        2982.25           1653          76.00       308.20
