************************************************************
  HS Scan of (1) Internal mercury lamp
************************************************************
Integration time is 0.2294 seconds per sample
dh310818Manchester 53.47 2.23 2.804185pr1000
************************************************************
Dead Time -------------------------  3E-08 
Number of Cycles Used -------------  4 
Starting Wavelength (Angstroms) ---  2950 
Final Wavelength (Angstoms) -------  2984 
Wavelength Increment (Angstroms) --  .25 
Filter Wheel #1 Position ---------- (1) Ground quartz diffuser (ND=2.32)
Filter Wheel #2 Position ---------- (1) Neutral Density 0.494



************************************************************
HS scan start time = 01:33:20
Dark Count =  7.3 


Time (GMT)  Wavelength (Ang)  Step Number  Raw Counts  Counts/Second

   93.71        2950.00           1222          51.00       190.50
   93.77        2950.25           1226          51.00       190.50
   93.81        2950.50           1229          49.00       181.78
   93.84        2950.75           1232          56.00       212.29
   93.87        2951.00           1236          44.00       159.98
   93.90        2951.25           1239          54.00       203.58
   93.93        2951.50           1242          53.00       199.22
   93.96        2951.75           1246          53.00       199.22
   93.99        2952.00           1249          52.00       194.86
   94.02        2952.25           1252          54.00       203.58
   94.05        2952.50           1256          50.00       186.14
   94.09        2952.75           1259          53.00       199.22
   94.12        2953.00           1262          56.00       212.29
   94.15        2953.25           1266          56.00       212.29
   94.18        2953.50           1269          51.00       190.50
   94.21        2953.75           1272          54.00       203.58
   94.24        2954.00           1276          53.00       199.22
   94.27        2954.25           1279          59.00       225.37
   94.30        2954.50           1282          51.00       190.50
   94.33        2954.75           1286          48.00       177.42
   94.36        2955.00           1289          59.00       225.37
   94.39        2955.25           1292          56.00       212.29
   94.42        2955.50           1296          47.00       173.06
   94.45        2955.75           1299          46.00       168.70
   94.48        2956.00           1302          48.00       177.42
   94.51        2956.25           1306          56.00       212.29
   94.55        2956.50           1309          48.00       177.42
   94.58        2956.75           1312          53.00       199.22
   94.61        2957.00           1316          50.00       186.14
   94.64        2957.25           1319          50.00       186.14
   94.67        2957.50           1322          58.00       221.01
   94.70        2957.75           1326          49.00       181.78
   94.73        2958.00           1329          45.00       164.34
   94.76        2958.25           1332          46.00       168.70
   94.79        2958.50           1336          60.00       229.73
   94.82        2958.75           1339          46.00       168.70
   94.85        2959.00           1342          51.00       190.50
   94.88        2959.25           1346          54.00       203.58
   94.92        2959.50           1349          63.00       242.81
   94.95        2959.75           1352          63.00       242.81
   94.98        2960.00           1356          90.00       360.51
   95.01        2960.25           1359         116.00       473.85
   95.04        2960.50           1362         154.00       639.51
   95.07        2960.75           1366         193.00       809.52
   95.10        2961.00           1369         218.00       918.51
   95.13        2961.25           1372         262.00      1110.32
   95.16        2961.50           1376         319.00      1358.82
   95.19        2961.75           1379         500.00      2147.92
   95.22        2962.00           1382        1157.00      5012.52
   95.25        2962.25           1386        2583.00     11231.77
   95.29        2962.50           1389        3650.00     15886.82
   95.32        2962.75           1392        4868.00     21202.24
   95.35        2963.00           1396        6350.00     27672.05
   95.38        2963.25           1399        7606.00     33157.20
   95.41        2963.50           1402        8817.00     38447.55
   95.44        2963.75           1406       10474.00     45689.00
   95.47        2964.00           1409       11812.00     51538.65
   95.50        2964.25           1412       12999.00     56729.87
   95.53        2964.50           1416       14844.00     64801.98
   95.56        2964.75           1419       16016.00     69931.65
   95.60        2965.00           1422       17191.00     75076.06
   95.63        2965.25           1426       19118.00     83516.31
   95.66        2965.50           1429       20409.00     89173.28
   95.69        2965.75           1432       21623.00     94494.61
   95.72        2966.00           1436       23090.00    100927.20
   95.75        2966.25           1439       24388.00    106620.80
   95.78        2966.50           1442       25523.00    111601.00
   95.81        2966.75           1446       26863.00    117482.70
   95.84        2967.00           1449       27201.00    118966.60
   95.87        2967.25           1452       27230.00    119093.90
   95.90        2967.50           1456       27279.00    119309.00
   95.94        2967.75           1459       27243.00    119151.00
   95.97        2968.00           1462       27141.00    118703.10
   96.00        2968.25           1466       26477.00    115788.20
   96.03        2968.50           1469       25179.00    110091.40
   96.06        2968.75           1472       24165.00    105642.50
   96.09        2969.00           1476       22499.00     98335.44
   96.12        2969.25           1479       21399.00     93512.62
   96.15        2969.50           1482       20201.00     88261.72
   96.18        2969.75           1486       18512.00     80861.56
   96.21        2970.00           1489       17370.00     75859.90
   96.24        2970.25           1492       16116.00     70369.41
   96.28        2970.50           1496       14514.00     63357.89
   96.31        2970.75           1499       13205.00     57630.94
   96.34        2971.00           1502       11990.00     52317.01
   96.37        2971.25           1506       10057.00     43866.33
   96.40        2971.50           1509        8894.00     38783.99
   96.43        2971.75           1513        7173.00     31266.02
   96.46        2972.00           1516        5830.00     25401.65
   96.49        2972.25           1519        4592.00     19997.61
   96.52        2972.50           1523        3029.00     13177.40
   96.55        2972.75           1526        1908.00      8287.59
   96.59        2973.00           1529         891.00      3852.67
   96.62        2973.25           1533         371.00      1585.52
   96.65        2973.50           1536         281.00      1193.16
   96.68        2973.75           1539         227.00       957.74
   96.71        2974.00           1543         194.00       813.88
   96.74        2974.25           1546         142.00       587.19
   96.77        2974.50           1549         103.00       417.18
   96.80        2974.75           1553          70.00       273.32
   96.83        2975.00           1556          67.00       260.25
   96.86        2975.25           1559          60.00       229.73
   96.89        2975.50           1563          51.00       190.50
   96.92        2975.75           1566          52.00       194.86
   96.95        2976.00           1569          59.00       225.37
   96.98        2976.25           1573          49.00       181.78
   97.02        2976.50           1576          49.00       181.78
   97.05        2976.75           1579          50.00       186.14
   97.08        2977.00           1583          51.00       190.50
   97.11        2977.25           1586          50.00       186.14
   97.14        2977.50           1590          51.00       190.50
   97.17        2977.75           1593          47.00       173.06
   97.20        2978.00           1596          50.00       186.14
   97.23        2978.25           1600          57.00       216.65
   97.26        2978.50           1603          58.00       221.01
   97.29        2978.75           1606          48.00       177.42
   97.32        2979.00           1610          50.00       186.14
   97.35        2979.25           1613          42.00       151.26
   97.38        2979.50           1616          51.00       190.50
   97.41        2979.75           1620          50.00       186.14
   97.44        2980.00           1623          42.00       151.26
   97.47        2980.25           1626          49.00       181.78
   97.51        2980.50           1630          43.00       155.62
   97.54        2980.75           1633          52.00       194.86
   97.57        2981.00           1637          46.00       168.70
   97.60        2981.25           1640          47.00       173.06
   97.63        2981.50           1643          58.00       221.01
   97.66        2981.75           1647          51.00       190.50
   97.69        2982.00           1650          44.00       159.98
   97.72        2982.25           1653          49.00       181.78
   97.75        2982.50           1657          47.00       173.06
   97.78        2982.75           1660          50.00       186.14
   97.81        2983.00           1663          46.00       168.70
   97.84        2983.25           1667          41.00       146.91
   97.88        2983.50           1670          42.00       151.26
   97.91        2983.75           1673          38.00       133.83
   97.94        2984.00           1677          47.00       173.06
HS scan finished at 01:38:09
end
************************************************************
  HS Scan of (1) Internal mercury lamp
************************************************************
Integration time is 0.2294 seconds per sample
dh310818Manchester 53.47 2.23 2.911481pr1000
************************************************************
Dead Time -------------------------  3E-08 
Number of Cycles Used -------------  4 
Starting Wavelength (Angstroms) ---  2950 
Final Wavelength (Angstoms) -------  2984 
Wavelength Increment (Angstroms) --  .25 
Filter Wheel #1 Position ---------- (1) Ground quartz diffuser (ND=2.32)
Filter Wheel #2 Position ---------- (1) Neutral Density 0.494



************************************************************
HS scan start time = 20:12:02
Dark Count =  6.7 


Time (GMT)  Wavelength (Ang)  Step Number  Raw Counts  Counts/Second

 1212.40        2950.00           1222          49.00       184.40
 1212.47        2950.25           1226          51.00       193.11
 1212.50        2950.50           1229          58.00       223.63
 1212.53        2950.75           1232          51.00       193.11
 1212.56        2951.00           1236          55.00       210.55
 1212.60        2951.25           1239          57.00       219.27
 1212.63        2951.50           1242          53.00       201.83
 1212.66        2951.75           1246          50.00       188.75
 1212.69        2952.00           1249          49.00       184.40
 1212.72        2952.25           1252          53.00       201.83
 1212.75        2952.50           1256          58.00       223.63
 1212.78        2952.75           1259          53.00       201.83
 1212.81        2953.00           1262          47.00       175.68
 1212.84        2953.25           1266          56.00       214.91
 1212.87        2953.50           1269          59.00       227.99
 1212.90        2953.75           1272          55.00       210.55
 1212.93        2954.00           1276          50.00       188.75
 1212.96        2954.25           1279          48.00       180.04
 1213.00        2954.50           1282          51.00       193.11
 1213.03        2954.75           1286          51.00       193.11
 1213.06        2955.00           1289          52.00       197.47
 1213.09        2955.25           1292          48.00       180.04
 1213.12        2955.50           1296          54.00       206.19
 1213.15        2955.75           1299          55.00       210.55
 1213.18        2956.00           1302          50.00       188.75
 1213.21        2956.25           1306          55.00       210.55
 1213.24        2956.50           1309          57.00       219.27
 1213.27        2956.75           1312          58.00       223.63
 1213.30        2957.00           1316          50.00       188.75
 1213.33        2957.25           1319          55.00       210.55
 1213.36        2957.50           1322          51.00       193.11
 1213.40        2957.75           1326          51.00       193.11
 1213.43        2958.00           1329          60.00       232.35
 1213.46        2958.25           1332          54.00       206.19
 1213.49        2958.50           1336          54.00       206.19
 1213.52        2958.75           1339          52.00       197.47
 1213.55        2959.00           1342          53.00       201.83
 1213.58        2959.25           1346          57.00       219.27
 1213.61        2959.50           1349          58.00       223.63
 1213.64        2959.75           1352          70.00       275.94
 1213.67        2960.00           1356          95.00       384.92
 1213.70        2960.25           1359         126.00       520.06
 1213.73        2960.50           1362         155.00       646.48
 1213.76        2960.75           1366         213.00       899.33
 1213.79        2961.00           1369         233.00       986.52
 1213.83        2961.25           1372         266.00      1130.38
 1213.86        2961.50           1376         346.00      1479.14
 1213.89        2961.75           1379         509.00      2189.77
 1213.92        2962.00           1382        1199.00      5198.28
 1213.95        2962.25           1386        2895.00     12595.43
 1213.98        2962.50           1389        4216.00     18359.28
 1214.01        2962.75           1392        5371.00     23400.47
 1214.04        2963.00           1396        6944.00     30268.54
 1214.07        2963.25           1399        8140.00     35492.44
 1214.10        2963.50           1402        9314.00     40621.84
 1214.13        2963.75           1406       11036.00     48148.40
 1214.16        2964.00           1409       12409.00     54151.99
 1214.19        2964.25           1412       13866.00     60525.24
 1214.22        2964.50           1416       15774.00     68874.95
 1214.25        2964.75           1419       17038.00     74408.72
 1214.28        2965.00           1422       18182.00     79418.73
 1214.32        2965.25           1426       19991.00     87344.09
 1214.35        2965.50           1429       21126.00     92318.54
 1214.38        2965.75           1432       22632.00     98921.29
 1214.41        2966.00           1436       24171.00    105671.40
 1214.44        2966.25           1439       25297.00    110611.90
 1214.47        2966.50           1442       26572.00    116207.80
 1214.50        2966.75           1446       27944.00    122231.60
 1214.53        2967.00           1449       28120.00    123004.50
 1214.56        2967.25           1452       28176.00    123250.40
 1214.59        2967.50           1456       28119.00    123000.10
 1214.62        2967.75           1459       28207.00    123386.60
 1214.66        2968.00           1462       28055.00    122719.10
 1214.69        2968.25           1466       27057.00    118337.00
 1214.72        2968.50           1469       26120.00    114223.80
 1214.75        2968.75           1472       24795.00    108409.10
 1214.78        2969.00           1476       23113.00    101030.70
 1214.81        2969.25           1479       22025.00     96259.71
 1214.84        2969.50           1482       20711.00     90499.52
 1214.87        2969.75           1486       18965.00     82848.65
 1214.90        2970.00           1489       17623.00     76970.48
 1214.93        2970.25           1492       16213.00     70796.68
 1214.97        2970.50           1496       14540.00     63474.29
 1215.00        2970.75           1499       13251.00     57834.79
 1215.03        2971.00           1502       11987.00     52306.52
 1215.06        2971.25           1506       10074.00     43943.24
 1215.09        2971.50           1509        8859.00     38633.68
 1215.12        2971.75           1513        7211.00     31434.60
 1215.15        2972.00           1516        6008.00     26181.41
 1215.18        2972.25           1519        4681.00     20388.67
 1215.21        2972.50           1523        3076.00     13385.06
 1215.24        2972.75           1526        1803.00      7832.27
 1215.28        2973.00           1529         747.00      3227.43
 1215.31        2973.25           1533         349.00      1492.22
 1215.34        2973.50           1536         258.00      1095.50
 1215.37        2973.75           1539         239.00      1012.67
 1215.40        2974.00           1543         191.00       803.42
 1215.43        2974.25           1546         150.00       624.68
 1215.46        2974.50           1549         116.00       476.47
 1215.49        2974.75           1553          78.00       310.81
 1215.52        2975.00           1556          68.00       267.22
 1215.56        2975.25           1559          65.00       254.14
 1215.59        2975.50           1563          49.00       184.40
 1215.62        2975.75           1566          45.00       166.96
 1215.65        2976.00           1569          57.00       219.27
 1215.68        2976.25           1573          47.00       175.68
 1215.71        2976.50           1576          51.00       193.11
 1215.74        2976.75           1579          52.00       197.47
 1215.77        2977.00           1583          47.00       175.68
 1215.80        2977.25           1586          45.00       166.96
 1215.83        2977.50           1590          50.00       188.75
 1215.87        2977.75           1593          44.00       162.60
 1215.90        2978.00           1596          45.00       166.96
 1215.93        2978.25           1600          53.00       201.83
 1215.96        2978.50           1603          50.00       188.75
 1215.99        2978.75           1606          59.00       227.99
 1216.02        2979.00           1610          46.00       171.32
 1216.05        2979.25           1613          51.00       193.11
 1216.08        2979.50           1616          46.00       171.32
 1216.11        2979.75           1620          52.00       197.47
 1216.14        2980.00           1623          45.00       166.96
 1216.17        2980.25           1626          50.00       188.75
 1216.20        2980.50           1630          45.00       166.96
 1216.23        2980.75           1633          46.00       171.32
 1216.26        2981.00           1637          48.00       180.04
 1216.29        2981.25           1640          42.00       153.88
 1216.32        2981.50           1643          51.00       193.11
 1216.36        2981.75           1647          47.00       175.68
 1216.39        2982.00           1650          62.00       241.07
 1216.42        2982.25           1653          45.00       166.96
