************************************************************
  HS Scan of (1) Internal mercury lamp
************************************************************
Integration time is 0.2294 seconds per sample
dh010918Manchester 53.47 2.23 2.804185pr1000
************************************************************
Dead Time -------------------------  3E-08 
Number of Cycles Used -------------  4 
Starting Wavelength (Angstroms) ---  2950 
Final Wavelength (Angstoms) -------  2984 
Wavelength Increment (Angstroms) --  .25 
Filter Wheel #1 Position ---------- (1) Ground quartz diffuser (ND=2.32)
Filter Wheel #2 Position ---------- (1) Neutral Density 0.494



************************************************************
HS scan start time = 01:23:41
Dark Count =  5.8 


Time (GMT)  Wavelength (Ang)  Step Number  Raw Counts  Counts/Second

   84.05        2950.00           1222          61.00       240.63
   84.11        2950.25           1226          56.00       218.83
   84.14        2950.50           1229          49.00       188.32
   84.17        2950.75           1232          48.00       183.96
   84.21        2951.00           1236          56.00       218.83
   84.24        2951.25           1239          55.00       214.47
   84.27        2951.50           1242          52.00       201.40
   84.30        2951.75           1246          48.00       183.96
   84.33        2952.00           1249          52.00       201.40
   84.36        2952.25           1252          51.00       197.04
   84.39        2952.50           1256          51.00       197.04
   84.42        2952.75           1259          47.00       179.60
   84.45        2953.00           1262          53.00       205.76
   84.48        2953.25           1266          51.00       197.04
   84.51        2953.50           1269          56.00       218.83
   84.54        2953.75           1272          52.00       201.40
   84.57        2954.00           1276          45.00       170.88
   84.60        2954.25           1279          46.00       175.24
   84.63        2954.50           1282          53.00       205.76
   84.67        2954.75           1286          45.00       170.88
   84.70        2955.00           1289          52.00       201.40
   84.73        2955.25           1292          62.00       244.99
   84.76        2955.50           1296          45.00       170.88
   84.79        2955.75           1299          51.00       197.04
   84.82        2956.00           1302          51.00       197.04
   84.85        2956.25           1306          50.00       192.68
   84.88        2956.50           1309          54.00       210.11
   84.91        2956.75           1312          53.00       205.76
   84.94        2957.00           1316          50.00       192.68
   84.97        2957.25           1319          54.00       210.11
   85.00        2957.50           1322          55.00       214.47
   85.03        2957.75           1326          56.00       218.83
   85.07        2958.00           1329          49.00       188.32
   85.10        2958.25           1332          62.00       244.99
   85.13        2958.50           1336          54.00       210.11
   85.16        2958.75           1339          50.00       192.68
   85.19        2959.00           1342          54.00       210.11
   85.22        2959.25           1346          50.00       192.68
   85.25        2959.50           1349          56.00       218.83
   85.28        2959.75           1352          63.00       249.35
   85.31        2960.00           1356          88.00       358.33
   85.34        2960.25           1359         109.00       449.88
   85.37        2960.50           1362         144.00       602.45
   85.40        2960.75           1366         185.00       781.19
   85.44        2961.00           1369         209.00       885.81
   85.47        2961.25           1372         248.00      1055.83
   85.50        2961.50           1376         312.00      1334.84
   85.53        2961.75           1379         399.00      1714.12
   85.56        2962.00           1382         754.00      3261.87
   85.59        2962.25           1386        1959.00      8516.56
   85.62        2962.50           1389        3208.00     13964.87
   85.65        2962.75           1392        4426.00     19279.67
   85.68        2963.00           1396        5987.00     26093.66
   85.71        2963.25           1399        7315.00     31892.75
   85.74        2963.50           1402        8580.00     37418.62
   85.77        2963.75           1406       10287.00     44878.17
   85.80        2964.00           1409       11593.00     50587.61
   85.83        2964.25           1412       12772.00     55743.54
   85.86        2964.50           1416       14544.00     63495.73
   85.89        2964.75           1419       15967.00     69723.72
   85.93        2965.00           1422       17196.00     75104.52
   85.96        2965.25           1426       18975.00     82896.40
   85.99        2965.50           1429       20420.00     89228.07
   86.02        2965.75           1432       21557.00     94211.84
   86.05        2966.00           1436       23241.00    101596.00
   86.08        2966.25           1439       24532.00    107259.10
   86.11        2966.50           1442       25662.00    112217.60
   86.14        2966.75           1446       27008.00    118125.80
   86.17        2967.00           1449       27416.00    119917.10
   86.21        2967.25           1452       27416.00    119917.10
   86.24        2967.50           1456       27348.00    119618.60
   86.27        2967.75           1459       27472.00    120163.00
   86.30        2968.00           1462       27347.00    119614.20
   86.33        2968.25           1466       26571.00    116207.40
   86.36        2968.50           1469       25872.00    113139.30
   86.39        2968.75           1472       24424.00    106785.30
   86.42        2969.00           1476       22711.00     99271.68
   86.45        2969.25           1479       21324.00     93190.42
   86.48        2969.50           1482       20084.00     87755.58
   86.51        2969.75           1486       18449.00     80592.18
   86.54        2970.00           1489       17274.00     75446.07
   86.58        2970.25           1492       16149.00     70520.45
   86.61        2970.50           1496       14522.00     63399.46
   86.64        2970.75           1499       13246.00     57816.86
   86.67        2971.00           1502       12016.00     52437.27
   86.70        2971.25           1506       10360.00     45197.25
   86.73        2971.50           1509        8978.00     39157.57
   86.76        2971.75           1513        7363.00     32102.40
   86.79        2972.00           1516        6142.00     26770.41
   86.83        2972.25           1519        4756.00     20719.94
   86.86        2972.50           1523        3125.00     13602.76
   86.89        2972.75           1526        1889.00      8211.26
   86.92        2973.00           1529         910.00      3942.05
   86.95        2973.25           1533         397.00      1705.41
   86.98        2973.50           1536         286.00      1221.49
   87.01        2973.75           1539         234.00       994.80
   87.04        2974.00           1543         213.00       903.25
   87.07        2974.25           1546         161.00       676.56
   87.10        2974.50           1549         130.00       541.42
   87.13        2974.75           1553          71.00       284.22
   87.16        2975.00           1556          66.00       262.43
   87.20        2975.25           1559          65.00       258.07
   87.23        2975.50           1563          44.00       166.52
   87.26        2975.75           1566          49.00       188.32
   87.29        2976.00           1569          46.00       175.24
   87.32        2976.25           1573          55.00       214.47
   87.35        2976.50           1576          42.00       157.80
   87.38        2976.75           1579          52.00       201.40
   87.41        2977.00           1583          48.00       183.96
   87.44        2977.25           1586          44.00       166.52
   87.47        2977.50           1590          49.00       188.32
   87.50        2977.75           1593          42.00       157.80
   87.53        2978.00           1596          53.00       205.76
   87.56        2978.25           1600          48.00       183.96
   87.60        2978.50           1603          49.00       188.32
   87.63        2978.75           1606          46.00       175.24
   87.66        2979.00           1610          52.00       201.40
   87.69        2979.25           1613          49.00       188.32
   87.72        2979.50           1616          51.00       197.04
   87.75        2979.75           1620          50.00       192.68
   87.78        2980.00           1623          45.00       170.88
   87.81        2980.25           1626          48.00       183.96
   87.84        2980.50           1630          44.00       166.52
   87.87        2980.75           1633          47.00       179.60
   87.90        2981.00           1637          59.00       231.91
   87.93        2981.25           1640          48.00       183.96
   87.96        2981.50           1643          61.00       240.63
   87.99        2981.75           1647          53.00       205.76
   88.02        2982.00           1650          49.00       188.32
   88.06        2982.25           1653          53.00       205.76
   88.09        2982.50           1657          47.00       179.60
   88.12        2982.75           1660          47.00       179.60
   88.15        2983.00           1663          46.00       175.24
   88.18        2983.25           1667          45.00       170.88
   88.21        2983.50           1670          46.00       175.24
   88.24        2983.75           1673          53.00       205.76
   88.27        2984.00           1677          39.00       144.73
HS scan finished at 01:28:29
end
