************************************************************
  HS Scan of (1) Internal mercury lamp
************************************************************
Integration time is 0.2294 seconds per sample
dh300918Manchester 53.47 2.23 2.804185pr1000
************************************************************
Dead Time -------------------------  3E-08 
Number of Cycles Used -------------  4 
Starting Wavelength (Angstroms) ---  2950 
Final Wavelength (Angstoms) -------  2984 
Wavelength Increment (Angstroms) --  .25 
Filter Wheel #1 Position ---------- (1) Ground quartz diffuser (ND=2.32)
Filter Wheel #2 Position ---------- (1) Neutral Density 0.494



************************************************************
HS scan start time = 03:08:43
Dark Count =  6.2 


Time (GMT)  Wavelength (Ang)  Step Number  Raw Counts  Counts/Second

  189.09        2950.00           1222          46.00       173.50
  189.15        2950.25           1226          47.00       177.86
  189.19        2950.50           1229          54.00       208.37
  189.22        2950.75           1232          47.00       177.86
  189.25        2951.00           1236          48.00       182.22
  189.28        2951.25           1239          46.00       173.50
  189.31        2951.50           1242          46.00       173.50
  189.34        2951.75           1246          54.00       208.37
  189.37        2952.00           1249          55.00       212.73
  189.40        2952.25           1252          53.00       204.01
  189.43        2952.50           1256          52.00       199.65
  189.46        2952.75           1259          55.00       212.73
  189.49        2953.00           1262          51.00       195.29
  189.52        2953.25           1266          45.00       169.14
  189.56        2953.50           1269          48.00       182.22
  189.59        2953.75           1272          51.00       195.29
  189.62        2954.00           1276          44.00       164.78
  189.65        2954.25           1279          46.00       173.50
  189.68        2954.50           1282          51.00       195.29
  189.71        2954.75           1286          56.00       217.09
  189.74        2955.00           1289          48.00       182.22
  189.77        2955.25           1292          42.00       156.06
  189.80        2955.50           1296          45.00       169.14
  189.83        2955.75           1299          50.00       190.93
  189.86        2956.00           1302          48.00       182.22
  189.90        2956.25           1306          55.00       212.73
  189.93        2956.50           1309          67.00       265.04
  189.96        2956.75           1312          53.00       204.01
  189.99        2957.00           1316          48.00       182.22
  190.02        2957.25           1319          50.00       190.93
  190.05        2957.50           1322          54.00       208.37
  190.08        2957.75           1326          47.00       177.86
  190.11        2958.00           1329          50.00       190.93
  190.14        2958.25           1332          46.00       173.50
  190.17        2958.50           1336          48.00       182.22
  190.20        2958.75           1339          50.00       190.93
  190.23        2959.00           1342          53.00       204.01
  190.26        2959.25           1346          57.00       221.45
  190.29        2959.50           1349          63.00       247.60
  190.33        2959.75           1352          69.00       273.76
  190.36        2960.00           1356          88.00       356.59
  190.39        2960.25           1359         101.00       413.26
  190.42        2960.50           1362         135.00       561.47
  190.45        2960.75           1366         183.00       770.72
  190.48        2961.00           1369         209.00       884.07
  190.51        2961.25           1372         239.00      1014.85
  190.54        2961.50           1376         280.00      1193.59
  190.57        2961.75           1379         333.00      1424.65
  190.60        2962.00           1382         516.00      2222.47
  190.63        2962.25           1386        1480.00      6425.82
  190.67        2962.50           1389        2583.00     11236.57
  190.70        2962.75           1392        3694.00     16083.61
  190.73        2963.00           1396        5347.00     23297.88
  190.76        2963.25           1399        6533.00     28475.93
  190.79        2963.50           1402        7617.00     33210.06
  190.82        2963.75           1406        9222.00     40222.00
  190.85        2964.00           1409       10599.00     46240.22
  190.88        2964.25           1412       11836.00     51648.41
  190.91        2964.50           1416       13405.00     58510.64
  190.94        2964.75           1419       14673.00     64058.47
  190.98        2965.00           1422       15608.00     68150.53
  191.01        2965.25           1426       17372.00     75873.47
  191.04        2965.50           1429       18632.00     81392.06
  191.07        2965.75           1432       19971.00     87258.65
  191.10        2966.00           1436       21477.00     93859.39
  191.13        2966.25           1439       22690.00     99177.83
  191.16        2966.50           1442       23802.00    104054.90
  191.19        2966.75           1446       25081.00    109666.20
  191.22        2967.00           1449       25776.00    112716.20
  191.26        2967.25           1452       25911.00    113308.70
  191.29        2967.50           1456       25931.00    113396.50
  191.32        2967.75           1459       26012.00    113752.00
  191.35        2968.00           1462       25889.00    113212.10
  191.38        2968.25           1466       25561.00    111772.60
  191.41        2968.50           1469       24804.00    108450.80
  191.44        2968.75           1472       23632.00    103309.20
  191.47        2969.00           1476       22027.00     96270.66
  191.50        2969.25           1479       20929.00     91457.22
  191.53        2969.50           1482       19609.00     85672.41
  191.57        2969.75           1486       18014.00     78685.10
  191.60        2970.00           1489       16844.00     73561.47
  191.63        2970.25           1492       15793.00     68960.31
  191.66        2970.50           1496       14284.00     62356.30
  191.69        2970.75           1499       13218.00     57692.62
  191.72        2971.00           1502       12024.00     52470.50
  191.75        2971.25           1506       10457.00     45619.50
  191.78        2971.50           1509        9237.00     40287.55
  191.81        2971.75           1513        7533.00     32843.16
  191.85        2972.00           1516        6413.00     27951.94
  191.88        2972.25           1519        5138.00     22385.56
  191.91        2972.50           1523        3574.00     15560.01
  191.94        2972.75           1526        2377.00     10337.99
  191.97        2973.00           1529        1332.00      5780.43
  192.00        2973.25           1533         473.00      2035.00
  192.03        2973.50           1536         270.00      1150.00
  192.06        2973.75           1539         235.00       997.41
  192.09        2974.00           1543         196.00       827.40
  192.13        2974.25           1546         148.00       618.15
  192.16        2974.50           1549         116.00       478.65
  192.19        2974.75           1553          81.00       326.07
  192.22        2975.00           1556          67.00       265.04
  192.25        2975.25           1559          54.00       208.37
  192.28        2975.50           1563          54.00       208.37
  192.31        2975.75           1566          48.00       182.22
  192.34        2976.00           1569          48.00       182.22
  192.37        2976.25           1573          44.00       164.78
  192.40        2976.50           1576          40.00       147.34
  192.43        2976.75           1579          49.00       186.57
  192.46        2977.00           1583          47.00       177.86
  192.49        2977.25           1586          44.00       164.78
  192.52        2977.50           1590          40.00       147.34
  192.55        2977.75           1593          48.00       182.22
  192.58        2978.00           1596          50.00       190.93
  192.62        2978.25           1600          49.00       186.57
  192.65        2978.50           1603          52.00       199.65
  192.68        2978.75           1606          50.00       190.93
  192.71        2979.00           1610          60.00       234.53
  192.74        2979.25           1613          41.00       151.70
  192.77        2979.50           1616          47.00       177.86
  192.80        2979.75           1620          47.00       177.86
  192.83        2980.00           1623          51.00       195.29
  192.86        2980.25           1626          50.00       190.93
  192.89        2980.50           1630          42.00       156.06
  192.92        2980.75           1633          45.00       169.14
  192.96        2981.00           1637          44.00       164.78
  192.99        2981.25           1640          49.00       186.57
  193.02        2981.50           1643          45.00       169.14
  193.05        2981.75           1647          45.00       169.14
  193.08        2982.00           1650          43.00       160.42
  193.11        2982.25           1653          44.00       164.78
  193.14        2982.50           1657          45.00       169.14
  193.17        2982.75           1660          48.00       182.22
  193.20        2983.00           1663          43.00       160.42
  193.23        2983.25           1667          43.00       160.42
  193.26        2983.50           1670          49.00       186.57
  193.29        2983.75           1673          45.00       169.14
  193.32        2984.00           1677          43.00       160.42
HS scan finished at 03:13:32
end
************************************************************
  HS Scan of (1) Internal mercury lamp
************************************************************
Integration time is 0.2294 seconds per sample
dh300918Manchester 53.47 2.23 2.804185pr1000
************************************************************
Dead Time -------------------------  3E-08 
Number of Cycles Used -------------  4 
Starting Wavelength (Angstroms) ---  2950 
Final Wavelength (Angstoms) -------  2984 
Wavelength Increment (Angstroms) --  .25 
Filter Wheel #1 Position ---------- (1) Ground quartz diffuser (ND=2.32)
Filter Wheel #2 Position ---------- (1) Neutral Density 0.494



************************************************************
HS scan start time = 18:42:01
Dark Count =  6.4 


Time (GMT)  Wavelength (Ang)  Step Number  Raw Counts  Counts/Second

 1122.39        2950.00           1222          55.00       211.86
 1122.46        2950.25           1226          52.00       198.78
 1122.49        2950.50           1229          48.00       181.34
 1122.52        2950.75           1232          57.00       220.58
 1122.55        2951.00           1236          55.00       211.86
 1122.58        2951.25           1239          52.00       198.78
 1122.61        2951.50           1242          50.00       190.06
 1122.64        2951.75           1246          53.00       203.14
 1122.68        2952.00           1249          45.00       168.27
 1122.71        2952.25           1252          58.00       224.94
 1122.74        2952.50           1256          55.00       211.86
 1122.77        2952.75           1259          50.00       190.06
 1122.80        2953.00           1262          48.00       181.34
 1122.83        2953.25           1266          48.00       181.34
 1122.86        2953.50           1269          55.00       211.86
 1122.89        2953.75           1272          58.00       224.94
 1122.92        2954.00           1276          60.00       233.65
 1122.95        2954.25           1279          53.00       203.14
 1122.99        2954.50           1282          52.00       198.78
 1123.02        2954.75           1286          51.00       194.42
 1123.05        2955.00           1289          53.00       203.14
 1123.08        2955.25           1292          51.00       194.42
 1123.11        2955.50           1296          56.00       216.22
 1123.14        2955.75           1299          46.00       172.63
 1123.17        2956.00           1302          43.00       159.55
 1123.20        2956.25           1306          48.00       181.34
 1123.23        2956.50           1309          49.00       185.70
 1123.26        2956.75           1312          55.00       211.86
 1123.29        2957.00           1316          52.00       198.78
 1123.32        2957.25           1319          46.00       172.63
 1123.35        2957.50           1322          58.00       224.94
 1123.38        2957.75           1326          48.00       181.34
 1123.42        2958.00           1329          51.00       194.42
 1123.45        2958.25           1332          51.00       194.42
 1123.48        2958.50           1336          41.00       150.83
 1123.51        2958.75           1339          51.00       194.42
 1123.54        2959.00           1342          48.00       181.34
 1123.57        2959.25           1346          55.00       211.86
 1123.60        2959.50           1349          58.00       224.94
 1123.63        2959.75           1352          58.00       224.94
 1123.66        2960.00           1356          87.00       351.36
 1123.69        2960.25           1359         106.00       434.18
 1123.72        2960.50           1362         139.00       578.04
 1123.75        2960.75           1366         173.00       726.26
 1123.79        2961.00           1369         216.00       913.71
 1123.82        2961.25           1372         258.00      1096.81
 1123.85        2961.50           1376         332.00      1419.42
 1123.88        2961.75           1379         538.00      2317.51
 1123.91        2962.00           1382        1211.00      5251.92
 1123.94        2962.25           1386        2580.00     11222.61
 1123.97        2962.50           1389        3706.00     16135.10
 1124.00        2962.75           1392        4821.00     21001.02
 1124.03        2963.00           1396        6325.00     27566.82
 1124.06        2963.25           1399        7441.00     32440.45
 1124.10        2963.50           1402        8696.00     37922.81
 1124.13        2963.75           1406       10233.00     44639.51
 1124.16        2964.00           1409       11588.00     50563.13
 1124.19        2964.25           1412       12822.00     55959.61
 1124.22        2964.50           1416       14273.00     62307.30
 1124.25        2964.75           1419       15564.00     67957.06
 1124.28        2965.00           1422       16823.00     73468.65
 1124.31        2965.25           1426       18335.00     80090.20
 1124.34        2965.50           1429       19653.00     85864.31
 1124.38        2965.75           1432       20801.00     90895.31
 1124.41        2966.00           1436       22417.00     97979.82
 1124.44        2966.25           1439       23559.00    102988.20
 1124.47        2966.50           1442       24517.00    107190.70
 1124.50        2966.75           1446       25728.00    112504.60
 1124.53        2967.00           1449       25810.00    112864.50
 1124.56        2967.25           1452       25755.00    112623.10
 1124.59        2967.50           1456       25896.00    113242.00
 1124.62        2967.75           1459       25829.00    112947.90
 1124.65        2968.00           1462       25674.00    112267.60
 1124.69        2968.25           1466       24931.00    109007.20
 1124.72        2968.50           1469       23793.00    104014.60
 1124.75        2968.75           1472       22603.00     98795.44
 1124.78        2969.00           1476       21264.00     92924.78
 1124.81        2969.25           1479       20060.00     87647.77
 1124.84        2969.50           1482       19037.00     83165.38
 1124.87        2969.75           1486       17402.00     76003.97
 1124.90        2970.00           1489       16178.00     70644.77
 1124.93        2970.25           1492       15069.00     65790.58
 1124.97        2970.50           1496       13523.00     59025.97
 1125.00        2970.75           1499       12180.00     53151.82
 1125.03        2971.00           1502       11057.00     48241.52
 1125.06        2971.25           1506        9409.00     41038.29
 1125.09        2971.50           1509        8183.00     35681.59
 1125.12        2971.75           1513        6618.00     28846.23
 1125.15        2972.00           1516        5352.00     23318.84
 1125.18        2972.25           1519        4158.00     18107.48
 1125.21        2972.50           1523        2725.00     11855.13
 1125.24        2972.75           1526        1684.00      7314.60
 1125.27        2973.00           1529         766.00      3311.58
 1125.30        2973.25           1533         370.00      1585.08
 1125.34        2973.50           1536         269.00      1144.76
 1125.37        2973.75           1539         242.00      1027.06
 1125.40        2974.00           1543         198.00       835.24
 1125.43        2974.25           1546         160.00       669.59
 1125.46        2974.50           1549         109.00       447.26
 1125.49        2974.75           1553          89.00       360.07
 1125.52        2975.00           1556          67.00       264.17
 1125.55        2975.25           1559          50.00       190.06
 1125.58        2975.50           1563          45.00       168.27
 1125.62        2975.75           1566          51.00       194.42
 1125.65        2976.00           1569          46.00       172.63
 1125.68        2976.25           1573          57.00       220.58
 1125.71        2976.50           1576          43.00       159.55
 1125.74        2976.75           1579          43.00       159.55
 1125.77        2977.00           1583          44.00       163.91
 1125.80        2977.25           1586          47.00       176.98
 1125.83        2977.50           1590          45.00       168.27
 1125.86        2977.75           1593          48.00       181.34
 1125.89        2978.00           1596          52.00       198.78
 1125.92        2978.25           1600          52.00       198.78
 1125.95        2978.50           1603          48.00       181.34
 1125.98        2978.75           1606          48.00       181.34
 1126.02        2979.00           1610          53.00       203.14
 1126.05        2979.25           1613          58.00       224.94
 1126.08        2979.50           1616          46.00       172.63
 1126.11        2979.75           1620          50.00       190.06
 1126.14        2980.00           1623          48.00       181.34
 1126.17        2980.25           1626          45.00       168.27
 1126.20        2980.50           1630          46.00       172.63
 1126.23        2980.75           1633          45.00       168.27
 1126.27        2981.00           1637          46.00       172.63
 1126.30        2981.25           1640          45.00       168.27
 1126.33        2981.50           1643          46.00       172.63
 1126.36        2981.75           1647          41.00       150.83
 1126.39        2982.00           1650          49.00       185.70
 1126.42        2982.25           1653          43.00       159.55
