************************************************************
  HS Scan of (1) Internal mercury lamp
************************************************************
Integration time is 0.2294 seconds per sample
dh171017Manchester 53.47 2.23 2.804185pr1000
************************************************************
Dead Time -------------------------  3E-08 
Number of Cycles Used -------------  4 
Starting Wavelength (Angstroms) ---  2950 
Final Wavelength (Angstoms) -------  2984 
Wavelength Increment (Angstroms) --  .25 
Filter Wheel #1 Position ---------- (1) Ground quartz diffuser (ND=2.32)
Filter Wheel #2 Position ---------- (1) Neutral Density 0.494



************************************************************
HS scan start time = 03:51:22
Dark Count =  5.2 


Time (GMT)  Wavelength (Ang)  Step Number  Raw Counts  Counts/Second

  231.73        2950.00           1222          74.00       299.92
  231.80        2950.25           1226          74.00       299.92
  231.83        2950.50           1229          71.00       286.84
  231.86        2950.75           1232          72.00       291.20
  231.89        2951.00           1236          68.00       273.76
  231.93        2951.25           1239          67.00       269.40
  231.96        2951.50           1242          72.00       291.20
  231.99        2951.75           1246          69.00       278.12
  232.02        2952.00           1249          58.00       230.17
  232.05        2952.25           1252          75.00       304.27
  232.08        2952.50           1256          66.00       265.04
  232.11        2952.75           1259          69.00       278.12
  232.14        2953.00           1262          63.00       251.96
  232.17        2953.25           1266          78.00       317.35
  232.20        2953.50           1269          64.00       256.32
  232.23        2953.75           1272          70.00       282.48
  232.26        2954.00           1276          65.00       260.68
  232.30        2954.25           1279          70.00       282.48
  232.33        2954.50           1282          61.00       243.25
  232.36        2954.75           1286          63.00       251.96
  232.39        2955.00           1289          64.00       256.32
  232.42        2955.25           1292          64.00       256.32
  232.45        2955.50           1296          81.00       330.43
  232.48        2955.75           1299          69.00       278.12
  232.51        2956.00           1302          62.00       247.60
  232.54        2956.25           1306          66.00       265.04
  232.57        2956.50           1309          77.00       312.99
  232.60        2956.75           1312          78.00       317.35
  232.64        2957.00           1316          66.00       265.04
  232.67        2957.25           1319          64.00       256.32
  232.70        2957.50           1322          66.00       265.04
  232.73        2957.75           1326          68.00       273.76
  232.76        2958.00           1329          67.00       269.40
  232.79        2958.25           1332          70.00       282.48
  232.82        2958.50           1336          65.00       260.68
  232.85        2958.75           1339          72.00       291.20
  232.88        2959.00           1342          73.00       295.56
  232.91        2959.25           1346          74.00       299.92
  232.94        2959.50           1349          79.00       321.71
  232.98        2959.75           1352         106.00       439.41
  233.01        2960.00           1356         125.00       522.24
  233.04        2960.25           1359         171.00       722.77
  233.07        2960.50           1362         195.00       827.40
  233.10        2960.75           1366         247.00      1054.09
  233.13        2961.00           1369         290.00      1241.55
  233.16        2961.25           1372         333.00      1429.01
  233.19        2961.50           1376         392.00      1686.22
  233.22        2961.75           1379         473.00      2039.36
  233.25        2962.00           1382         792.00      3430.17
  233.28        2962.25           1386        2232.00      9709.89
  233.31        2962.50           1389        3802.00     16559.23
  233.35        2962.75           1392        5247.00     22865.72
  233.38        2963.00           1396        7221.00     31484.83
  233.41        2963.25           1399        8803.00     38395.55
  233.44        2963.50           1402       10380.00     45287.30
  233.47        2963.75           1406       12455.00     54359.72
  233.50        2964.00           1409       14169.00     61857.49
  233.53        2964.25           1412       15485.00     67616.54
  233.56        2964.50           1416       17866.00     78041.27
  233.60        2964.75           1419       19494.00     85172.89
  233.63        2965.00           1422       20766.00     90747.16
  233.66        2965.25           1426       23324.00    101962.70
  233.69        2965.50           1429       24815.00    108503.50
  233.72        2965.75           1432       26424.00    115564.70
  233.75        2966.00           1436       28314.00    123863.10
  233.78        2966.25           1439       29790.00    130346.60
  233.81        2966.50           1442       31284.00    136911.70
  233.84        2966.75           1446       32957.00    144266.50
  233.87        2967.00           1449       33640.00    147270.00
  233.90        2967.25           1452       33867.00    148268.40
  233.93        2967.50           1456       33882.00    148334.30
  233.96        2967.75           1459       33739.00    147705.40
  234.00        2968.00           1462       33817.00    148048.40
  234.03        2968.25           1466       33189.00    145286.60
  234.06        2968.50           1469       31766.00    139030.30
  234.09        2968.75           1472       30396.00    133009.20
  234.12        2969.00           1476       28357.00    124051.90
  234.15        2969.25           1479       26891.00    117614.80
  234.18        2969.50           1482       25398.00    111061.70
  234.21        2969.75           1486       23216.00    101489.00
  234.24        2970.00           1489       21695.00     94819.47
  234.27        2970.25           1492       20323.00     88805.59
  234.31        2970.50           1496       18201.00     79508.53
  234.34        2970.75           1499       16635.00     72650.77
  234.37        2971.00           1502       15047.00     65699.56
  234.40        2971.25           1506       12874.00     56192.30
  234.43        2971.50           1509       11210.00     48915.67
  234.46        2971.75           1513        9160.00     39955.45
  234.49        2972.00           1516        7772.00     33891.46
  234.52        2972.25           1519        6190.00     26982.60
  234.56        2972.50           1523        4318.00     18810.96
  234.59        2972.75           1526        2739.00     11921.44
  234.62        2973.00           1529        1317.00      5719.38
  234.65        2973.25           1533         481.00      2074.24
  234.68        2973.50           1536         337.00      1446.44
  234.71        2973.75           1539         285.00      1219.75
  234.74        2974.00           1543         240.00      1023.57
  234.77        2974.25           1546         167.00       705.33
  234.80        2974.50           1549         137.00       574.55
  234.83        2974.75           1553         103.00       426.34
  234.86        2975.00           1556          84.00       343.51
  234.90        2975.25           1559          78.00       317.35
  234.93        2975.50           1563          66.00       265.04
  234.96        2975.75           1566          59.00       234.53
  234.99        2976.00           1569          59.00       234.53
  235.02        2976.25           1573          65.00       260.68
  235.05        2976.50           1576          71.00       286.84
  235.08        2976.75           1579          64.00       256.32
  235.11        2977.00           1583          70.00       282.48
  235.14        2977.25           1586          64.00       256.32
  235.17        2977.50           1590          63.00       251.96
  235.20        2977.75           1593          68.00       273.76
  235.23        2978.00           1596          65.00       260.68
  235.27        2978.25           1600          64.00       256.32
  235.30        2978.50           1603          70.00       282.48
  235.33        2978.75           1606          61.00       243.25
  235.36        2979.00           1610          58.00       230.17
  235.39        2979.25           1613          59.00       234.53
  235.42        2979.50           1616          64.00       256.32
  235.45        2979.75           1620          63.00       251.96
  235.48        2980.00           1623          59.00       234.53
  235.51        2980.25           1626          56.00       221.45
  235.54        2980.50           1630          64.00       256.32
  235.57        2980.75           1633          74.00       299.92
  235.60        2981.00           1637          60.00       238.89
  235.63        2981.25           1640          63.00       251.96
  235.67        2981.50           1643          66.00       265.04
  235.70        2981.75           1647          64.00       256.32
  235.73        2982.00           1650          66.00       265.04
  235.76        2982.25           1653          54.00       212.73
  235.79        2982.50           1657          62.00       247.60
  235.82        2982.75           1660          59.00       234.53
  235.85        2983.00           1663          61.00       243.25
  235.88        2983.25           1667          58.00       230.17
  235.91        2983.50           1670          55.00       217.09
  235.94        2983.75           1673          66.00       265.04
  235.97        2984.00           1677          60.00       238.89
HS scan finished at 03:56:11
end
