************************************************************
  HS Scan of (1) Internal mercury lamp
************************************************************
Integration time is 0.2294 seconds per sample
dh221018Manchester 53.47 2.23 2.804185pr1000
************************************************************
Dead Time -------------------------  3E-08 
Number of Cycles Used -------------  4 
Starting Wavelength (Angstroms) ---  2950 
Final Wavelength (Angstoms) -------  2984 
Wavelength Increment (Angstroms) --  .25 
Filter Wheel #1 Position ---------- (1) Ground quartz diffuser (ND=2.32)
Filter Wheel #2 Position ---------- (1) Neutral Density 0.494



************************************************************
HS scan start time = 04:01:12
Dark Count =  4.5 


Time (GMT)  Wavelength (Ang)  Step Number  Raw Counts  Counts/Second

  241.57        2950.00           1222          49.00       193.99
  241.64        2950.25           1226          51.00       202.70
  241.67        2950.50           1229          43.00       167.83
  241.70        2950.75           1232          50.00       198.34
  241.73        2951.00           1236          56.00       224.50
  241.76        2951.25           1239          44.00       172.19
  241.79        2951.50           1242          50.00       198.34
  241.82        2951.75           1246          47.00       185.27
  241.85        2952.00           1249          53.00       211.42
  241.88        2952.25           1252          60.00       241.94
  241.91        2952.50           1256          55.00       220.14
  241.94        2952.75           1259          54.00       215.78
  241.98        2953.00           1262          42.00       163.47
  242.01        2953.25           1266          52.00       207.06
  242.04        2953.50           1269          55.00       220.14
  242.07        2953.75           1272          65.00       263.73
  242.10        2954.00           1276          52.00       207.06
  242.13        2954.25           1279          49.00       193.99
  242.16        2954.50           1282          59.00       237.58
  242.19        2954.75           1286          53.00       211.42
  242.22        2955.00           1289          50.00       198.34
  242.25        2955.25           1292          45.00       176.55
  242.29        2955.50           1296          44.00       172.19
  242.32        2955.75           1299          53.00       211.42
  242.35        2956.00           1302          49.00       193.99
  242.38        2956.25           1306          53.00       211.42
  242.41        2956.50           1309          52.00       207.06
  242.44        2956.75           1312          47.00       185.27
  242.47        2957.00           1316          55.00       220.14
  242.50        2957.25           1319          59.00       237.58
  242.53        2957.50           1322          49.00       193.99
  242.56        2957.75           1326          47.00       185.27
  242.59        2958.00           1329          50.00       198.34
  242.62        2958.25           1332          43.00       167.83
  242.65        2958.50           1336          46.00       180.91
  242.68        2958.75           1339          53.00       211.42
  242.72        2959.00           1342          56.00       224.50
  242.75        2959.25           1346          48.00       189.63
  242.78        2959.50           1349          58.00       233.22
  242.81        2959.75           1352          55.00       220.14
  242.84        2960.00           1356          86.00       355.28
  242.87        2960.25           1359          88.00       364.00
  242.90        2960.50           1362         127.00       534.01
  242.93        2960.75           1366         159.00       673.51
  242.96        2961.00           1369         188.00       799.93
  242.99        2961.25           1372         234.00      1000.47
  243.02        2961.50           1376         277.00      1187.92
  243.06        2961.75           1379         398.00      1715.43
  243.09        2962.00           1382         868.00      3764.59
  243.12        2962.25           1386        2148.00      9346.56
  243.15        2962.50           1389        3263.00     14210.50
  243.18        2962.75           1392        4362.00     19006.04
  243.21        2963.00           1396        5870.00     25588.51
  243.24        2963.25           1399        7047.00     30727.97
  243.27        2963.50           1402        8062.00     35161.31
  243.30        2963.75           1406        9664.00     42160.97
  243.34        2964.00           1409       10987.00     47943.80
  243.37        2964.25           1412       12206.00     53273.83
  243.40        2964.50           1416       13607.00     59401.76
  243.43        2964.75           1419       14766.00     64472.89
  243.46        2965.00           1422       15876.00     69331.06
  243.49        2965.25           1426       17505.00     76463.35
  243.52        2965.50           1429       18616.00     81329.40
  243.55        2965.75           1432       19696.00     86061.06
  243.58        2966.00           1436       21278.00     92994.49
  243.62        2966.25           1439       22427.00     98032.00
  243.65        2966.50           1442       23532.00    102878.10
  243.68        2966.75           1446       24759.00    108260.80
  243.71        2967.00           1449       25074.00    109643.00
  243.74        2967.25           1452       25125.00    109866.80
  243.77        2967.50           1456       25188.00    110143.20
  243.80        2967.75           1459       25275.00    110525.00
  243.83        2968.00           1462       25068.00    109616.60
  243.86        2968.25           1466       24426.00    106799.80
  243.89        2968.50           1469       23403.00    102312.20
  243.92        2968.75           1472       22431.00     98049.54
  243.96        2969.00           1476       20914.00     91398.92
  243.99        2969.25           1479       19493.00     85171.59
  244.02        2969.50           1482       18538.00     80987.73
  244.05        2969.75           1486       16957.00     74063.68
  244.08        2970.00           1489       15930.00     69567.45
  244.11        2970.25           1492       14785.00     64556.03
  244.14        2970.50           1496       13252.00     57848.79
  244.17        2970.75           1499       12232.00     53387.53
  244.20        2971.00           1502       10965.00     47847.62
  244.23        2971.25           1506        9505.00     41466.11
  244.26        2971.50           1509        8266.00     36052.49
  244.30        2971.75           1513        6672.00     29090.33
  244.33        2972.00           1516        5460.00     23798.59
  244.36        2972.25           1519        4339.00     18905.66
  244.39        2972.50           1523        2822.00     12286.57
  244.42        2972.75           1526        1785.00      7763.36
  244.45        2973.00           1529         776.00      3363.46
  244.48        2973.25           1533         357.00      1536.69
  244.51        2973.50           1536         254.00      1087.66
  244.54        2973.75           1539         237.00      1013.54
  244.57        2974.00           1543         178.00       756.34
  244.61        2974.25           1546         155.00       656.07
  244.64        2974.50           1549         101.00       420.67
  244.67        2974.75           1553          86.00       355.28
  244.70        2975.00           1556          64.00       259.37
  244.73        2975.25           1559          57.00       228.86
  244.76        2975.50           1563          52.00       207.06
  244.79        2975.75           1566          52.00       207.06
  244.82        2976.00           1569          49.00       193.99
  244.85        2976.25           1573          40.00       154.75
  244.88        2976.50           1576          52.00       207.06
  244.91        2976.75           1579          47.00       185.27
  244.95        2977.00           1583          47.00       185.27
  244.98        2977.25           1586          46.00       180.91
  245.01        2977.50           1590          39.00       150.39
  245.04        2977.75           1593          50.00       198.34
  245.07        2978.00           1596          49.00       193.99
  245.10        2978.25           1600          44.00       172.19
  245.13        2978.50           1603          48.00       189.63
  245.16        2978.75           1606          50.00       198.34
  245.19        2979.00           1610          47.00       185.27
  245.22        2979.25           1613          42.00       163.47
  245.25        2979.50           1616          54.00       215.78
  245.28        2979.75           1620          51.00       202.70
  245.32        2980.00           1623          46.00       180.91
  245.35        2980.25           1626          41.00       159.11
  245.38        2980.50           1630          36.00       137.32
  245.41        2980.75           1633          43.00       167.83
  245.44        2981.00           1637          50.00       198.34
  245.47        2981.25           1640          49.00       193.99
  245.50        2981.50           1643          53.00       211.42
  245.53        2981.75           1647          49.00       193.99
  245.56        2982.00           1650          46.00       180.91
  245.59        2982.25           1653          45.00       176.55
  245.62        2982.50           1657          48.00       189.63
  245.66        2982.75           1660          39.00       150.39
  245.69        2983.00           1663          45.00       176.55
  245.72        2983.25           1667          44.00       172.19
  245.75        2983.50           1670          40.00       154.75
  245.78        2983.75           1673          39.00       150.39
  245.81        2984.00           1677          52.00       207.06
HS scan finished at 04:06:02
end
************************************************************
  HS Scan of (1) Internal mercury lamp
************************************************************
Integration time is 0.2294 seconds per sample
dh221018Manchester 53.47 2.23 2.804185pr1000
************************************************************
Dead Time -------------------------  3E-08 
Number of Cycles Used -------------  4 
Starting Wavelength (Angstroms) ---  2950 
Final Wavelength (Angstoms) -------  2984 
Wavelength Increment (Angstroms) --  .25 
Filter Wheel #1 Position ---------- (1) Ground quartz diffuser (ND=2.32)
Filter Wheel #2 Position ---------- (1) Neutral Density 0.494



************************************************************
HS scan start time = 18:12:00
Dark Count =  7.4 


Time (GMT)  Wavelength (Ang)  Step Number  Raw Counts  Counts/Second

 1092.36        2950.00           1222          52.00       194.42
 1092.43        2950.25           1226          55.00       207.50
 1092.46        2950.50           1229          41.00       146.47
 1092.49        2950.75           1232          54.00       203.14
 1092.52        2951.00           1236          42.00       150.83
 1092.55        2951.25           1239          53.00       198.78
 1092.58        2951.50           1242          55.00       207.50
 1092.61        2951.75           1246          46.00       168.27
 1092.64        2952.00           1249          54.00       203.14
 1092.68        2952.25           1252          51.00       190.06
 1092.71        2952.50           1256          50.00       185.70
 1092.74        2952.75           1259          52.00       194.42
 1092.77        2953.00           1262          50.00       185.70
 1092.80        2953.25           1266          53.00       198.78
 1092.83        2953.50           1269          44.00       159.55
 1092.86        2953.75           1272          46.00       168.27
 1092.89        2954.00           1276          51.00       190.06
 1092.92        2954.25           1279          53.00       198.78
 1092.95        2954.50           1282          44.00       159.55
 1092.98        2954.75           1286          50.00       185.70
 1093.02        2955.00           1289          51.00       190.06
 1093.05        2955.25           1292          57.00       216.22
 1093.08        2955.50           1296          51.00       190.06
 1093.11        2955.75           1299          54.00       203.14
 1093.14        2956.00           1302          53.00       198.78
 1093.17        2956.25           1306          55.00       207.50
 1093.20        2956.50           1309          54.00       203.14
 1093.23        2956.75           1312          47.00       172.63
 1093.26        2957.00           1316          54.00       203.14
 1093.29        2957.25           1319          55.00       207.50
 1093.32        2957.50           1322          48.00       176.98
 1093.35        2957.75           1326          49.00       181.34
 1093.38        2958.00           1329          50.00       185.70
 1093.41        2958.25           1332          48.00       176.98
 1093.45        2958.50           1336          52.00       194.42
 1093.48        2958.75           1339          55.00       207.50
 1093.51        2959.00           1342          47.00       172.63
 1093.54        2959.25           1346          54.00       203.14
 1093.57        2959.50           1349          61.00       233.65
 1093.60        2959.75           1352          73.00       285.97
 1093.63        2960.00           1356         109.00       442.90
 1093.66        2960.25           1359         124.00       508.29
 1093.69        2960.50           1362         146.00       604.20
 1093.72        2960.75           1366         178.00       743.70
 1093.75        2961.00           1369         230.00       970.39
 1093.79        2961.25           1372         249.00      1053.22
 1093.82        2961.50           1376         302.00      1284.27
 1093.85        2961.75           1379         438.00      1877.18
 1093.88        2962.00           1382         984.00      4257.74
 1093.91        2962.25           1386        2262.00      9831.15
 1093.94        2962.50           1389        3347.00     14564.34
 1093.97        2962.75           1392        4446.00     19359.98
 1094.00        2963.00           1396        6003.00     26156.52
 1094.03        2963.25           1399        6989.00     30462.01
 1094.06        2963.50           1402        8232.00     35891.29
 1094.10        2963.75           1406        9783.00     42668.36
 1094.13        2964.00           1409       11020.00     48075.39
 1094.16        2964.25           1412       12327.00     53790.31
 1094.19        2964.50           1416       14025.00     61217.82
 1094.22        2964.75           1419       14957.00     65296.05
 1094.25        2965.00           1422       16195.00     70714.81
 1094.28        2965.25           1426       17741.00     77484.18
 1094.31        2965.50           1429       18938.00     82727.30
 1094.35        2965.75           1432       19921.00     87034.28
 1094.38        2966.00           1436       21622.00     94489.79
 1094.41        2966.25           1439       22692.00     99181.34
 1094.44        2966.50           1442       23651.00    103387.30
 1094.47        2966.75           1446       24673.00    107870.80
 1094.50        2967.00           1449       25015.00    109371.40
 1094.53        2967.25           1452       25033.00    109450.30
 1094.56        2967.50           1456       24942.00    109051.10
 1094.59        2967.75           1459       25123.00    109845.30
 1094.62        2968.00           1462       24695.00    107967.30
 1094.66        2968.25           1466       24082.00    105277.90
 1094.69        2968.50           1469       23081.00    100887.30
 1094.72        2968.75           1472       22097.00     96572.31
 1094.75        2969.00           1476       20674.00     90334.28
 1094.78        2969.25           1479       19278.00     84216.87
 1094.81        2969.50           1482       18462.00     80642.12
 1094.84        2969.75           1486       16833.00     73508.04
 1094.87        2970.00           1489       15703.00     68561.10
 1094.90        2970.25           1492       14550.00     63514.98
 1094.93        2970.50           1496       13138.00     57337.43
 1094.97        2970.75           1499       12004.00     52377.80
 1095.00        2971.00           1502       10685.00     46610.90
 1095.03        2971.25           1506        9256.00     40365.33
 1095.06        2971.50           1509        8012.00     34930.22
 1095.09        2971.75           1513        6615.00     28828.76
 1095.12        2972.00           1516        5535.00     24113.35
 1095.15        2972.25           1519        4356.00     18967.20
 1095.18        2972.50           1523        2981.00     12967.56
 1095.21        2972.75           1526        1868.00      8112.70
 1095.24        2973.00           1529         824.00      3560.10
 1095.27        2973.25           1533         332.00      1415.06
 1095.31        2973.50           1536         235.00       992.18
 1095.34        2973.75           1539         204.00       857.04
 1095.37        2974.00           1543         174.00       726.26
 1095.40        2974.25           1546         119.00       486.49
 1095.43        2974.50           1549          90.00       360.07
 1095.46        2974.75           1553          70.00       272.89
 1095.49        2975.00           1556          61.00       233.65
 1095.52        2975.25           1559          51.00       190.06
 1095.55        2975.50           1563          41.00       146.47
 1095.58        2975.75           1566          43.00       155.19
 1095.61        2976.00           1569          54.00       203.14
 1095.64        2976.25           1573          45.00       163.91
 1095.67        2976.50           1576          53.00       198.78
 1095.70        2976.75           1579          50.00       185.70
 1095.74        2977.00           1583          48.00       176.98
 1095.77        2977.25           1586          49.00       181.34
 1095.80        2977.50           1590          53.00       198.78
 1095.83        2977.75           1593          58.00       220.58
 1095.86        2978.00           1596          58.00       220.58
 1095.89        2978.25           1600          56.00       211.86
 1095.92        2978.50           1603          47.00       172.63
 1095.95        2978.75           1606          51.00       190.06
 1095.98        2979.00           1610          48.00       176.98
 1096.01        2979.25           1613          50.00       185.70
 1096.04        2979.50           1616          42.00       150.83
 1096.07        2979.75           1620          40.00       142.11
 1096.10        2980.00           1623          46.00       168.27
 1096.14        2980.25           1626          45.00       163.91
 1096.17        2980.50           1630          42.00       150.83
 1096.20        2980.75           1633          43.00       155.19
 1096.23        2981.00           1637          38.00       133.39
 1096.26        2981.25           1640          45.00       163.91
 1096.29        2981.50           1643          39.00       137.75
 1096.32        2981.75           1647          51.00       190.06
 1096.35        2982.00           1650          43.00       155.19
 1096.38        2982.25           1653          51.00       190.06
