************************************************************
  CZ Scan of (1) Internal mercury lamp
************************************************************
Integration time is 0.2294 seconds per sample
dh161017Izana 28.3081 16.4992 2.857833pr770
************************************************************
Dead Time -------------------------  3E-08 
Number of Cycles Used -------------  2 
Starting Wavelength (Angstroms) ---  2900 
Final Wavelength (Angstoms) -------  3200 
Wavelength Increment (Angstroms) --  1 
Filter Wheel #1 Position ---------- (1) Ground quartz diffuser (ND=2.32)
Filter Wheel #2 Position ---------- (0) Clear Aperture

hg sa

************************************************************
CZ scan start time = 11:36:50
Dark Count =  1.05 


Time (GMT)  Wavelength (Ang)  Step Number  Raw Counts  Counts/Second

  697.23        2900.00            569         215.00      1865.41
  697.29        2901.00            582         223.00      1935.16
  697.31        2902.00            595         219.00      1900.28
  697.33        2903.00            608         205.00      1778.21
  697.35        2904.00            621         214.00      1856.69
  697.37        2905.00            634         211.00      1830.53
  697.39        2906.00            648         215.00      1865.41
  697.41        2907.00            661         231.00      2004.92
  697.43        2908.00            674         248.00      2153.15
  697.45        2909.00            687         279.00      2423.45
  697.47        2910.00            700         298.00      2589.13
  697.49        2911.00            713         331.00      2876.88
  697.51        2912.00            726         325.00      2824.56
  697.53        2913.00            740         331.00      2876.88
  697.55        2914.00            753         291.00      2528.09
  697.57        2915.00            766         267.00      2318.82
  697.59        2916.00            779         382.00      3321.60
  697.61        2917.00            792         615.00      5353.52
  697.63        2918.00            805         814.00      7089.13
  697.65        2919.00            819        1127.00      9819.37
  697.67        2920.00            832        1402.00     12218.51
  697.69        2921.00            845        1530.00     13335.33
  697.71        2922.00            858        1457.00     12698.38
  697.73        2923.00            871        1217.00     10604.51
  697.75        2924.00            885         957.00      8336.43
  697.77        2925.00            898         699.00      6086.12
  697.79        2926.00            911         422.00      3670.41
  697.81        2927.00            924         202.00      1752.05
  697.83        2928.00            937         186.00      1612.55
  697.85        2929.00            951         189.00      1638.70
  697.87        2930.00            964         192.00      1664.86
  697.89        2931.00            977         189.00      1638.70
  697.91        2932.00            990         182.00      1577.67
  697.93        2933.00           1003         181.00      1568.95
  697.95        2934.00           1017         180.00      1560.23
  697.97        2935.00           1030         185.00      1603.83
  697.99        2936.00           1043         170.00      1473.04
  698.01        2937.00           1056         185.00      1603.83
  698.03        2938.00           1070         168.00      1455.60
  698.05        2939.00           1083         164.00      1420.72
  698.07        2940.00           1096         175.00      1516.63
  698.09        2941.00           1109         176.00      1525.35
  698.11        2942.00           1123         175.00      1516.63
  698.14        2943.00           1136         164.00      1420.72
  698.16        2944.00           1149         171.00      1481.76
  698.18        2945.00           1162         175.00      1516.63
  698.20        2946.00           1176         158.00      1368.41
  698.22        2947.00           1189         164.00      1420.72
  698.24        2948.00           1202         162.00      1403.28
  698.26        2949.00           1216         153.00      1324.81
  698.28        2950.00           1229         166.00      1438.16
  698.30        2951.00           1242         159.00      1377.13
  698.32        2952.00           1255         150.00      1298.66
  698.34        2953.00           1269         161.00      1394.57
  698.36        2954.00           1282         151.00      1307.37
  698.38        2955.00           1295         152.00      1316.09
  698.40        2956.00           1309         164.00      1420.72
  698.42        2957.00           1322         265.00      2301.38
  698.44        2958.00           1335        8852.00     77345.35
  698.46        2959.00           1349       25197.00    221130.40
  698.48        2960.00           1362       40776.00    359345.20
  698.50        2961.00           1375       55549.00    491482.60
  698.53        2962.00           1389       70114.00    622800.90
  698.55        2963.00           1402       72744.00    646624.70
  698.57        2964.00           1415       66992.00    594565.00
  698.59        2965.00           1429       52586.00    464895.20
  698.61        2966.00           1442       37180.00    327339.60
  698.63        2967.00           1455       23474.00    205914.60
  698.65        2968.00           1469        6834.00     59679.12
  698.67        2969.00           1482         268.00      2327.54
  698.69        2970.00           1495         173.00      1499.20
  698.71        2971.00           1509         152.00      1316.09
  698.73        2972.00           1522         146.00      1263.78
  698.75        2973.00           1536         136.00      1176.59
  698.77        2974.00           1549         144.00      1246.34
  698.79        2975.00           1562         143.00      1237.62
  698.81        2976.00           1576         135.00      1167.87
  698.83        2977.00           1589         140.00      1211.47
  698.85        2978.00           1602         140.00      1211.47
  698.87        2979.00           1616         123.00      1063.24
  698.89        2980.00           1629         130.00      1124.28
  698.91        2981.00           1643         126.00      1089.40
  698.93        2982.00           1656         126.00      1089.40
  698.95        2983.00           1669         137.00      1185.31
  698.98        2984.00           1683         120.00      1037.09
  699.00        2985.00           1696         126.00      1089.40
  699.02        2986.00           1710         131.00      1132.99
  699.04        2987.00           1723         124.00      1071.96
  699.06        2988.00           1737         132.00      1141.71
  699.08        2989.00           1750         126.00      1089.40
  699.10        2990.00           1763         122.00      1054.52
  699.12        2991.00           1777         115.00       993.49
  699.14        2992.00           1790         130.00      1124.28
  699.16        2993.00           1804         122.00      1054.52
  699.18        2994.00           1817         127.00      1098.12
  699.20        2995.00           1831         123.00      1063.24
  699.22        2996.00           1844         117.00      1010.93
  699.24        2997.00           1858         117.00      1010.93
  699.26        2998.00           1871         117.00      1010.93
  699.28        2999.00           1884         132.00      1141.71
  699.30        3000.00           1898         119.00      1028.37
  699.32        3001.00           1911         119.00      1028.37
  699.34        3002.00           1925         117.00      1010.93
  699.37        3003.00           1938         109.00       941.18
  699.39        3004.00           1952         118.00      1019.65
  699.42        3005.00           1965         110.00       949.90
  699.44        3006.00           1979         112.00       967.33
  699.46        3007.00           1992         108.00       932.46
  699.48        3008.00           2006         117.00      1010.93
  699.50        3009.00           2019         112.00       967.33
  699.52        3010.00           2033         109.00       941.18
  699.54        3011.00           2046         115.00       993.49
  699.56        3012.00           2060        1973.00     17201.11
  699.58        3013.00           2073        7024.00     61341.64
  699.60        3014.00           2087       12570.00    109943.10
  699.62        3015.00           2100       18444.00    161574.20
  699.64        3016.00           2114       25447.00    223339.30
  699.66        3017.00           2127       28651.00    251674.70
  699.69        3018.00           2141       28749.00    252542.10
  699.71        3019.00           2155       24208.00    212394.80
  699.73        3020.00           2168       19224.00    168442.30
  699.75        3021.00           2182       13265.00    116043.60
  699.77        3022.00           2195        7169.00     62610.52
  699.79        3023.00           2209        2968.00     25887.14
  699.81        3024.00           2222        1799.00     15682.62
  699.83        3025.00           2236         963.00      8388.77
  699.85        3026.00           2249         700.00      6094.84
  699.87        3027.00           2263         411.00      3574.49
  699.89        3028.00           2277         188.00      1629.98
  699.91        3029.00           2290          94.00       810.39
  699.93        3030.00           2304          96.00       827.83
  699.95        3031.00           2317          86.00       740.64
  699.97        3032.00           2331         101.00       871.43
  699.99        3033.00           2344          97.00       836.55
  700.01        3034.00           2358          87.00       749.36
  700.03        3035.00           2372          84.00       723.21
  700.05        3036.00           2385          89.00       766.80
  700.07        3037.00           2399          92.00       792.96
  700.09        3038.00           2413          92.00       792.96
  700.11        3039.00           2426          85.00       731.93
  700.14        3040.00           2440          88.00       758.08
  700.16        3041.00           2453          83.00       714.49
  700.18        3042.00           2467          89.00       766.80
  700.20        3043.00           2481          83.00       714.49
  700.22        3044.00           2494          80.00       688.33
  700.24        3045.00           2508          81.00       697.05
  700.26        3046.00           2522          90.00       775.52
  700.28        3047.00           2535          80.00       688.33
  700.30        3048.00           2549          91.00       784.24
  700.32        3049.00           2563          74.00       636.02
  700.34        3050.00           2576          83.00       714.49
  700.36        3051.00           2590          87.00       749.36
  700.38        3052.00           2604          78.00       670.89
  700.40        3053.00           2617          72.00       618.58
  700.42        3054.00           2631          74.00       636.02
  700.44        3055.00           2645          78.00       670.89
  700.46        3056.00           2658          77.00       662.18
  700.48        3057.00           2672          74.00       636.02
  700.50        3058.00           2686          79.00       679.61
  700.52        3059.00           2699          73.00       627.30
  700.54        3060.00           2713          77.00       662.18
  700.56        3061.00           2727          66.00       566.27
  700.58        3062.00           2740          68.00       583.71
  700.60        3063.00           2754          80.00       688.33
  700.63        3064.00           2768          71.00       609.86
  700.65        3065.00           2782          74.00       636.02
  700.67        3066.00           2795          76.00       653.46
  700.69        3067.00           2809          66.00       566.27
  700.71        3068.00           2823          73.00       627.30
  700.73        3069.00           2836          68.00       583.71
  700.75        3070.00           2850          64.00       548.83
  700.77        3071.00           2864          78.00       670.89
  700.79        3072.00           2878          69.00       592.43
  700.81        3073.00           2891          74.00       636.02
  700.83        3074.00           2905          67.00       574.99
  700.85        3075.00           2919          73.00       627.30
  700.87        3076.00           2933          61.00       522.68
  700.89        3077.00           2946          68.00       583.71
  700.91        3078.00           2960          62.00       531.39
  700.93        3079.00           2974          70.00       601.14
  700.95        3080.00           2988          67.00       574.99
  700.97        3081.00           3002          58.00       496.52
  700.99        3082.00           3015          69.00       592.43
  701.02        3083.00           3029          68.00       583.71
  701.04        3084.00           3043          62.00       531.39
  701.06        3085.00           3057          63.00       540.11
  701.08        3086.00           3070          65.00       557.55
  701.10        3087.00           3084          54.00       461.65
  701.12        3088.00           3098          67.00       574.99
  701.14        3089.00           3112          68.00       583.71
  701.16        3090.00           3126          56.00       479.08
  701.18        3091.00           3140          60.00       513.96
  701.20        3092.00           3153          57.00       487.80
  701.22        3093.00           3167          62.00       531.39
  701.24        3094.00           3181          65.00       557.55
  701.27        3095.00           3195          62.00       531.39
  701.29        3096.00           3209          51.00       435.49
  701.31        3097.00           3223          59.00       505.24
  701.33        3098.00           3236          62.00       531.39
  701.35        3099.00           3250          57.00       487.80
  701.37        3100.00           3264          57.00       487.80
  701.39        3101.00           3278          63.00       540.11
  701.41        3102.00           3292          55.00       470.36
  701.43        3103.00           3306          62.00       531.39
  701.45        3104.00           3320          51.00       435.49
  701.47        3105.00           3333          54.00       461.65
  701.49        3106.00           3347          62.00       531.39
  701.51        3107.00           3361          57.00       487.80
  701.54        3108.00           3375          52.00       444.21
  701.56        3109.00           3389          60.00       513.96
  701.58        3110.00           3403          58.00       496.52
  701.60        3111.00           3417          54.00       461.65
  701.62        3112.00           3431          48.00       409.33
  701.64        3113.00           3445          59.00       505.24
  701.67        3114.00           3458          63.00       540.11
  701.69        3115.00           3472         113.00       976.05
  701.71        3116.00           3486        5086.00     44391.69
  701.73        3117.00           3500       31079.00    273179.50
  701.75        3118.00           3514       59283.00    525049.00
  701.77        3119.00           3528       87624.00    782067.00
  701.79        3120.00           3542      113772.00   1022808.00
  701.81        3121.00           3556      135718.00   1227624.00
  701.83        3122.00           3570      135768.00   1228093.00
  701.85        3123.00           3584      145520.00   1319938.00
  701.87        3124.00           3598      158416.00   1442191.00
  701.89        3125.00           3612      169938.00   1552200.00
  701.91        3126.00           3626      181587.00   1664184.00
  701.93        3127.00           3640      192503.00   1769826.00
  701.96        3128.00           3654      186648.00   1713077.00
  701.98        3129.00           3668      151361.00   1375197.00
  702.00        3130.00           3682      112342.00   1009550.00
  702.02        3131.00           3696       71076.00    631511.10
  702.04        3132.00           3710       27363.00    240278.10
  702.06        3133.00           3724         422.00      3670.41
  702.09        3134.00           3738         143.00      1237.62
  702.11        3135.00           3752          73.00       627.30
  702.13        3136.00           3766          54.00       461.65
  702.15        3137.00           3780          62.00       531.39
  702.17        3138.00           3794          62.00       531.39
  702.19        3139.00           3808          58.00       496.52
  702.21        3140.00           3822          54.00       461.65
  702.23        3141.00           3836          50.00       426.77
  702.25        3142.00           3850          50.00       426.77
  702.27        3143.00           3864          49.00       418.05
  702.29        3144.00           3878          53.00       452.93
  702.31        3145.00           3892          49.00       418.05
  702.33        3146.00           3906          42.00       357.02
  702.35        3147.00           3920          49.00       418.05
  702.37        3148.00           3934          47.00       400.62
  702.39        3149.00           3948          44.00       374.46
  702.41        3150.00           3962          51.00       435.49
  702.43        3151.00           3976          41.00       348.30
  702.45        3152.00           3990          40.00       339.59
  702.48        3153.00           4004          41.00       348.30
  702.50        3154.00           4018          50.00       426.77
  702.52        3155.00           4032          41.00       348.30
  702.54        3156.00           4047          44.00       374.46
  702.56        3157.00           4061          49.00       418.05
  702.58        3158.00           4075          45.00       383.18
  702.60        3159.00           4089          46.00       391.90
  702.62        3160.00           4103          41.00       348.30
  702.64        3161.00           4117          37.00       313.43
  702.66        3162.00           4131          39.00       330.87
  702.68        3163.00           4145          42.00       357.02
  702.70        3164.00           4159          42.00       357.02
  702.72        3165.00           4173          38.00       322.15
  702.74        3166.00           4188          40.00       339.59
  702.76        3167.00           4202          39.00       330.87
  702.78        3168.00           4216          40.00       339.59
  702.80        3169.00           4230          38.00       322.15
  702.82        3170.00           4244          33.00       278.56
  702.84        3171.00           4258          44.00       374.46
  702.86        3172.00           4272          42.00       357.02
  702.89        3173.00           4287          41.00       348.30
  702.91        3174.00           4301          41.00       348.30
  702.93        3175.00           4315          40.00       339.59
  702.95        3176.00           4329          38.00       322.15
  702.97        3177.00           4343          42.00       357.02
  702.99        3178.00           4358          36.00       304.71
  703.01        3179.00           4372          42.00       357.02
  703.03        3180.00           4386          35.00       295.99
