************************************************************
  HL Scan of (1) Internal mercury lamp
************************************************************
Integration time is 0.2294 seconds per sample
dh090117DelftKZ 51.997-4.386 2.375pr1000
************************************************************
Dead Time -------------------------  3E-08 
Number of Cycles Used -------------  4 
Starting Wavelength (Angstroms) ---  3331 
Final Wavelength (Angstoms) -------  3351 
Wavelength Increment (Angstroms) --  .25 
Filter Wheel #1 Position ---------- (1) Ground quartz diffuser (ND=2.32)
Filter Wheel #2 Position ---------- 



************************************************************
HL scan start time = 06:28:41
Dark Count =  0 


Time (GMT)  Wavelength (Ang)  Step Number  Raw Counts  Counts/Second

  389.44        3331.00           6581          47.00       204.88
  389.85        3331.25           6584          44.00       191.81
  389.88        3331.50           6588          43.00       187.45
  389.90        3331.75           6592          50.00       217.96
  389.93        3332.00           6595          41.00       178.73
  389.96        3332.25           6599          50.00       217.96
  389.99        3332.50           6603          43.00       187.45
  390.01        3332.75           6607          50.00       217.96
  390.04        3333.00           6610          47.00       204.88
  390.07        3333.25           6614          43.00       187.45
  390.10        3333.50           6618          49.00       213.60
  390.12        3333.75           6622          42.00       183.09
  390.15        3334.00           6625          43.00       187.45
  390.18        3334.25           6629          49.00       213.60
  390.21        3334.50           6633          47.00       204.88
  390.23        3334.75           6636          49.00       213.60
  390.26        3335.00           6640          56.00       244.12
  390.29        3335.25           6644          59.00       257.19
  390.32        3335.50           6648          52.00       226.68
  390.34        3335.75           6651          67.00       292.07
  390.37        3336.00           6655          73.00       318.22
  390.40        3336.25           6659         210.00       915.46
  390.43        3336.50           6663        1067.00      4651.91
  390.45        3336.75           6666        1916.00      8354.32
  390.48        3337.00           6670        3242.00     14138.52
  390.51        3337.25           6674        4591.00     20025.11
  390.54        3337.50           6677        5513.00     24049.60
  390.57        3337.75           6681        6641.00     28974.61
  390.59        3338.00           6685        8028.00     35032.44
  390.62        3338.25           6689        9400.00     41026.93
  390.65        3338.50           6692       10236.00     44680.60
  390.68        3338.75           6696       11408.00     49804.09
  390.70        3339.00           6700       12706.00     55480.24
  390.73        3339.25           6704       13878.00     60607.05
  390.76        3339.50           6707       15001.00     65520.99
  390.79        3339.75           6711       16334.00     71355.72
  390.82        3340.00           6715       17510.00     76504.94
  390.85        3340.25           6719       18724.00     81822.23
  390.88        3340.50           6722       19708.00     86133.36
  390.91        3340.75           6726       21004.00     91813.13
  390.93        3341.00           6730       22004.00     96197.02
  390.96        3341.25           6733       22311.00     97543.09
  390.99        3341.50           6737       22099.00     96613.53
  391.02        3341.75           6741       22218.00     97135.31
  391.04        3342.00           6745       21388.00     93496.40
  391.07        3342.25           6748       20410.00     89209.66
  391.10        3342.50           6752       19346.00     84547.22
  391.13        3342.75           6756       18117.00     79163.38
  391.15        3343.00           6760       16992.00     74236.65
  391.18        3343.25           6763       16175.00     70659.66
  391.21        3343.50           6767       14841.00     64820.80
  391.24        3343.75           6771       13802.00     60274.55
  391.27        3344.00           6775       12528.00     54701.73
  391.29        3344.25           6778       11377.00     49668.55
  391.32        3344.50           6782        9985.00     43583.54
  391.35        3344.75           6786        8583.00     37457.06
  391.38        3345.00           6790        7309.00     31891.88
  391.40        3345.25           6793        6379.00     27830.55
  391.43        3345.50           6797        4997.00     21797.16
  391.46        3345.75           6801        3651.00     15923.04
  391.49        3346.00           6805        2568.00     11198.18
  391.52        3346.25           6808        1726.00      7525.67
  391.55        3346.50           6812         597.00      2602.64
  391.58        3346.75           6816         147.00       640.81
  391.61        3347.00           6819          66.00       287.71
  391.63        3347.25           6823          47.00       204.88
  391.66        3347.50           6827          48.00       209.24
  391.69        3347.75           6831          45.00       196.17
  391.72        3348.00           6834          47.00       204.88
  391.74        3348.25           6838          44.00       191.81
  391.77        3348.50           6842          47.00       204.88
  391.80        3348.75           6846          47.00       204.88
  391.83        3349.00           6849          48.00       209.24
  391.85        3349.25           6853          42.00       183.09
  391.88        3349.50           6857          42.00       183.09
  391.91        3349.75           6861          44.00       191.81
  391.94        3350.00           6864          47.00       204.88
  391.97        3350.25           6868          42.00       183.09
  392.00        3350.50           6872          40.00       174.37
  392.03        3350.75           6876          35.00       152.57
  392.05        3351.00           6879          32.00       139.49
HL scan finished at 06:33:32
end
