************************************************************
  HL Scan of (1) Internal mercury lamp
************************************************************
Integration time is 0.2294 seconds per sample
dh040117DelftKZ 51.997-4.386 2.375pr1000
************************************************************
Dead Time -------------------------  3E-08 
Number of Cycles Used -------------  4 
Starting Wavelength (Angstroms) ---  3331 
Final Wavelength (Angstoms) -------  3351 
Wavelength Increment (Angstroms) --  .25 
Filter Wheel #1 Position ---------- (1) Ground quartz diffuser (ND=2.32)
Filter Wheel #2 Position ---------- 



************************************************************
HL scan start time = 06:29:30
Dark Count =  0 


Time (GMT)  Wavelength (Ang)  Step Number  Raw Counts  Counts/Second

  390.27        3331.00           6581          41.00       178.73
  390.67        3331.25           6584          43.00       187.45
  390.70        3331.50           6588          40.00       174.37
  390.73        3331.75           6592          44.00       191.81
  390.76        3332.00           6595          43.00       187.45
  390.79        3332.25           6599          46.00       200.52
  390.81        3332.50           6603          47.00       204.88
  390.84        3332.75           6607          49.00       213.60
  390.87        3333.00           6610          38.00       165.65
  390.90        3333.25           6614          43.00       187.45
  390.93        3333.50           6618          40.00       174.37
  390.96        3333.75           6622          43.00       187.45
  390.99        3334.00           6625          39.00       170.01
  391.02        3334.25           6629          41.00       178.73
  391.04        3334.50           6633          46.00       200.52
  391.07        3334.75           6636          44.00       191.81
  391.10        3335.00           6640          52.00       226.68
  391.13        3335.25           6644          52.00       226.68
  391.15        3335.50           6648          51.00       222.32
  391.18        3335.75           6651          61.00       265.91
  391.21        3336.00           6655          69.00       300.79
  391.24        3336.25           6659         197.00       858.78
  391.26        3336.50           6663        1214.00      5292.91
  391.29        3336.75           6666        2213.00      9649.70
  391.32        3337.00           6670        3324.00     14496.28
  391.35        3337.25           6674        4657.00     20313.16
  391.38        3337.50           6677        5713.00     24922.73
  391.40        3337.75           6681        6968.00     30402.61
  391.43        3338.00           6685        8152.00     35574.13
  391.46        3338.25           6689        9519.00     41546.96
  391.49        3338.50           6692       10403.00     45410.57
  391.51        3338.75           6696       11711.00     51128.93
  391.54        3339.00           6700       13097.00     57190.46
  391.57        3339.25           6704       14422.00     62987.26
  391.60        3339.50           6707       15268.00     66689.53
  391.62        3339.75           6711       16436.00     71802.28
  391.65        3340.00           6715       17737.00     77499.07
  391.68        3340.25           6719       18951.00     82816.66
  391.71        3340.50           6722       19841.00     86716.15
  391.74        3340.75           6726       20979.00     91703.56
  391.76        3341.00           6730       22185.00     96990.61
  391.79        3341.25           6733       22408.00     97968.42
  391.82        3341.50           6737       22520.00     98459.54
  391.85        3341.75           6741       22530.00     98503.39
  391.88        3342.00           6745       21747.00     95070.24
  391.90        3342.25           6748       20743.00     90669.14
  391.93        3342.50           6752       19525.00     85331.51
  391.96        3342.75           6756       18352.00     80192.69
  391.99        3343.00           6760       17062.00     74543.15
  392.01        3343.25           6763       16202.00     70777.85
  392.04        3343.50           6767       14929.00     65205.90
  392.07        3343.75           6771       13817.00     60340.17
  392.10        3344.00           6775       12457.00     54391.21
  392.12        3344.25           6778       11221.00     48986.50
  392.15        3344.50           6782        9906.00     43238.26
  392.18        3344.75           6786        8737.00     38129.90
  392.21        3345.00           6790        7574.00     33049.32
  392.24        3345.25           6793        6563.00     28634.00
  392.26        3345.50           6797        5218.00     22761.83
  392.29        3345.75           6801        4097.00     17869.21
  392.32        3346.00           6805        2860.00     12471.97
  392.35        3346.25           6808        1843.00      8035.94
  392.37        3346.50           6812         642.00      2798.84
  392.40        3346.75           6816         116.00       505.67
  392.43        3347.00           6819          74.00       322.58
  392.46        3347.25           6823          58.00       252.84
  392.48        3347.50           6827          54.00       235.40
  392.51        3347.75           6831          55.00       239.76
  392.54        3348.00           6834          48.00       209.24
  392.57        3348.25           6838          49.00       213.60
  392.60        3348.50           6842          49.00       213.60
  392.62        3348.75           6846          51.00       222.32
  392.65        3349.00           6849          42.00       183.09
  392.68        3349.25           6853          47.00       204.88
  392.71        3349.50           6857          42.00       183.09
  392.74        3349.75           6861          46.00       200.52
  392.77        3350.00           6864          47.00       204.88
  392.79        3350.25           6868          42.00       183.09
  392.82        3350.50           6872          42.00       183.09
  392.85        3350.75           6876          38.00       165.65
  392.88        3351.00           6879          45.00       196.17
HL scan finished at 06:34:22
end
