************************************************************
  HL Scan of (1) Internal mercury lamp
************************************************************
Integration time is 0.2294 seconds per sample
dh050117DelftKZ 51.997-4.386 2.214056pr1000
************************************************************
Dead Time -------------------------  3E-08 
Number of Cycles Used -------------  4 
Starting Wavelength (Angstroms) ---  3331 
Final Wavelength (Angstoms) -------  3351 
Wavelength Increment (Angstroms) --  .25 
Filter Wheel #1 Position ---------- (1) Ground quartz diffuser (ND=2.32)
Filter Wheel #2 Position ---------- 



************************************************************
HL scan start time = 00:30:47
Dark Count =  0 


Time (GMT)  Wavelength (Ang)  Step Number  Raw Counts  Counts/Second

   31.54        3331.00           6581          47.00       204.88
   31.94        3331.25           6584          45.00       196.17
   31.97        3331.50           6588          51.00       222.32
   32.00        3331.75           6592          47.00       204.88
   32.03        3332.00           6595          49.00       213.60
   32.05        3332.25           6599          49.00       213.60
   32.08        3332.50           6603          49.00       213.60
   32.11        3332.75           6607          50.00       217.96
   32.14        3333.00           6610          44.00       191.81
   32.17        3333.25           6614          44.00       191.81
   32.19        3333.50           6618          45.00       196.17
   32.22        3333.75           6622          46.00       200.52
   32.25        3334.00           6625          47.00       204.88
   32.28        3334.25           6629          45.00       196.17
   32.30        3334.50           6633          50.00       217.96
   32.33        3334.75           6636          53.00       231.04
   32.36        3335.00           6640          53.00       231.04
   32.39        3335.25           6644          57.00       248.48
   32.41        3335.50           6648          57.00       248.48
   32.44        3335.75           6651          58.00       252.84
   32.47        3336.00           6655          72.00       313.87
   32.50        3336.25           6659         174.00       758.52
   32.52        3336.50           6663        1079.00      4704.24
   32.55        3336.75           6666        2119.00      9239.70
   32.58        3337.00           6670        3657.00     15949.22
   32.61        3337.25           6674        5147.00     22451.91
   32.64        3337.50           6677        6268.00     27345.88
   32.66        3337.75           6681        7820.00     34123.85
   32.69        3338.00           6685        9220.00     40240.36
   32.72        3338.25           6689       10586.00     46210.49
   32.75        3338.50           6692       11669.00     50945.29
   32.78        3338.75           6696       13001.00     56770.54
   32.81        3339.00           6700       14302.00     62462.19
   32.84        3339.25           6704       15904.00     69473.34
   32.87        3339.50           6707       17124.00     74814.63
   32.90        3339.75           6711       18387.00     80346.00
   32.92        3340.00           6715       19626.00     85774.06
   32.95        3340.25           6719       20992.00     91760.53
   32.98        3340.50           6722       22049.00     96394.32
   33.01        3340.75           6726       23393.00    102288.10
   33.04        3341.00           6730       24471.00    107017.00
   33.07        3341.25           6733       25071.00    109649.60
   33.10        3341.50           6737       25019.00    109421.40
   33.12        3341.75           6741       24948.00    109109.80
   33.15        3342.00           6745       24138.00    105556.10
   33.18        3342.25           6748       22950.00    100345.20
   33.21        3342.50           6752       21729.00     94991.33
   33.24        3342.75           6756       20160.00     88114.05
   33.27        3343.00           6760       18594.00     81252.75
   33.30        3343.25           6763       17697.00     77323.90
   33.32        3343.50           6767       16475.00     71973.03
   33.35        3343.75           6771       15201.00     66396.30
   33.38        3344.00           6775       13766.00     60117.05
   33.41        3344.25           6778       12538.00     54745.46
   33.44        3344.50           6782       10994.00     47994.08
   33.47        3344.75           6786        9511.00     41512.00
   33.50        3345.00           6790        8181.00     35700.81
   33.52        3345.25           6793        7179.00     31324.11
   33.55        3345.50           6797        5811.00     25350.57
   33.58        3345.75           6801        4333.00     18899.12
   33.61        3346.00           6805        3112.00     13571.35
   33.63        3346.25           6808        2122.00      9252.79
   33.66        3346.50           6812         821.00      3579.29
   33.69        3346.75           6816         168.00       732.36
   33.72        3347.00           6819          69.00       300.79
   33.75        3347.25           6823          62.00       270.27
   33.78        3347.50           6827          54.00       235.40
   33.80        3347.75           6831          54.00       235.40
   33.83        3348.00           6834          46.00       200.52
   33.86        3348.25           6838          42.00       183.09
   33.89        3348.50           6842          43.00       187.45
   33.92        3348.75           6846          46.00       200.52
   33.94        3349.00           6849          46.00       200.52
   33.97        3349.25           6853          52.00       226.68
   34.00        3349.50           6857          49.00       213.60
   34.03        3349.75           6861          40.00       174.37
   34.05        3350.00           6864          46.00       200.52
   34.08        3350.25           6868          50.00       217.96
   34.11        3350.50           6872          52.00       226.68
   34.14        3350.75           6876          43.00       187.45
   34.16        3351.00           6879          49.00       213.60
HL scan finished at 00:35:39
end
************************************************************
  HL Scan of (1) Internal mercury lamp
************************************************************
Integration time is 0.2294 seconds per sample
dh050117DelftKZ 51.997-4.386 2.214056pr1000
************************************************************
Dead Time -------------------------  3E-08 
Number of Cycles Used -------------  4 
Starting Wavelength (Angstroms) ---  3331 
Final Wavelength (Angstoms) -------  3351 
Wavelength Increment (Angstroms) --  .25 
Filter Wheel #1 Position ---------- (1) Ground quartz diffuser (ND=2.32)
Filter Wheel #2 Position ---------- 



************************************************************
HL scan start time = 06:29:39
Dark Count =  0 


Time (GMT)  Wavelength (Ang)  Step Number  Raw Counts  Counts/Second

  390.41        3331.00           6581          42.00       183.09
  390.82        3331.25           6584          45.00       196.17
  390.85        3331.50           6588          39.00       170.01
  390.88        3331.75           6592          34.00       148.21
  390.90        3332.00           6595          44.00       191.81
  390.93        3332.25           6599          40.00       174.37
  390.96        3332.50           6603          42.00       183.09
  390.99        3332.75           6607          36.00       156.93
  391.01        3333.00           6610          44.00       191.81
  391.04        3333.25           6614          42.00       183.09
  391.07        3333.50           6618          43.00       187.45
  391.10        3333.75           6622          41.00       178.73
  391.12        3334.00           6625          44.00       191.81
  391.15        3334.25           6629          44.00       191.81
  391.18        3334.50           6633          44.00       191.81
  391.21        3334.75           6636          41.00       178.73
  391.23        3335.00           6640          47.00       204.88
  391.26        3335.25           6644          45.00       196.17
  391.29        3335.50           6648          54.00       235.40
  391.32        3335.75           6651          59.00       257.19
  391.35        3336.00           6655          62.00       270.27
  391.37        3336.25           6659         248.00      1081.12
  391.40        3336.50           6663        1111.00      4843.77
  391.43        3336.75           6666        1843.00      8035.94
  391.46        3337.00           6670        2806.00     12236.40
  391.48        3337.25           6674        3758.00     16389.92
  391.51        3337.50           6677        4565.00     19911.63
  391.54        3337.75           6681        5595.00     24407.58
  391.57        3338.00           6685        6757.00     29481.16
  391.60        3338.25           6689        7828.00     34158.79
  391.63        3338.50           6692        8687.00     37911.45
  391.66        3338.75           6696        9773.00     42657.00
  391.68        3339.00           6700       10734.00     46857.46
  391.72        3339.25           6704       11787.00     51461.26
  391.75        3339.50           6707       12545.00     54776.08
  391.78        3339.75           6711       13520.00     59040.84
  391.81        3340.00           6715       14603.00     63779.29
  391.83        3340.25           6719       15537.00     67866.90
  391.86        3340.50           6722       16179.00     70677.16
  391.89        3340.75           6726       17451.00     76246.57
  391.92        3341.00           6730       18531.00     80976.78
  391.94        3341.25           6733       18747.00     81922.98
  391.97        3341.50           6737       18908.00     82628.29
  392.00        3341.75           6741       18656.00     81524.34
  392.03        3342.00           6745       18000.00     78650.93
  392.06        3342.25           6748       17270.00     75453.96
  392.08        3342.50           6752       16327.00     71325.08
  392.11        3342.75           6756       15295.00     66807.71
  392.14        3343.00           6760       14218.00     62094.64
  392.17        3343.25           6763       13313.00     58135.31
  392.19        3343.50           6767       12321.00     53796.43
  392.22        3343.75           6771       11355.00     49572.37
  392.25        3344.00           6775       10267.00     44816.10
  392.28        3344.25           6778        9408.00     41061.89
  392.31        3344.50           6782        8312.00     36273.10
  392.33        3344.75           6786        7428.00     32411.63
  392.36        3345.00           6790        6426.00     28035.78
  392.39        3345.25           6793        5529.00     24119.45
  392.42        3345.50           6797        4314.00     18816.20
  392.44        3345.75           6801        3129.00     13645.52
  392.47        3346.00           6805        2045.00      8916.94
  392.50        3346.25           6808        1339.00      5837.99
  392.53        3346.50           6812         462.00      2014.07
  392.56        3346.75           6816          97.00       422.85
  392.58        3347.00           6819          56.00       244.12
  392.61        3347.25           6823          47.00       204.88
  392.64        3347.50           6827          41.00       178.73
  392.67        3347.75           6831          46.00       200.52
  392.70        3348.00           6834          46.00       200.52
  392.72        3348.25           6838          44.00       191.81
  392.75        3348.50           6842          44.00       191.81
  392.78        3348.75           6846          37.00       161.29
  392.81        3349.00           6849          42.00       183.09
  392.83        3349.25           6853          40.00       174.37
  392.86        3349.50           6857          45.00       196.17
  392.89        3349.75           6861          43.00       187.45
  392.92        3350.00           6864          44.00       191.81
  392.95        3350.25           6868          44.00       191.81
  392.98        3350.50           6872          44.00       191.81
  393.01        3350.75           6876          43.00       187.45
  393.03        3351.00           6879          41.00       178.73
HL scan finished at 06:34:31
end
