************************************************************
  HL Scan of (1) Internal mercury lamp
************************************************************
Integration time is 0.2294 seconds per sample
dh030117DelftKZ 51.997-4.386 2.267704pr1000
************************************************************
Dead Time -------------------------  3E-08 
Number of Cycles Used -------------  4 
Starting Wavelength (Angstroms) ---  3331 
Final Wavelength (Angstoms) -------  3351 
Wavelength Increment (Angstroms) --  .25 
Filter Wheel #1 Position ---------- (1) Ground quartz diffuser (ND=2.32)
Filter Wheel #2 Position ---------- 



************************************************************
HL scan start time = 06:29:44
Dark Count =  0 


Time (GMT)  Wavelength (Ang)  Step Number  Raw Counts  Counts/Second

  390.48        3331.00           6581          48.00       209.24
  390.89        3331.25           6584          46.00       200.52
  390.92        3331.50           6588          40.00       174.37
  390.95        3331.75           6592          39.00       170.01
  390.97        3332.00           6595          45.00       196.17
  391.00        3332.25           6599          44.00       191.81
  391.03        3332.50           6603          43.00       187.45
  391.06        3332.75           6607          42.00       183.09
  391.09        3333.00           6610          45.00       196.17
  391.11        3333.25           6614          43.00       187.45
  391.14        3333.50           6618          46.00       200.52
  391.17        3333.75           6622          39.00       170.01
  391.20        3334.00           6625          47.00       204.88
  391.22        3334.25           6629          44.00       191.81
  391.25        3334.50           6633          50.00       217.96
  391.28        3334.75           6636          53.00       231.04
  391.31        3335.00           6640          51.00       222.32
  391.33        3335.25           6644          53.00       231.04
  391.36        3335.50           6648          54.00       235.40
  391.39        3335.75           6651          59.00       257.19
  391.42        3336.00           6655          68.00       296.43
  391.44        3336.25           6659         219.00       954.69
  391.47        3336.50           6663        1093.00      4765.28
  391.50        3336.75           6666        1836.00      8005.41
  391.53        3337.00           6670        2839.00     12380.36
  391.56        3337.25           6674        4087.00     17825.57
  391.58        3337.50           6677        4912.00     21426.15
  391.61        3337.75           6681        6232.00     27188.69
  391.64        3338.00           6685        7584.00     33092.99
  391.67        3338.25           6689        8805.00     38427.01
  391.69        3338.50           6692        9679.00     42246.19
  391.72        3338.75           6696       10880.00     47495.70
  391.75        3339.00           6700       12002.00     52401.41
  391.78        3339.25           6704       13089.00     57155.46
  391.80        3339.50           6707       13953.00     60935.19
  391.83        3339.75           6711       14833.00     64785.78
  391.86        3340.00           6715       16190.00     70725.32
  391.89        3340.25           6719       17424.00     76128.33
  391.91        3340.50           6722       18219.00     79610.13
  391.94        3340.75           6726       19397.00     84770.68
  391.97        3341.00           6730       20336.00     88885.35
  392.00        3341.25           6733       20600.00     90042.38
  392.03        3341.50           6737       20599.00     90037.99
  392.05        3341.75           6741       20623.00     90143.19
  392.08        3342.00           6745       19928.00     87097.38
  392.11        3342.25           6748       19176.00     83802.41
  392.14        3342.50           6752       17920.00     78300.54
  392.16        3342.75           6756       16770.00     73264.60
  392.19        3343.00           6760       15528.00     67827.50
  392.22        3343.25           6763       14559.00     63586.74
  392.25        3343.50           6767       13542.00     59137.08
  392.28        3343.75           6771       12295.00     53682.73
  392.30        3344.00           6775       11081.00     48374.43
  392.33        3344.25           6778       10365.00     45244.46
  392.36        3344.50           6782        9250.00     40371.45
  392.39        3344.75           6786        8000.00     34910.13
  392.42        3345.00           6790        6941.00     30284.70
  392.44        3345.25           6793        5924.00     25843.92
  392.47        3345.50           6797        4601.00     20068.75
  392.50        3345.75           6801        3502.00     15272.91
  392.53        3346.00           6805        2377.00     10365.04
  392.55        3346.25           6808        1585.00      6910.76
  392.58        3346.50           6812         571.00      2489.29
  392.61        3346.75           6816         129.00       562.35
  392.64        3347.00           6819          65.00       283.35
  392.67        3347.25           6823          52.00       226.68
  392.70        3347.50           6827          48.00       209.24
  392.73        3347.75           6831          47.00       204.88
  392.75        3348.00           6834          40.00       174.37
  392.78        3348.25           6838          48.00       209.24
  392.81        3348.50           6842          48.00       209.24
  392.84        3348.75           6846          51.00       222.32
  392.87        3349.00           6849          44.00       191.81
  392.90        3349.25           6853          44.00       191.81
  392.93        3349.50           6857          39.00       170.01
  392.96        3349.75           6861          44.00       191.81
  392.99        3350.00           6864          48.00       209.24
  393.01        3350.25           6868          45.00       196.17
  393.04        3350.50           6872          44.00       191.81
  393.07        3350.75           6876          42.00       183.09
  393.10        3351.00           6879          45.00       196.17
HL scan finished at 06:34:35
end
