************************************************************
  HL Scan of (1) Internal mercury lamp
************************************************************
Integration time is 0.2294 seconds per sample
dh080117DelftKZ 51.997-4.386 2.375pr1000
************************************************************
Dead Time -------------------------  3E-08 
Number of Cycles Used -------------  4 
Starting Wavelength (Angstroms) ---  3331 
Final Wavelength (Angstoms) -------  3351 
Wavelength Increment (Angstroms) --  .25 
Filter Wheel #1 Position ---------- (1) Ground quartz diffuser (ND=2.32)
Filter Wheel #2 Position ---------- 



************************************************************
HL scan start time = 06:28:58
Dark Count =  0 


Time (GMT)  Wavelength (Ang)  Step Number  Raw Counts  Counts/Second

  389.73        3331.00           6581          45.00       196.17
  390.15        3331.25           6584          44.00       191.81
  390.17        3331.50           6588          49.00       213.60
  390.20        3331.75           6592          36.00       156.93
  390.23        3332.00           6595          45.00       196.17
  390.26        3332.25           6599          40.00       174.37
  390.28        3332.50           6603          44.00       191.81
  390.31        3332.75           6607          44.00       191.81
  390.34        3333.00           6610          46.00       200.52
  390.37        3333.25           6614          40.00       174.37
  390.39        3333.50           6618          40.00       174.37
  390.42        3333.75           6622          35.00       152.57
  390.45        3334.00           6625          38.00       165.65
  390.48        3334.25           6629          48.00       209.24
  390.50        3334.50           6633          50.00       217.96
  390.53        3334.75           6636          56.00       244.12
  390.56        3335.00           6640          46.00       200.52
  390.59        3335.25           6644          48.00       209.24
  390.61        3335.50           6648          52.00       226.68
  390.64        3335.75           6651          63.00       274.63
  390.67        3336.00           6655          81.00       353.10
  390.70        3336.25           6659         306.00      1333.97
  390.72        3336.50           6663        1145.00      4992.03
  390.75        3336.75           6666        1971.00      8594.20
  390.78        3337.00           6670        3348.00     14600.99
  390.81        3337.25           6674        4609.00     20103.66
  390.84        3337.50           6677        5651.00     24652.05
  390.87        3337.75           6681        6784.00     29599.07
  390.90        3338.00           6685        8037.00     35071.76
  390.93        3338.25           6689        9266.00     40441.37
  390.96        3338.50           6692       10397.00     45384.33
  390.98        3338.75           6696       11520.00     50293.79
  391.01        3339.00           6700       12766.00     55742.67
  391.04        3339.25           6704       13912.00     60755.81
  391.07        3339.50           6707       14698.00     64195.01
  391.10        3339.75           6711       16241.00     70948.59
  391.13        3340.00           6715       17664.00     77179.37
  391.16        3340.25           6719       18805.00     82177.06
  391.18        3340.50           6722       19639.00     85831.02
  391.21        3340.75           6726       21121.00     92325.99
  391.24        3341.00           6730       22042.00     96363.62
  391.27        3341.25           6733       22223.00     97157.24
  391.30        3341.50           6737       22210.00     97100.24
  391.32        3341.75           6741       22182.00     96977.47
  391.35        3342.00           6745       21376.00     93443.81
  391.38        3342.25           6748       20332.00     88867.82
  391.41        3342.50           6752       19274.00     84231.76
  391.43        3342.75           6756       18059.00     78909.35
  391.46        3343.00           6760       16828.00     73518.56
  391.49        3343.25           6763       15886.00     69394.54
  391.52        3343.50           6767       14802.00     64650.12
  391.55        3343.75           6771       13599.00     59386.44
  391.57        3344.00           6775       12321.00     53796.43
  391.60        3344.25           6778       11427.00     49887.16
  391.63        3344.50           6782        9834.00     42923.59
  391.66        3344.75           6786        8562.00     37365.32
  391.68        3345.00           6790        7153.00     31210.55
  391.71        3345.25           6793        6222.00     27145.03
  391.74        3345.50           6797        5008.00     21845.18
  391.77        3345.75           6801        3636.00     15857.59
  391.79        3346.00           6805        2352.00     10255.99
  391.82        3346.25           6808        1562.00      6810.46
  391.85        3346.50           6812         530.00      2310.54
  391.88        3346.75           6816         128.00       557.99
  391.91        3347.00           6819          56.00       244.12
  391.93        3347.25           6823          50.00       217.96
  391.96        3347.50           6827          53.00       231.04
  391.99        3347.75           6831          48.00       209.24
  392.02        3348.00           6834          45.00       196.17
  392.05        3348.25           6838          49.00       213.60
  392.08        3348.50           6842          37.00       161.29
  392.11        3348.75           6846          41.00       178.73
  392.14        3349.00           6849          47.00       204.88
  392.17        3349.25           6853          42.00       183.09
  392.19        3349.50           6857          45.00       196.17
  392.22        3349.75           6861          44.00       191.81
  392.25        3350.00           6864          41.00       178.73
  392.28        3350.25           6868          48.00       209.24
  392.30        3350.50           6872          41.00       178.73
  392.33        3350.75           6876          49.00       213.60
  392.36        3351.00           6879          41.00       178.73
HL scan finished at 06:33:50
end
