************************************************************
  HL Scan of (1) Internal mercury lamp
************************************************************
Integration time is 0.2294 seconds per sample
dh070117DelftKZ 51.997-4.386 2.160408pr1000
************************************************************
Dead Time -------------------------  3E-08 
Number of Cycles Used -------------  4 
Starting Wavelength (Angstroms) ---  3331 
Final Wavelength (Angstoms) -------  3351 
Wavelength Increment (Angstroms) --  .25 
Filter Wheel #1 Position ---------- (1) Ground quartz diffuser (ND=2.32)
Filter Wheel #2 Position ---------- 



************************************************************
HL scan start time = 06:29:09
Dark Count =  0 


Time (GMT)  Wavelength (Ang)  Step Number  Raw Counts  Counts/Second

  389.91        3331.00           6581          42.00       183.09
  390.32        3331.25           6584          37.00       161.29
  390.35        3331.50           6588          36.00       156.93
  390.38        3331.75           6592          46.00       200.52
  390.41        3332.00           6595          43.00       187.45
  390.43        3332.25           6599          36.00       156.93
  390.46        3332.50           6603          41.00       178.73
  390.49        3332.75           6607          46.00       200.52
  390.52        3333.00           6610          39.00       170.01
  390.54        3333.25           6614          46.00       200.52
  390.57        3333.50           6618          35.00       152.57
  390.60        3333.75           6622          42.00       183.09
  390.63        3334.00           6625          42.00       183.09
  390.66        3334.25           6629          40.00       174.37
  390.69        3334.50           6633          43.00       187.45
  390.71        3334.75           6636          48.00       209.24
  390.74        3335.00           6640          50.00       217.96
  390.77        3335.25           6644          56.00       244.12
  390.80        3335.50           6648          54.00       235.40
  390.82        3335.75           6651          50.00       217.96
  390.85        3336.00           6655          70.00       305.15
  390.88        3336.25           6659         257.00      1120.35
  390.91        3336.50           6663        1152.00      5022.55
  390.93        3336.75           6666        1910.00      8328.15
  390.96        3337.00           6670        2876.00     12541.77
  390.99        3337.25           6674        3834.00     16721.55
  391.02        3337.50           6677        4615.00     20129.85
  391.05        3337.75           6681        5649.00     24643.32
  391.07        3338.00           6685        6774.00     29555.40
  391.11        3338.25           6689        8088.00     35294.55
  391.14        3338.50           6692        8858.00     38658.59
  391.17        3338.75           6696        9774.00     42661.37
  391.19        3339.00           6700       10834.00     47294.61
  391.22        3339.25           6704       11862.00     51789.21
  391.25        3339.50           6707       12722.00     55550.22
  391.28        3339.75           6711       13733.00     59972.67
  391.31        3340.00           6715       14675.00     64094.35
  391.33        3340.25           6719       15780.00     68930.55
  391.36        3340.50           6722       16559.00     72340.79
  391.39        3340.75           6726       17637.00     77061.11
  391.42        3341.00           6730       18585.00     81213.32
  391.44        3341.25           6733       18866.00     82444.29
  391.47        3341.50           6737       18935.00     82746.57
  391.50        3341.75           6741       18797.00     82142.02
  391.53        3342.00           6745       18027.00     78769.18
  391.56        3342.25           6748       17449.00     76237.81
  391.58        3342.50           6752       16463.00     71920.49
  391.61        3342.75           6756       15507.00     67735.60
  391.64        3343.00           6760       14334.00     62602.21
  391.67        3343.25           6763       13544.00     59145.83
  391.69        3343.50           6767       12571.00     54889.79
  391.72        3343.75           6771       11295.00     49310.03
  391.75        3344.00           6775       10337.00     45122.07
  391.78        3344.25           6778        9522.00     41560.07
  391.81        3344.50           6782        8367.00     36513.39
  391.84        3344.75           6786        7361.00     32118.99
  391.87        3345.00           6790        6315.00     27551.10
  391.89        3345.25           6793        5564.00     24272.25
  391.92        3345.50           6797        4357.00     19003.86
  391.95        3345.75           6801        3217.00     14029.44
  391.98        3346.00           6805        2067.00      9012.90
  392.00        3346.25           6808        1318.00      5746.41
  392.03        3346.50           6812         443.00      1931.24
  392.06        3346.75           6816         106.00       462.08
  392.09        3347.00           6819          47.00       204.88
  392.12        3347.25           6823          55.00       239.76
  392.14        3347.50           6827          41.00       178.73
  392.17        3347.75           6831          49.00       213.60
  392.20        3348.00           6834          38.00       165.65
  392.23        3348.25           6838          48.00       209.24
  392.25        3348.50           6842          43.00       187.45
  392.28        3348.75           6846          39.00       170.01
  392.31        3349.00           6849          39.00       170.01
  392.34        3349.25           6853          40.00       174.37
  392.36        3349.50           6857          41.00       178.73
  392.40        3349.75           6861          38.00       165.65
  392.43        3350.00           6864          39.00       170.01
  392.45        3350.25           6868          43.00       187.45
  392.48        3350.50           6872          38.00       165.65
  392.51        3350.75           6876          42.00       183.09
  392.54        3351.00           6879          40.00       174.37
HL scan finished at 06:34:01
end
