************************************************************
  HL Scan of (1) Internal mercury lamp
************************************************************
Integration time is 0.2294 seconds per sample
dh170117DelftKZ 51.997-4.386 2.10676pr1000
************************************************************
Dead Time -------------------------  3E-08 
Number of Cycles Used -------------  4 
Starting Wavelength (Angstroms) ---  3331 
Final Wavelength (Angstoms) -------  3351 
Wavelength Increment (Angstroms) --  .25 
Filter Wheel #1 Position ---------- (1) Ground quartz diffuser (ND=2.32)
Filter Wheel #2 Position ---------- 



************************************************************
HL scan start time = 06:24:49
Dark Count =  .1 


Time (GMT)  Wavelength (Ang)  Step Number  Raw Counts  Counts/Second

  385.57        3331.00           6581          48.00       208.81
  385.98        3331.25           6584          37.00       160.86
  386.01        3331.50           6588          37.00       160.86
  386.04        3331.75           6592          37.00       160.86
  386.07        3332.00           6595          49.00       213.17
  386.09        3332.25           6599          40.00       173.93
  386.12        3332.50           6603          45.00       195.73
  386.15        3332.75           6607          40.00       173.93
  386.18        3333.00           6610          40.00       173.93
  386.20        3333.25           6614          39.00       169.57
  386.23        3333.50           6618          37.00       160.86
  386.26        3333.75           6622          37.00       160.86
  386.29        3334.00           6625          43.00       187.01
  386.31        3334.25           6629          45.00       195.73
  386.34        3334.50           6633          40.00       173.93
  386.37        3334.75           6636          49.00       213.17
  386.40        3335.00           6640          45.00       195.73
  386.42        3335.25           6644          49.00       213.17
  386.45        3335.50           6648          52.00       226.24
  386.48        3335.75           6651          59.00       256.76
  386.51        3336.00           6655          64.00       278.56
  386.53        3336.25           6659         240.00      1045.80
  386.56        3336.50           6663         973.00      4241.60
  386.59        3336.75           6666        1719.00      7494.71
  386.62        3337.00           6670        2906.00     12672.21
  386.65        3337.25           6674        4062.00     17716.04
  386.68        3337.50           6677        4849.00     21150.73
  386.70        3337.75           6681        5971.00     26048.68
  386.73        3338.00           6685        7064.00     30821.43
  386.76        3338.25           6689        8188.00     35730.96
  386.79        3338.50           6692        9051.00     39501.45
  386.82        3338.75           6696        9912.00     43264.06
  386.84        3339.00           6700       11206.00     48920.48
  386.87        3339.25           6704       12305.00     53726.02
  386.90        3339.50           6707       13173.00     57522.46
  386.93        3339.75           6711       14261.00     62282.36
  386.96        3340.00           6715       15426.00     67380.63
  386.98        3340.25           6719       16549.00     72296.57
  387.01        3340.50           6722       17267.00     75440.38
  387.04        3340.75           6726       18501.00     80844.93
  387.07        3341.00           6730       19382.00     84704.52
  387.10        3341.25           6733       19571.00     85532.62
  387.13        3341.50           6737       19507.00     85252.21
  387.16        3341.75           6741       19581.00     85576.44
  387.18        3342.00           6745       18824.00     82259.86
  387.21        3342.25           6748       18024.00     78755.60
  387.24        3342.50           6752       17106.00     74735.38
  387.27        3342.75           6756       15842.00     69201.50
  387.29        3343.00           6760       14886.00     65017.28
  387.32        3343.25           6763       14083.00     61503.53
  387.35        3343.50           6767       13052.00     56993.18
  387.38        3343.75           6771       12088.00     52777.05
  387.41        3344.00           6775       10950.00     47801.28
  387.43        3344.25           6778       10080.00     43998.32
  387.46        3344.50           6782        8766.00     38256.18
  387.49        3344.75           6786        7424.00     32393.72
  387.52        3345.00           6790        6363.00     27760.25
  387.54        3345.25           6793        5615.00     24494.45
  387.57        3345.50           6797        4343.00     18942.32
  387.60        3345.75           6801        3206.00     13981.02
  387.63        3346.00           6805        2139.00      9326.50
  387.65        3346.25           6808        1453.00      6334.68
  387.68        3346.50           6812         510.00      2222.90
  387.71        3346.75           6816         118.00       513.96
  387.74        3347.00           6819          63.00       274.20
  387.77        3347.25           6823          54.00       234.96
  387.79        3347.50           6827          50.00       217.53
  387.82        3347.75           6831          44.00       191.37
  387.85        3348.00           6834          44.00       191.37
  387.88        3348.25           6838          46.00       200.09
  387.91        3348.50           6842          43.00       187.01
  387.94        3348.75           6846          47.00       204.45
  387.97        3349.00           6849          42.00       182.65
  387.99        3349.25           6853          39.00       169.57
  388.02        3349.50           6857          42.00       182.65
  388.05        3349.75           6861          44.00       191.37
  388.08        3350.00           6864          43.00       187.01
  388.10        3350.25           6868          43.00       187.01
  388.13        3350.50           6872          44.00       191.37
  388.16        3350.75           6876          39.00       169.57
  388.19        3351.00           6879          38.00       165.21
HL scan finished at 06:29:40
end
