************************************************************
  HL Scan of (1) Internal mercury lamp
************************************************************
Integration time is 0.2294 seconds per sample
dh140117DelftKZ 51.997-4.386 2.214056pr1000
************************************************************
Dead Time -------------------------  3E-08 
Number of Cycles Used -------------  4 
Starting Wavelength (Angstroms) ---  3331 
Final Wavelength (Angstoms) -------  3351 
Wavelength Increment (Angstroms) --  .25 
Filter Wheel #1 Position ---------- (1) Ground quartz diffuser (ND=2.32)
Filter Wheel #2 Position ---------- 



************************************************************
HL scan start time = 06:26:33
Dark Count =  0 


Time (GMT)  Wavelength (Ang)  Step Number  Raw Counts  Counts/Second

  387.31        3331.00           6581          40.00       174.37
  387.72        3331.25           6584          39.00       170.01
  387.75        3331.50           6588          38.00       165.65
  387.77        3331.75           6592          39.00       170.01
  387.80        3332.00           6595          41.00       178.73
  387.83        3332.25           6599          40.00       174.37
  387.85        3332.50           6603          38.00       165.65
  387.88        3332.75           6607          40.00       174.37
  387.91        3333.00           6610          42.00       183.09
  387.94        3333.25           6614          38.00       165.65
  387.97        3333.50           6618          43.00       187.45
  387.99        3333.75           6622          42.00       183.09
  388.03        3334.00           6625          41.00       178.73
  388.06        3334.25           6629          41.00       178.73
  388.09        3334.50           6633          44.00       191.81
  388.11        3334.75           6636          44.00       191.81
  388.14        3335.00           6640          44.00       191.81
  388.17        3335.25           6644          46.00       200.52
  388.20        3335.50           6648          51.00       222.32
  388.22        3335.75           6651          53.00       231.04
  388.26        3336.00           6655          63.00       274.63
  388.29        3336.25           6659         234.00      1020.08
  388.31        3336.50           6663        1052.00      4586.51
  388.34        3336.75           6666        1761.00      7678.32
  388.37        3337.00           6670        2704.00     11791.44
  388.41        3337.25           6674        3677.00     16036.49
  388.43        3337.50           6677        4473.00     19510.11
  388.46        3337.75           6681        5714.00     24927.09
  388.49        3338.00           6685        6845.00     29865.46
  388.52        3338.25           6689        7977.00     34809.66
  388.54        3338.50           6692        8696.00     37950.77
  388.57        3338.75           6696        9650.00     42119.45
  388.60        3339.00           6700       10790.00     47102.26
  388.63        3339.25           6704       11978.00     52296.46
  388.66        3339.50           6707       12709.00     55493.36
  388.68        3339.75           6711       13596.00     59373.32
  388.71        3340.00           6715       14724.00     64308.78
  388.74        3340.25           6719       15827.00     69136.28
  388.77        3340.50           6722       16566.00     72371.44
  388.79        3340.75           6726       17770.00     77643.59
  388.82        3341.00           6730       18536.00     80998.68
  388.85        3341.25           6733       19078.00     83373.06
  388.88        3341.50           6737       18956.00     82838.57
  388.90        3341.75           6741       18868.00     82453.06
  388.93        3342.00           6745       18378.00     80306.59
  388.96        3342.25           6748       17741.00     77516.58
  388.99        3342.50           6752       16756.00     73203.30
  389.02        3342.75           6756       15673.00     68462.18
  389.04        3343.00           6760       14325.00     62562.83
  389.07        3343.25           6763       13569.00     59255.20
  389.10        3343.50           6767       12667.00     55309.66
  389.13        3343.75           6771       11609.00     50682.93
  389.15        3344.00           6775       10513.00     45891.39
  389.18        3344.25           6778        9602.00     41909.68
  389.21        3344.50           6782        8609.00     37570.66
  389.24        3344.75           6786        7597.00     33149.78
  389.27        3345.00           6790        6563.00     28634.00
  389.29        3345.25           6793        5680.00     24778.66
  389.32        3345.50           6797        4419.00     19274.44
  389.35        3345.75           6801        3252.00     14182.15
  389.38        3346.00           6805        2195.00      9571.19
  389.40        3346.25           6808        1457.00      6352.56
  389.43        3346.50           6812         447.00      1948.68
  389.46        3346.75           6816          93.00       405.41
  389.49        3347.00           6819          54.00       235.40
  389.51        3347.25           6823          56.00       244.12
  389.54        3347.50           6827          47.00       204.88
  389.57        3347.75           6831          48.00       209.24
  389.60        3348.00           6834          43.00       187.45
  389.62        3348.25           6838          43.00       187.45
  389.65        3348.50           6842          47.00       204.88
  389.68        3348.75           6846          42.00       183.09
  389.71        3349.00           6849          43.00       187.45
  389.74        3349.25           6853          37.00       161.29
  389.77        3349.50           6857          40.00       174.37
  389.80        3349.75           6861          45.00       196.17
  389.83        3350.00           6864          43.00       187.45
  389.86        3350.25           6868          38.00       165.65
  389.88        3350.50           6872          38.00       165.65
  389.91        3350.75           6876          42.00       183.09
  389.94        3351.00           6879          43.00       187.45
HL scan finished at 06:31:25
end
