************************************************************
  HL Scan of (1) Internal mercury lamp
************************************************************
Integration time is 0.2294 seconds per sample
dh190117DelftKZ 51.997-4.386 2.10676pr1000
************************************************************
Dead Time -------------------------  3E-08 
Number of Cycles Used -------------  4 
Starting Wavelength (Angstroms) ---  3331 
Final Wavelength (Angstoms) -------  3351 
Wavelength Increment (Angstroms) --  .25 
Filter Wheel #1 Position ---------- (1) Ground quartz diffuser (ND=2.32)
Filter Wheel #2 Position ---------- 



************************************************************
HL scan start time = 00:32:55
Dark Count =  0 


Time (GMT)  Wavelength (Ang)  Step Number  Raw Counts  Counts/Second

   33.67        3331.00           6581          46.00       200.52
   34.08        3331.25           6584          47.00       204.88
   34.11        3331.50           6588          46.00       200.52
   34.14        3331.75           6592          46.00       200.52
   34.17        3332.00           6595          46.00       200.52
   34.20        3332.25           6599          47.00       204.88
   34.22        3332.50           6603          48.00       209.24
   34.25        3332.75           6607          44.00       191.81
   34.28        3333.00           6610          40.00       174.37
   34.31        3333.25           6614          45.00       196.17
   34.33        3333.50           6618          44.00       191.81
   34.36        3333.75           6622          46.00       200.52
   34.39        3334.00           6625          42.00       183.09
   34.42        3334.25           6629          44.00       191.81
   34.44        3334.50           6633          45.00       196.17
   34.47        3334.75           6636          44.00       191.81
   34.50        3335.00           6640          52.00       226.68
   34.53        3335.25           6644          52.00       226.68
   34.55        3335.50           6648          61.00       265.91
   34.58        3335.75           6651          61.00       265.91
   34.61        3336.00           6655          78.00       340.02
   34.64        3336.25           6659         288.00      1255.50
   34.66        3336.50           6663        1187.00      5175.17
   34.69        3336.75           6666        2103.00      9169.92
   34.72        3337.00           6670        3535.00     15416.89
   34.75        3337.25           6674        4981.00     21727.33
   34.78        3337.50           6677        6065.00     26459.53
   34.80        3337.75           6681        7514.00     32787.25
   34.83        3338.00           6685        8787.00     38348.36
   34.86        3338.25           6689       10262.00     44794.24
   34.89        3338.50           6692       11400.00     49769.12
   34.91        3338.75           6696       12687.00     55397.14
   34.94        3339.00           6700       13921.00     60795.18
   34.97        3339.25           6704       15221.00     66483.82
   35.00        3339.50           6707       16262.00     71040.53
   35.03        3339.75           6711       17753.00     77569.15
   35.05        3340.00           6715       19245.00     84104.71
   35.08        3340.25           6719       20520.00     89691.76
   35.11        3340.50           6722       21377.00     93448.19
   35.14        3340.75           6726       22836.00     99845.28
   35.17        3341.00           6730       23968.00    104810.30
   35.19        3341.25           6733       24320.00    106354.50
   35.22        3341.50           6737       24404.00    106723.00
   35.25        3341.75           6741       24226.00    105942.10
   35.28        3342.00           6745       23598.00    103187.30
   35.30        3342.25           6748       22351.00     97718.49
   35.33        3342.50           6752       21270.00     92979.14
   35.36        3342.75           6756       19713.00     86155.27
   35.39        3343.00           6760       18421.00     80494.94
   35.41        3343.25           6763       17438.00     76189.65
   35.44        3343.50           6767       16106.00     70357.60
   35.47        3343.75           6771       14759.00     64461.94
   35.50        3344.00           6775       13508.00     58988.35
   35.53        3344.25           6778       12475.00     54469.94
   35.55        3344.50           6782       10837.00     47307.73
   35.58        3344.75           6786        9339.00     40760.36
   35.61        3345.00           6790        7818.00     34115.11
   35.64        3345.25           6793        6810.00     29712.61
   35.67        3345.50           6797        5392.00     23521.39
   35.69        3345.75           6801        3925.00     17118.64
   35.72        3346.00           6805        2623.00     11438.10
   35.75        3346.25           6808        1786.00      7787.35
   35.78        3346.50           6812         641.00      2794.48
   35.80        3346.75           6816         153.00       666.97
   35.83        3347.00           6819          69.00       300.79
   35.86        3347.25           6823          52.00       226.68
   35.89        3347.50           6827          54.00       235.40
   35.91        3347.75           6831          49.00       213.60
   35.94        3348.00           6834          50.00       217.96
   35.97        3348.25           6838          48.00       209.24
   36.00        3348.50           6842          51.00       222.32
   36.02        3348.75           6846          46.00       200.52
   36.05        3349.00           6849          48.00       209.24
   36.08        3349.25           6853          43.00       187.45
   36.11        3349.50           6857          38.00       165.65
   36.14        3349.75           6861          46.00       200.52
   36.17        3350.00           6864          43.00       187.45
   36.20        3350.25           6868          40.00       174.37
   36.22        3350.50           6872          44.00       191.81
   36.25        3350.75           6876          45.00       196.17
   36.29        3351.00           6879          43.00       187.45
HL scan finished at 00:37:46
end
************************************************************
  HL Scan of (1) Internal mercury lamp
************************************************************
Integration time is 0.2294 seconds per sample
dh190117DelftKZ 51.997-4.386 2.10676pr1000
************************************************************
Dead Time -------------------------  3E-08 
Number of Cycles Used -------------  4 
Starting Wavelength (Angstroms) ---  3331 
Final Wavelength (Angstoms) -------  3351 
Wavelength Increment (Angstroms) --  .25 
Filter Wheel #1 Position ---------- (1) Ground quartz diffuser (ND=2.32)
Filter Wheel #2 Position ---------- 



************************************************************
HL scan start time = 06:23:28
Dark Count =  0 


Time (GMT)  Wavelength (Ang)  Step Number  Raw Counts  Counts/Second

  384.22        3331.00           6581          51.00       222.32
  384.63        3331.25           6584          41.00       178.73
  384.66        3331.50           6588          38.00       165.65
  384.69        3331.75           6592          44.00       191.81
  384.72        3332.00           6595          38.00       165.65
  384.74        3332.25           6599          48.00       209.24
  384.77        3332.50           6603          38.00       165.65
  384.80        3332.75           6607          36.00       156.93
  384.83        3333.00           6610          40.00       174.37
  384.85        3333.25           6614          42.00       183.09
  384.88        3333.50           6618          38.00       165.65
  384.91        3333.75           6622          42.00       183.09
  384.94        3334.00           6625          46.00       200.52
  384.96        3334.25           6629          45.00       196.17
  384.99        3334.50           6633          46.00       200.52
  385.02        3334.75           6636          43.00       187.45
  385.05        3335.00           6640          44.00       191.81
  385.08        3335.25           6644          48.00       209.24
  385.10        3335.50           6648          49.00       213.60
  385.13        3335.75           6651          58.00       252.84
  385.16        3336.00           6655          68.00       296.43
  385.19        3336.25           6659         334.00      1456.04
  385.21        3336.50           6663        1147.00      5000.75
  385.24        3336.75           6666        1826.00      7961.80
  385.27        3337.00           6670        2772.00     12088.08
  385.30        3337.25           6674        3948.00     17219.00
  385.33        3337.50           6677        4790.00     20893.65
  385.35        3337.75           6681        5830.00     25433.52
  385.38        3338.00           6685        6975.00     30433.18
  385.41        3338.25           6689        8107.00     35377.55
  385.44        3338.50           6692        8977.00     39178.54
  385.46        3338.75           6696       10097.00     44073.06
  385.49        3339.00           6700       11168.00     48754.79
  385.52        3339.25           6704       12276.00     53599.64
  385.55        3339.50           6707       13169.00     57505.40
  385.57        3339.75           6711       14180.00     61928.38
  385.60        3340.00           6715       15199.00     66387.55
  385.63        3340.25           6719       16169.00     70633.38
  385.66        3340.50           6722       16958.00     74087.78
  385.69        3340.75           6726       18072.00     78966.28
  385.72        3341.00           6730       19031.00     83167.15
  385.74        3341.25           6733       19324.00     84450.83
  385.77        3341.50           6737       19201.00     83911.94
  385.80        3341.75           6741       19075.00     83359.91
  385.83        3342.00           6745       18430.00     80534.37
  385.85        3342.25           6748       17745.00     77534.11
  385.88        3342.50           6752       16635.00     72673.53
  385.91        3342.75           6756       15858.00     69271.97
  385.94        3343.00           6760       14739.00     64374.42
  385.97        3343.25           6763       13797.00     60252.67
  385.99        3343.50           6767       12625.00     55125.96
  386.02        3343.75           6771       11712.00     51133.31
  386.05        3344.00           6775       10487.00     45777.74
  386.08        3344.25           6778        9595.00     41879.09
  386.10        3344.50           6782        8437.00     36819.20
  386.13        3344.75           6786        7196.00     31398.35
  386.16        3345.00           6790        6156.00     26856.85
  386.19        3345.25           6793        5465.00     23840.06
  386.22        3345.50           6797        4423.00     19291.90
  386.24        3345.75           6801        3336.00     14548.63
  386.27        3346.00           6805        2291.00      9989.92
  386.30        3346.25           6808        1500.00      6540.08
  386.33        3346.50           6812         420.00      1830.96
  386.35        3346.75           6816         105.00       457.72
  386.38        3347.00           6819          52.00       226.68
  386.41        3347.25           6823          52.00       226.68
  386.44        3347.50           6827          41.00       178.73
  386.47        3347.75           6831          47.00       204.88
  386.50        3348.00           6834          48.00       209.24
  386.53        3348.25           6838          46.00       200.52
  386.56        3348.50           6842          44.00       191.81
  386.58        3348.75           6846          44.00       191.81
  386.61        3349.00           6849          39.00       170.01
  386.64        3349.25           6853          44.00       191.81
  386.67        3349.50           6857          46.00       200.52
  386.69        3349.75           6861          37.00       161.29
  386.72        3350.00           6864          38.00       165.65
  386.75        3350.25           6868          44.00       191.81
  386.78        3350.50           6872          45.00       196.17
  386.80        3350.75           6876          45.00       196.17
  386.83        3351.00           6879          41.00       178.73
HL scan finished at 06:28:19
end
