************************************************************
  HL Scan of (1) Internal mercury lamp
************************************************************
Integration time is 0.2294 seconds per sample
dh210117DelftKZ 51.997-4.386 2.160408pr1000
************************************************************
Dead Time -------------------------  3E-08 
Number of Cycles Used -------------  4 
Starting Wavelength (Angstroms) ---  3331 
Final Wavelength (Angstoms) -------  3351 
Wavelength Increment (Angstroms) --  .25 
Filter Wheel #1 Position ---------- (1) Ground quartz diffuser (ND=2.32)
Filter Wheel #2 Position ---------- 



************************************************************
HL scan start time = 06:20:35
Dark Count =  .1 


Time (GMT)  Wavelength (Ang)  Step Number  Raw Counts  Counts/Second

  381.35        3331.00           6581          40.00       173.93
  381.76        3331.25           6584          39.00       169.57
  381.79        3331.50           6588          43.00       187.01
  381.81        3331.75           6592          37.00       160.86
  381.84        3332.00           6595          39.00       169.57
  381.87        3332.25           6599          38.00       165.21
  381.90        3332.50           6603          45.00       195.73
  381.92        3332.75           6607          40.00       173.93
  381.95        3333.00           6610          44.00       191.37
  381.98        3333.25           6614          39.00       169.57
  382.00        3333.50           6618          44.00       191.37
  382.03        3333.75           6622          36.00       156.50
  382.06        3334.00           6625          33.00       143.42
  382.09        3334.25           6629          42.00       182.65
  382.11        3334.50           6633          44.00       191.37
  382.14        3334.75           6636          44.00       191.37
  382.17        3335.00           6640          47.00       204.45
  382.20        3335.25           6644          55.00       239.32
  382.22        3335.50           6648          53.00       230.60
  382.25        3335.75           6651          53.00       230.60
  382.28        3336.00           6655          64.00       278.56
  382.31        3336.25           6659         160.00       697.05
  382.33        3336.50           6663         939.00      4093.35
  382.36        3336.75           6666        1770.00      7717.13
  382.39        3337.00           6670        2749.00     11987.31
  382.42        3337.25           6674        3763.00     16411.31
  382.44        3337.50           6677        4468.00     19487.85
  382.47        3337.75           6681        5565.00     24276.18
  382.50        3338.00           6685        6791.00     29629.20
  382.53        3338.25           6689        7673.00     33481.31
  382.55        3338.50           6692        8589.00     37482.85
  382.58        3338.75           6696        9678.00     42241.38
  382.61        3339.00           6700       10643.00     46459.22
  382.64        3339.25           6704       11826.00     51631.36
  382.67        3339.50           6707       12611.00     55064.30
  382.69        3339.75           6711       13842.00     60449.11
  382.72        3340.00           6715       14839.00     64811.60
  382.75        3340.25           6719       15955.00     69696.15
  382.78        3340.50           6722       16547.00     72287.82
  382.80        3340.75           6726       17574.00     76784.78
  382.83        3341.00           6730       18364.00     80244.82
  382.86        3341.25           6733       18811.00     82202.91
  382.89        3341.50           6737       18819.00     82237.96
  382.91        3341.75           6741       18836.00     82312.43
  382.94        3342.00           6745       18137.00     79250.54
  382.97        3342.25           6748       17497.00     76447.58
  382.99        3342.50           6752       16474.00     71968.21
  383.02        3342.75           6756       15434.00     67415.65
  383.05        3343.00           6760       14350.00     62671.78
  383.08        3343.25           6763       13625.00     59499.76
  383.10        3343.50           6767       12677.00     55352.96
  383.13        3343.75           6771       11629.00     50769.95
  383.16        3344.00           6775       10505.00     45855.98
  383.19        3344.25           6778        9579.00     41808.73
  383.22        3344.50           6782        8427.00     36775.08
  383.24        3344.75           6786        7181.00     31332.40
  383.27        3345.00           6790        6220.00     27135.86
  383.30        3345.25           6793        5408.00     23590.80
  383.33        3345.50           6797        4251.00     18540.82
  383.35        3345.75           6801        3277.00     14290.78
  383.38        3346.00           6805        2322.00     10124.70
  383.41        3346.25           6808        1564.00      6818.74
  383.44        3346.50           6812         606.00      2641.45
  383.46        3346.75           6816         114.00       496.52
  383.49        3347.00           6819          57.00       248.04
  383.52        3347.25           6823          45.00       195.73
  383.55        3347.50           6827          48.00       208.81
  383.57        3347.75           6831          56.00       243.68
  383.60        3348.00           6834          44.00       191.37
  383.63        3348.25           6838          48.00       208.81
  383.65        3348.50           6842          39.00       169.57
  383.68        3348.75           6846          46.00       200.09
  383.71        3349.00           6849          40.00       173.93
  383.74        3349.25           6853          43.00       187.01
  383.76        3349.50           6857          40.00       173.93
  383.79        3349.75           6861          47.00       204.45
  383.82        3350.00           6864          37.00       160.86
  383.85        3350.25           6868          40.00       173.93
  383.87        3350.50           6872          37.00       160.86
  383.90        3350.75           6876          39.00       169.57
  383.93        3351.00           6879          39.00       169.57
HL scan finished at 06:25:24
end
