************************************************************
  HL Scan of (1) Internal mercury lamp
************************************************************
Integration time is 0.2294 seconds per sample
dh280117DelftKZ 51.997-4.386 2.375pr1000
************************************************************
Dead Time -------------------------  3E-08 
Number of Cycles Used -------------  4 
Starting Wavelength (Angstroms) ---  3331 
Final Wavelength (Angstoms) -------  3351 
Wavelength Increment (Angstroms) --  .25 
Filter Wheel #1 Position ---------- (1) Ground quartz diffuser (ND=2.32)
Filter Wheel #2 Position ---------- 



************************************************************
HL scan start time = 06:13:45
Dark Count =  0 


Time (GMT)  Wavelength (Ang)  Step Number  Raw Counts  Counts/Second

  374.51        3331.00           6581          41.00       178.73
  374.92        3331.25           6584          43.00       187.45
  374.94        3331.50           6588          35.00       152.57
  374.97        3331.75           6592          46.00       200.52
  375.00        3332.00           6595          51.00       222.32
  375.02        3332.25           6599          42.00       183.09
  375.05        3332.50           6603          34.00       148.21
  375.08        3332.75           6607          45.00       196.17
  375.11        3333.00           6610          44.00       191.81
  375.13        3333.25           6614          38.00       165.65
  375.16        3333.50           6618          44.00       191.81
  375.19        3333.75           6622          40.00       174.37
  375.22        3334.00           6625          44.00       191.81
  375.24        3334.25           6629          49.00       213.60
  375.27        3334.50           6633          40.00       174.37
  375.30        3334.75           6636          39.00       170.01
  375.33        3335.00           6640          50.00       217.96
  375.35        3335.25           6644          49.00       213.60
  375.38        3335.50           6648          58.00       252.84
  375.41        3335.75           6651          57.00       248.48
  375.44        3336.00           6655          74.00       322.58
  375.47        3336.25           6659         333.00      1451.68
  375.50        3336.50           6663        1269.00      5532.74
  375.52        3336.75           6666        2086.00      9095.77
  375.55        3337.00           6670        3229.00     14081.80
  375.58        3337.25           6674        4509.00     19667.23
  375.61        3337.50           6677        5639.00     24599.67
  375.64        3337.75           6681        7116.00     31048.96
  375.67        3338.00           6685        8301.00     36225.05
  375.69        3338.25           6689        9693.00     42307.37
  375.72        3338.50           6692       10569.00     46136.18
  375.75        3338.75           6696       12082.00     52751.25
  375.78        3339.00           6700       13408.00     58550.89
  375.80        3339.25           6704       14495.00     63306.70
  375.83        3339.50           6707       15612.00     68195.18
  375.86        3339.75           6711       16892.00     73798.78
  375.89        3340.00           6715       18059.00     78909.35
  375.91        3340.25           6719       19405.00     84805.72
  375.94        3340.50           6722       20320.00     88815.24
  375.97        3340.75           6726       21760.00     95127.24
  376.00        3341.00           6730       22874.00    100011.90
  376.02        3341.25           6733       23426.00    102432.90
  376.05        3341.50           6737       23193.00    101410.90
  376.08        3341.75           6741       23278.00    101783.70
  376.11        3342.00           6745       22837.00     99849.66
  376.13        3342.25           6748       21946.00     95942.72
  376.16        3342.50           6752       20493.00     89573.42
  376.19        3342.75           6756       19125.00     83578.97
  376.22        3343.00           6760       17865.00     78059.65
  376.24        3343.25           6763       16940.00     74008.96
  376.27        3343.50           6767       15602.00     68151.41
  376.30        3343.75           6771       14290.00     62409.69
  376.33        3344.00           6775       12865.00     56175.67
  376.35        3344.25           6778       12088.00     52777.48
  376.38        3344.50           6782       10672.00     46586.42
  376.41        3344.75           6786        9275.00     40480.69
  376.44        3345.00           6790        7866.00     34324.78
  376.46        3345.25           6793        6762.00     29503.00
  376.49        3345.50           6797        5273.00     23001.92
  376.52        3345.75           6801        3978.00     17349.92
  376.55        3346.00           6805        2842.00     12393.45
  376.57        3346.25           6808        1696.00      7394.84
  376.60        3346.50           6812         552.00      2406.45
  376.63        3346.75           6816         130.00       566.71
  376.66        3347.00           6819          63.00       274.63
  376.68        3347.25           6823          58.00       252.84
  376.71        3347.50           6827          54.00       235.40
  376.74        3347.75           6831          45.00       196.17
  376.77        3348.00           6834          47.00       204.88
  376.79        3348.25           6838          44.00       191.81
  376.82        3348.50           6842          46.00       200.52
  376.85        3348.75           6846          42.00       183.09
  376.87        3349.00           6849          39.00       170.01
  376.90        3349.25           6853          42.00       183.09
  376.93        3349.50           6857          46.00       200.52
  376.96        3349.75           6861          49.00       213.60
  376.98        3350.00           6864          42.00       183.09
  377.01        3350.25           6868          42.00       183.09
  377.04        3350.50           6872          44.00       191.81
  377.07        3350.75           6876          41.00       178.73
  377.09        3351.00           6879          47.00       204.88
HL scan finished at 06:18:34
end
