************************************************************
  HL Scan of (1) Internal mercury lamp
************************************************************
Integration time is 0.2294 seconds per sample
dh260117DelftKZ 51.997-4.386 2.10676pr1000
************************************************************
Dead Time -------------------------  3E-08 
Number of Cycles Used -------------  4 
Starting Wavelength (Angstroms) ---  3331 
Final Wavelength (Angstoms) -------  3351 
Wavelength Increment (Angstroms) --  .25 
Filter Wheel #1 Position ---------- (1) Ground quartz diffuser (ND=2.32)
Filter Wheel #2 Position ---------- 



************************************************************
HL scan start time = 00:34:40
Dark Count =  0 


Time (GMT)  Wavelength (Ang)  Step Number  Raw Counts  Counts/Second

   35.42        3331.00           6581          40.00       174.37
   35.83        3331.25           6584          43.00       187.45
   35.85        3331.50           6588          46.00       200.52
   35.88        3331.75           6592          44.00       191.81
   35.91        3332.00           6595          41.00       178.73
   35.94        3332.25           6599          42.00       183.09
   35.96        3332.50           6603          50.00       217.96
   35.99        3332.75           6607          46.00       200.52
   36.02        3333.00           6610          45.00       196.17
   36.05        3333.25           6614          42.00       183.09
   36.08        3333.50           6618          49.00       213.60
   36.10        3333.75           6622          47.00       204.88
   36.13        3334.00           6625          50.00       217.96
   36.16        3334.25           6629          52.00       226.68
   36.19        3334.50           6633          48.00       209.24
   36.22        3334.75           6636          46.00       200.52
   36.25        3335.00           6640          51.00       222.32
   36.28        3335.25           6644          52.00       226.68
   36.31        3335.50           6648          55.00       239.76
   36.33        3335.75           6651          65.00       283.35
   36.37        3336.00           6655          69.00       300.79
   36.39        3336.25           6659         157.00       684.41
   36.42        3336.50           6663        1032.00      4499.30
   36.45        3336.75           6666        2027.00      8838.44
   36.48        3337.00           6670        3399.00     14823.50
   36.51        3337.25           6674        5123.00     22347.15
   36.53        3337.50           6677        6317.00     27559.83
   36.56        3337.75           6681        7712.00     33652.10
   36.59        3338.00           6685        9209.00     40192.29
   36.62        3338.25           6689       10580.00     46184.26
   36.65        3338.50           6692       11675.00     50971.52
   36.68        3338.75           6696       12978.00     56669.94
   36.71        3339.00           6700       14228.00     62138.40
   36.74        3339.25           6704       15492.00     67669.93
   36.77        3339.50           6707       16724.00     73063.20
   36.80        3339.75           6711       18225.00     79636.41
   36.83        3340.00           6715       19598.00     85651.37
   36.86        3340.25           6719       20880.00     91269.62
   36.88        3340.50           6722       21931.00     95876.94
   36.91        3340.75           6726       23061.00    100832.00
   36.94        3341.00           6730       24467.00    106999.40
   36.97        3341.25           6733       24736.00    108179.70
   36.99        3341.50           6737       24812.00    108513.10
   37.02        3341.75           6741       24659.00    107841.80
   37.05        3342.00           6745       23959.00    104770.80
   37.08        3342.25           6748       22958.00    100380.30
   37.12        3342.50           6752       21451.00     93772.59
   37.14        3342.75           6756       20235.00     88442.72
   37.17        3343.00           6760       18706.00     81743.38
   37.20        3343.25           6763       17642.00     77083.02
   37.23        3343.50           6767       16274.00     71093.05
   37.26        3343.75           6771       15132.00     66094.31
   37.29        3344.00           6775       13671.00     59701.43
   37.32        3344.25           6778       12517.00     54653.62
   37.35        3344.50           6782       11104.00     48474.98
   37.38        3344.75           6786        9521.00     41555.70
   37.40        3345.00           6790        8086.00     35285.81
   37.43        3345.25           6793        7036.00     30699.58
   37.46        3345.50           6797        5720.00     24953.29
   37.49        3345.75           6801        4322.00     18851.11
   37.52        3346.00           6805        3039.00     13252.87
   37.54        3346.25           6808        2074.00      9043.43
   37.57        3346.50           6812         868.00      3784.21
   37.60        3346.75           6816         183.00       797.75
   37.63        3347.00           6819          68.00       296.43
   37.65        3347.25           6823          58.00       252.84
   37.68        3347.50           6827          58.00       252.84
   37.72        3347.75           6831          52.00       226.68
   37.74        3348.00           6834          47.00       204.88
   37.77        3348.25           6838          53.00       231.04
   37.80        3348.50           6842          47.00       204.88
   37.82        3348.75           6846          44.00       191.81
   37.85        3349.00           6849          44.00       191.81
   37.88        3349.25           6853          47.00       204.88
   37.91        3349.50           6857          45.00       196.17
   37.93        3349.75           6861          51.00       222.32
   37.96        3350.00           6864          41.00       178.73
   37.99        3350.25           6868          46.00       200.52
   38.02        3350.50           6872          43.00       187.45
   38.05        3350.75           6876          44.00       191.81
   38.07        3351.00           6879          49.00       213.60
HL scan finished at 00:39:33
end
************************************************************
  HL Scan of (1) Internal mercury lamp
************************************************************
Integration time is 0.2294 seconds per sample
dh260117DelftKZ 51.997-4.386 2.10676pr1000
************************************************************
Dead Time -------------------------  3E-08 
Number of Cycles Used -------------  4 
Starting Wavelength (Angstroms) ---  3331 
Final Wavelength (Angstoms) -------  3351 
Wavelength Increment (Angstroms) --  .25 
Filter Wheel #1 Position ---------- (1) Ground quartz diffuser (ND=2.32)
Filter Wheel #2 Position ---------- 



************************************************************
HL scan start time = 06:16:27
Dark Count =  .1 


Time (GMT)  Wavelength (Ang)  Step Number  Raw Counts  Counts/Second

  377.21        3331.00           6581          40.00       173.93
  377.62        3331.25           6584          36.00       156.50
  377.64        3331.50           6588          41.00       178.29
  377.67        3331.75           6592          40.00       173.93
  377.70        3332.00           6595          50.00       217.53
  377.73        3332.25           6599          41.00       178.29
  377.76        3332.50           6603          44.00       191.37
  377.78        3332.75           6607          42.00       182.65
  377.81        3333.00           6610          45.00       195.73
  377.84        3333.25           6614          44.00       191.37
  377.87        3333.50           6618          39.00       169.57
  377.89        3333.75           6622          43.00       187.01
  377.92        3334.00           6625          44.00       191.37
  377.95        3334.25           6629          41.00       178.29
  377.98        3334.50           6633          42.00       182.65
  378.00        3334.75           6636          48.00       208.81
  378.03        3335.00           6640          60.00       261.12
  378.06        3335.25           6644          52.00       226.24
  378.09        3335.50           6648          55.00       239.32
  378.11        3335.75           6651          58.00       252.40
  378.14        3336.00           6655          74.00       322.15
  378.17        3336.25           6659         370.00      1612.55
  378.20        3336.50           6663        1322.00      5763.42
  378.23        3336.75           6666        2119.00      9239.26
  378.25        3337.00           6670        3216.00     14024.64
  378.28        3337.25           6674        4225.00     18427.36
  378.31        3337.50           6677        5032.00     21949.50
  378.34        3337.75           6681        6053.00     26406.70
  378.36        3338.00           6685        7079.00     30886.93
  378.39        3338.25           6689        8429.00     36783.81
  378.42        3338.50           6692        9279.00     40497.74
  378.45        3338.75           6696       10433.00     45541.26
  378.47        3339.00           6700       11525.00     50315.22
  378.50        3339.25           6704       12558.00     54832.50
  378.53        3339.50           6707       13324.00     58182.99
  378.56        3339.75           6711       14441.00     63069.97
  378.59        3340.00           6715       15484.00     67634.49
  378.62        3340.25           6719       16480.00     71994.48
  378.64        3340.50           6722       17361.00     75852.02
  378.67        3340.75           6726       18308.00     79999.53
  378.70        3341.00           6730       19300.00     84345.24
  378.73        3341.25           6733       19510.00     85265.34
  378.76        3341.50           6737       19564.00     85501.96
  378.78        3341.75           6741       19480.00     85133.90
  378.81        3342.00           6745       18383.00     80328.06
  378.84        3342.25           6748       17674.00     77222.72
  378.87        3342.50           6752       16719.00     73040.87
  378.89        3342.75           6756       15813.00     69074.55
  378.92        3343.00           6760       14591.00     63726.35
  378.95        3343.25           6763       13843.00     60453.48
  378.98        3343.50           6767       12660.00     55278.61
  379.01        3343.75           6771       11518.00     50284.61
  379.03        3344.00           6775       10438.00     45563.11
  379.06        3344.25           6778        9554.00     41699.48
  379.09        3344.50           6782        8445.00     36853.72
  379.12        3344.75           6786        7330.00     31983.16
  379.14        3345.00           6790        6312.00     27537.56
  379.17        3345.25           6793        5533.00     24136.48
  379.20        3345.50           6797        4383.00     19116.89
  379.23        3345.75           6801        3189.00     13906.85
  379.26        3346.00           6805        2045.00      8916.51
  379.28        3346.25           6808        1188.00      5179.10
  379.31        3346.50           6812         325.00      1416.36
  379.34        3346.75           6816          89.00       387.54
  379.37        3347.00           6819          51.00       221.88
  379.39        3347.25           6823          50.00       217.53
  379.42        3347.50           6827          50.00       217.53
  379.45        3347.75           6831          43.00       187.01
  379.48        3348.00           6834          40.00       173.93
  379.50        3348.25           6838          46.00       200.09
  379.53        3348.50           6842          43.00       187.01
  379.56        3348.75           6846          43.00       187.01
  379.59        3349.00           6849          45.00       195.73
  379.61        3349.25           6853          38.00       165.21
  379.65        3349.50           6857          33.00       143.42
  379.68        3349.75           6861          37.00       160.86
  379.71        3350.00           6864          39.00       169.57
  379.73        3350.25           6868          41.00       178.29
  379.76        3350.50           6872          41.00       178.29
  379.79        3350.75           6876          41.00       178.29
  379.82        3351.00           6879          37.00       160.86
HL scan finished at 06:21:18
end
