************************************************************
  HL Scan of (1) Internal mercury lamp
************************************************************
Integration time is 0.2294 seconds per sample
dh240117DelftKZ 51.997-4.386 2.267704pr1000
************************************************************
Dead Time -------------------------  3E-08 
Number of Cycles Used -------------  4 
Starting Wavelength (Angstroms) ---  3331 
Final Wavelength (Angstoms) -------  3351 
Wavelength Increment (Angstroms) --  .25 
Filter Wheel #1 Position ---------- (1) Ground quartz diffuser (ND=2.32)
Filter Wheel #2 Position ---------- 



************************************************************
HL scan start time = 06:18:33
Dark Count =  0 


Time (GMT)  Wavelength (Ang)  Step Number  Raw Counts  Counts/Second

  379.31        3331.00           6581          39.00       170.01
  379.71        3331.25           6584          44.00       191.81
  379.74        3331.50           6588          43.00       187.45
  379.77        3331.75           6592          44.00       191.81
  379.80        3332.00           6595          37.00       161.29
  379.82        3332.25           6599          43.00       187.45
  379.85        3332.50           6603          37.00       161.29
  379.88        3332.75           6607          45.00       196.17
  379.91        3333.00           6610          37.00       161.29
  379.94        3333.25           6614          41.00       178.73
  379.96        3333.50           6618          39.00       170.01
  379.99        3333.75           6622          40.00       174.37
  380.02        3334.00           6625          35.00       152.57
  380.05        3334.25           6629          47.00       204.88
  380.07        3334.50           6633          42.00       183.09
  380.10        3334.75           6636          38.00       165.65
  380.13        3335.00           6640          44.00       191.81
  380.16        3335.25           6644          51.00       222.32
  380.19        3335.50           6648          49.00       213.60
  380.22        3335.75           6651          56.00       244.12
  380.24        3336.00           6655          75.00       326.94
  380.27        3336.25           6659         182.00       793.39
  380.30        3336.50           6663         882.00      3845.26
  380.33        3336.75           6666        1802.00      7857.13
  380.35        3337.00           6670        2806.00     12236.40
  380.38        3337.25           6674        3810.00     16616.83
  380.41        3337.50           6677        4738.00     20666.69
  380.44        3337.75           6681        5940.00     25913.78
  380.47        3338.00           6685        7069.00     30843.70
  380.49        3338.25           6689        8246.00     35984.77
  380.52        3338.50           6692        9159.00     39973.81
  380.55        3338.75           6696       10275.00     44851.07
  380.58        3339.00           6700       11375.00     49659.81
  380.60        3339.25           6704       12588.00     54964.15
  380.63        3339.50           6707       13428.00     58638.38
  380.66        3339.75           6711       14177.00     61915.25
  380.69        3340.00           6715       15190.00     66348.15
  380.72        3340.25           6719       16473.00     71964.27
  380.75        3340.50           6722       17062.00     74543.15
  380.77        3340.75           6726       18478.00     80744.62
  380.80        3341.00           6730       19458.00     85037.94
  380.83        3341.25           6733       19545.00     85419.13
  380.86        3341.50           6737       19677.00     85997.52
  380.89        3341.75           6741       19681.00     86015.04
  380.91        3342.00           6745       18875.00     82483.71
  380.94        3342.25           6748       18215.00     79592.61
  380.97        3342.50           6752       17146.00     74910.97
  381.00        3342.75           6756       16157.00     70580.85
  381.02        3343.00           6760       15001.00     65520.99
  381.05        3343.25           6763       14153.00     61810.24
  381.08        3343.50           6767       12962.00     56599.96
  381.11        3343.75           6771       12003.00     52405.78
  381.13        3344.00           6775       10737.00     46870.57
  381.16        3344.25           6778        9807.00     42805.59
  381.19        3344.50           6782        8620.00     37618.72
  381.22        3344.75           6786        7599.00     33158.52
  381.25        3345.00           6790        6526.00     28472.44
  381.27        3345.25           6793        5819.00     25385.50
  381.30        3345.50           6797        4628.00     20186.59
  381.33        3345.75           6801        3397.00     14814.78
  381.36        3346.00           6805        2308.00     10064.07
  381.38        3346.25           6808        1479.00      6448.50
  381.41        3346.50           6812         545.00      2375.93
  381.44        3346.75           6816         131.00       571.06
  381.47        3347.00           6819          60.00       261.55
  381.49        3347.25           6823          55.00       239.76
  381.52        3347.50           6827          47.00       204.88
  381.55        3347.75           6831          46.00       200.52
  381.58        3348.00           6834          42.00       183.09
  381.61        3348.25           6838          43.00       187.45
  381.63        3348.50           6842          44.00       191.81
  381.66        3348.75           6846          42.00       183.09
  381.69        3349.00           6849          39.00       170.01
  381.72        3349.25           6853          36.00       156.93
  381.74        3349.50           6857          38.00       165.65
  381.77        3349.75           6861          39.00       170.01
  381.80        3350.00           6864          50.00       217.96
  381.83        3350.25           6868          40.00       174.37
  381.85        3350.50           6872          43.00       187.45
  381.88        3350.75           6876          38.00       165.65
  381.91        3351.00           6879          38.00       165.65
HL scan finished at 06:23:24
end
