************************************************************
  HL Scan of (1) Internal mercury lamp
************************************************************
Integration time is 0.2294 seconds per sample
dh250117DelftKZ 51.997-4.386 2.214056pr1000
************************************************************
Dead Time -------------------------  3E-08 
Number of Cycles Used -------------  4 
Starting Wavelength (Angstroms) ---  3331 
Final Wavelength (Angstoms) -------  3351 
Wavelength Increment (Angstroms) --  .25 
Filter Wheel #1 Position ---------- (1) Ground quartz diffuser (ND=2.32)
Filter Wheel #2 Position ---------- 



************************************************************
HL scan start time = 06:17:29
Dark Count =  .1 


Time (GMT)  Wavelength (Ang)  Step Number  Raw Counts  Counts/Second

  378.24        3331.00           6581          39.00       169.57
  378.65        3331.25           6584          40.00       173.93
  378.68        3331.50           6588          41.00       178.29
  378.71        3331.75           6592          44.00       191.37
  378.74        3332.00           6595          38.00       165.21
  378.77        3332.25           6599          38.00       165.21
  378.80        3332.50           6603          39.00       169.57
  378.82        3332.75           6607          42.00       182.65
  378.85        3333.00           6610          39.00       169.57
  378.88        3333.25           6614          40.00       173.93
  378.91        3333.50           6618          35.00       152.14
  378.93        3333.75           6622          39.00       169.57
  378.96        3334.00           6625          37.00       160.86
  378.99        3334.25           6629          44.00       191.37
  379.02        3334.50           6633          39.00       169.57
  379.04        3334.75           6636          37.00       160.86
  379.07        3335.00           6640          52.00       226.24
  379.10        3335.25           6644          47.00       204.45
  379.13        3335.50           6648          48.00       208.81
  379.15        3335.75           6651          50.00       217.53
  379.18        3336.00           6655          62.00       269.84
  379.21        3336.25           6659         178.00       775.52
  379.24        3336.50           6663         954.00      4158.76
  379.26        3336.75           6666        1617.00      7049.88
  379.29        3337.00           6670        2525.00     11010.18
  379.32        3337.25           6674        3548.00     15473.18
  379.35        3337.50           6677        4487.00     19570.77
  379.38        3337.75           6681        5708.00     24900.46
  379.41        3338.00           6685        6841.00     29847.55
  379.44        3338.25           6689        7952.00     34700.01
  379.47        3338.50           6692        8757.00     38216.85
  379.50        3338.75           6696        9841.00     42953.75
  379.53        3339.00           6700       10937.00     47744.45
  379.55        3339.25           6704       11825.00     51626.98
  379.58        3339.50           6707       12625.00     55125.53
  379.61        3339.75           6711       13671.00     59700.99
  379.64        3340.00           6715       14620.00     63853.24
  379.66        3340.25           6719       15810.00     69061.43
  379.69        3340.50           6722       16568.00     72379.75
  379.72        3340.75           6726       17619.00     76981.86
  379.75        3341.00           6730       18555.00     81081.48
  379.77        3341.25           6733       18649.00     81493.25
  379.80        3341.50           6737       18700.00     81716.66
  379.83        3341.75           6741       18768.00     82014.53
  379.86        3342.00           6745       18236.00     79684.16
  379.89        3342.25           6748       17525.00     76570.20
  379.91        3342.50           6752       16438.00     71810.60
  379.94        3342.75           6756       15437.00     67428.77
  379.97        3343.00           6760       14141.00     61757.30
  380.00        3343.25           6763       13346.00     58279.23
  380.02        3343.50           6767       12398.00     54132.74
  380.05        3343.75           6771       11206.00     48920.48
  380.08        3344.00           6775       10272.00     44837.52
  380.11        3344.25           6778        9435.00     41179.44
  380.14        3344.50           6782        8447.00     36862.45
  380.17        3344.75           6786        7298.00     31843.40
  380.20        3345.00           6790        6320.00     27572.50
  380.22        3345.25           6793        5502.00     24001.15
  380.25        3345.50           6797        4271.00     18628.11
  380.28        3345.75           6801        3184.00     13885.03
  380.31        3346.00           6805        2267.00      9884.80
  380.33        3346.25           6808        1517.00      6613.78
  380.36        3346.50           6812         565.00      2462.69
  380.39        3346.75           6816         122.00       531.39
  380.42        3347.00           6819          53.00       230.60
  380.45        3347.25           6823          57.00       248.04
  380.47        3347.50           6827          53.00       230.60
  380.50        3347.75           6831          42.00       182.65
  380.53        3348.00           6834          46.00       200.09
  380.56        3348.25           6838          40.00       173.93
  380.58        3348.50           6842          42.00       182.65
  380.61        3348.75           6846          43.00       187.01
  380.64        3349.00           6849          44.00       191.37
  380.67        3349.25           6853          40.00       173.93
  380.69        3349.50           6857          44.00       191.37
  380.72        3349.75           6861          41.00       178.29
  380.75        3350.00           6864          45.00       195.73
  380.78        3350.25           6868          42.00       182.65
  380.80        3350.50           6872          40.00       173.93
  380.83        3350.75           6876          37.00       160.86
  380.86        3351.00           6879          42.00       182.65
HL scan finished at 06:22:20
end
