************************************************************
  HL Scan of (1) Internal mercury lamp
************************************************************
Integration time is 0.2294 seconds per sample
dh270117DelftKZ 51.997-4.386 2.10676pr1000
************************************************************
Dead Time -------------------------  3E-08 
Number of Cycles Used -------------  4 
Starting Wavelength (Angstroms) ---  3331 
Final Wavelength (Angstoms) -------  3351 
Wavelength Increment (Angstroms) --  .25 
Filter Wheel #1 Position ---------- (1) Ground quartz diffuser (ND=2.32)
Filter Wheel #2 Position ---------- 



************************************************************
HL scan start time = 06:15:28
Dark Count =  0 


Time (GMT)  Wavelength (Ang)  Step Number  Raw Counts  Counts/Second

  376.22        3331.00           6581          42.00       183.09
  376.63        3331.25           6584          44.00       191.81
  376.66        3331.50           6588          46.00       200.52
  376.69        3331.75           6592          38.00       165.65
  376.72        3332.00           6595          39.00       170.01
  376.74        3332.25           6599          35.00       152.57
  376.77        3332.50           6603          40.00       174.37
  376.80        3332.75           6607          40.00       174.37
  376.83        3333.00           6610          39.00       170.01
  376.85        3333.25           6614          44.00       191.81
  376.88        3333.50           6618          38.00       165.65
  376.91        3333.75           6622          35.00       152.57
  376.94        3334.00           6625          40.00       174.37
  376.97        3334.25           6629          42.00       183.09
  376.99        3334.50           6633          44.00       191.81
  377.02        3334.75           6636          48.00       209.24
  377.05        3335.00           6640          43.00       187.45
  377.08        3335.25           6644          50.00       217.96
  377.11        3335.50           6648          46.00       200.52
  377.14        3335.75           6651          54.00       235.40
  377.16        3336.00           6655          69.00       300.79
  377.19        3336.25           6659         376.00      1639.14
  377.22        3336.50           6663        1242.00      5415.00
  377.25        3336.75           6666        1990.00      8677.06
  377.28        3337.00           6670        2968.00     12943.13
  377.31        3337.25           6674        3950.00     17227.74
  377.34        3337.50           6677        4889.00     21325.76
  377.36        3337.75           6681        6067.00     26468.26
  377.39        3338.00           6685        7196.00     31398.35
  377.42        3338.25           6689        8351.00     36443.49
  377.45        3338.50           6692        9098.00     39707.26
  377.48        3338.75           6696       10182.00     44444.58
  377.50        3339.00           6700       11360.00     49594.22
  377.53        3339.25           6704       12394.00     54115.69
  377.56        3339.50           6707       13094.00     57177.33
  377.59        3339.75           6711       14286.00     62392.18
  377.62        3340.00           6715       15406.00     67293.52
  377.64        3340.25           6719       16491.00     72043.07
  377.67        3340.50           6722       17373.00     75905.00
  377.70        3340.75           6726       18318.00     80043.77
  377.73        3341.00           6730       19272.00     84222.99
  377.75        3341.25           6733       19521.00     85313.98
  377.78        3341.50           6737       19391.00     84744.39
  377.81        3341.75           6741       19354.00     84582.28
  377.84        3342.00           6745       18704.00     81734.60
  377.86        3342.25           6748       17930.00     78344.34
  377.89        3342.50           6752       16686.00     72896.82
  377.92        3342.75           6756       15566.00     67993.83
  377.95        3343.00           6760       14492.00     63293.57
  377.98        3343.25           6763       13708.00     59863.30
  378.01        3343.50           6767       12716.00     55523.98
  378.04        3343.75           6771       11567.00     50499.29
  378.06        3344.00           6775       10578.00     46175.52
  378.09        3344.25           6778        9665.00     42185.00
  378.12        3344.50           6782        8664.00     37810.96
  378.15        3344.75           6786        7454.00     32525.18
  378.17        3345.00           6790        6304.00     27503.07
  378.20        3345.25           6793        5454.00     23792.04
  378.23        3345.50           6797        4116.00     17952.13
  378.26        3345.75           6801        3161.00     13785.13
  378.29        3346.00           6805        2099.00      9152.47
  378.31        3346.25           6808        1228.00      5353.95
  378.34        3346.50           6812         310.00      1351.41
  378.37        3346.75           6816          98.00       427.21
  378.40        3347.00           6819          61.00       265.91
  378.42        3347.25           6823          57.00       248.48
  378.45        3347.50           6827          50.00       217.96
  378.48        3347.75           6831          49.00       213.60
  378.51        3348.00           6834          49.00       213.60
  378.53        3348.25           6838          39.00       170.01
  378.56        3348.50           6842          36.00       156.93
  378.59        3348.75           6846          45.00       196.17
  378.62        3349.00           6849          41.00       178.73
  378.64        3349.25           6853          41.00       178.73
  378.67        3349.50           6857          48.00       209.24
  378.70        3349.75           6861          44.00       191.81
  378.73        3350.00           6864          36.00       156.93
  378.75        3350.25           6868          40.00       174.37
  378.78        3350.50           6872          42.00       183.09
  378.81        3350.75           6876          43.00       187.45
  378.84        3351.00           6879          44.00       191.81
HL scan finished at 06:20:19
end
