************************************************************
  HL Scan of (1) Internal mercury lamp
************************************************************
Integration time is 0.2294 seconds per sample
dh060217DelftKZ 51.997-4.386 2.321352pr1000
************************************************************
Dead Time -------------------------  3E-08 
Number of Cycles Used -------------  4 
Starting Wavelength (Angstroms) ---  3331 
Final Wavelength (Angstoms) -------  3351 
Wavelength Increment (Angstroms) --  .25 
Filter Wheel #1 Position ---------- (1) Ground quartz diffuser (ND=2.32)
Filter Wheel #2 Position ---------- 



************************************************************
HL scan start time = 06:02:26
Dark Count =  .1 


Time (GMT)  Wavelength (Ang)  Step Number  Raw Counts  Counts/Second

  363.19        3331.00           6581          37.00       160.86
  363.60        3331.25           6584          46.00       200.09
  363.63        3331.50           6588          43.00       187.01
  363.66        3331.75           6592          36.00       156.50
  363.69        3332.00           6595          35.00       152.14
  363.72        3332.25           6599          42.00       182.65
  363.75        3332.50           6603          42.00       182.65
  363.78        3332.75           6607          47.00       204.45
  363.81        3333.00           6610          49.00       213.17
  363.84        3333.25           6614          41.00       178.29
  363.87        3333.50           6618          39.00       169.57
  363.90        3333.75           6622          45.00       195.73
  363.92        3334.00           6625          44.00       191.37
  363.95        3334.25           6629          45.00       195.73
  363.98        3334.50           6633          48.00       208.81
  364.01        3334.75           6636          45.00       195.73
  364.03        3335.00           6640          50.00       217.53
  364.06        3335.25           6644          56.00       243.68
  364.09        3335.50           6648          53.00       230.60
  364.12        3335.75           6651          55.00       239.32
  364.15        3336.00           6655          65.00       282.91
  364.17        3336.25           6659         196.00       853.99
  364.20        3336.50           6663        1184.00      5161.65
  364.23        3336.75           6666        2092.00      9121.50
  364.26        3337.00           6670        3152.00     13745.42
  364.28        3337.25           6674        4213.00     18374.99
  364.31        3337.50           6677        5147.00     22451.47
  364.35        3337.75           6681        6620.00     28882.47
  364.38        3338.00           6685        7717.00     33673.49
  364.40        3338.25           6689        8978.00     39182.47
  364.43        3338.50           6692        9939.00     43382.07
  364.46        3338.75           6696       11105.00     48478.92
  364.49        3339.00           6700       12534.00     54727.53
  364.52        3339.25           6704       13807.00     60295.99
  364.54        3339.50           6707       14664.00     64045.78
  364.57        3339.75           6711       15818.00     69096.45
  364.60        3340.00           6715       17210.00     75190.79
  364.63        3340.25           6719       18239.00     79697.30
  364.65        3340.50           6722       19172.00     83784.45
  364.68        3340.75           6726       20261.00     88556.24
  364.71        3341.00           6730       21360.00     93373.22
  364.74        3341.25           6733       21810.00     95346.01
  364.76        3341.50           6737       21967.00     96034.35
  364.79        3341.75           6741       21794.00     95275.86
  364.82        3342.00           6745       21134.00     92382.54
  364.85        3342.25           6748       20308.00     88762.21
  364.88        3342.50           6752       19150.00     83688.06
  364.90        3342.75           6756       17832.00     77914.69
  364.93        3343.00           6760       16739.00     73128.44
  364.96        3343.25           6763       15917.00     69529.81
  364.99        3343.50           6767       14696.00     64185.82
  365.01        3343.75           6771       13612.00     59442.88
  365.04        3344.00           6775       12111.00     52877.63
  365.07        3344.25           6778       11003.00     48032.99
  365.10        3344.50           6782        9759.00     42595.38
  365.12        3344.75           6786        8473.00     36976.04
  365.15        3345.00           6790        7315.00     31917.65
  365.18        3345.25           6793        6234.00     27196.99
  365.21        3345.50           6797        5016.00     21879.66
  365.24        3345.75           6801        3912.00     17061.48
  365.26        3346.00           6805        2766.00     12061.47
  365.29        3346.25           6808        1848.00      8057.31
  365.32        3346.50           6812         649.00      2828.92
  365.35        3346.75           6816         132.00       574.99
  365.37        3347.00           6819          58.00       252.40
  365.40        3347.25           6823          51.00       221.88
  365.43        3347.50           6827          47.00       204.45
  365.46        3347.75           6831          51.00       221.88
  365.49        3348.00           6834          54.00       234.96
  365.51        3348.25           6838          41.00       178.29
  365.54        3348.50           6842          42.00       182.65
  365.57        3348.75           6846          49.00       213.17
  365.60        3349.00           6849          45.00       195.73
  365.63        3349.25           6853          43.00       187.01
  365.66        3349.50           6857          42.00       182.65
  365.68        3349.75           6861          47.00       204.45
  365.71        3350.00           6864          42.00       182.65
  365.74        3350.25           6868          46.00       200.09
  365.77        3350.50           6872          41.00       178.29
  365.79        3350.75           6876          38.00       165.21
  365.82        3351.00           6879          43.00       187.01
HL scan finished at 06:07:18
end
