************************************************************
  HL Scan of (1) Internal mercury lamp
************************************************************
Integration time is 0.2294 seconds per sample
dh160217DelftKZ 51.997-4.386 2.321352pr1000
************************************************************
Dead Time -------------------------  3E-08 
Number of Cycles Used -------------  4 
Starting Wavelength (Angstroms) ---  3331 
Final Wavelength (Angstoms) -------  3351 
Wavelength Increment (Angstroms) --  .25 
Filter Wheel #1 Position ---------- (1) Ground quartz diffuser (ND=2.32)
Filter Wheel #2 Position ---------- 



************************************************************
HL scan start time = 00:35:12
Dark Count =  .1 


Time (GMT)  Wavelength (Ang)  Step Number  Raw Counts  Counts/Second

   35.96        3331.00           6581          42.00       182.65
   36.37        3331.25           6584          44.00       191.37
   36.40        3331.50           6588          44.00       191.37
   36.42        3331.75           6592          42.00       182.65
   36.45        3332.00           6595          46.00       200.09
   36.48        3332.25           6599          43.00       187.01
   36.51        3332.50           6603          45.00       195.73
   36.54        3332.75           6607          49.00       213.17
   36.57        3333.00           6610          43.00       187.01
   36.60        3333.25           6614          49.00       213.17
   36.62        3333.50           6618          42.00       182.65
   36.66        3333.75           6622          46.00       200.09
   36.69        3334.00           6625          41.00       178.29
   36.71        3334.25           6629          50.00       217.53
   36.74        3334.50           6633          45.00       195.73
   36.77        3334.75           6636          49.00       213.17
   36.80        3335.00           6640          49.00       213.17
   36.82        3335.25           6644          59.00       256.76
   36.85        3335.50           6648          53.00       230.60
   36.88        3335.75           6651          69.00       300.35
   36.91        3336.00           6655          75.00       326.51
   36.93        3336.25           6659         318.00      1385.85
   36.96        3336.50           6663        1572.00      6853.63
   36.99        3336.75           6666        2839.00     12379.92
   37.02        3337.00           6670        4276.00     18649.93
   37.05        3337.25           6674        5654.00     24664.71
   37.08        3337.50           6677        6682.00     29153.21
   37.11        3337.75           6681        8183.00     35709.12
   37.14        3338.00           6685        9672.00     42215.17
   37.16        3338.25           6689       11347.00     49536.96
   37.19        3338.50           6692       12462.00     54412.64
   37.22        3338.75           6696       13753.00     60059.74
   37.25        3339.00           6700       15246.00     66592.80
   37.28        3339.25           6704       16853.00     73627.58
   37.31        3339.50           6707       17993.00     78619.84
   37.34        3339.75           6711       19400.00     84783.38
   37.37        3340.00           6715       21010.00     91839.00
   37.40        3340.25           6719       22509.00     98410.87
   37.43        3340.50           6722       23418.00    102397.30
   37.46        3340.75           6726       24978.00    109241.00
   37.49        3341.00           6730       26484.00    115850.50
   37.51        3341.25           6733       26666.00    116649.40
   37.54        3341.50           6737       26718.00    116877.70
   37.57        3341.75           6741       26613.00    116416.80
   37.60        3342.00           6745       25777.00    112747.30
   37.62        3342.25           6748       24813.00    108517.10
   37.65        3342.50           6752       23495.00    102735.10
   37.68        3342.75           6756       21764.00     95144.34
   37.71        3343.00           6760       20235.00     88442.29
   37.74        3343.25           6763       18866.00     82443.85
   37.77        3343.50           6767       17389.00     75974.63
   37.80        3343.75           6771       15876.00     69350.33
   37.83        3344.00           6775       14382.00     62811.80
   37.85        3344.25           6778       13247.00     57846.16
   37.88        3344.50           6782       11682.00     51001.70
   37.91        3344.75           6786       10384.00     45327.07
   37.94        3345.00           6790        9097.00     39702.45
   37.96        3345.25           6793        7962.00     34743.70
   37.99        3345.50           6797        6442.00     28105.21
   38.02        3345.75           6801        4660.00     20325.82
   38.05        3346.00           6805        2882.00     12567.51
   38.08        3346.25           6808        1768.00      7708.41
   38.10        3346.50           6812         491.00      2140.07
   38.13        3346.75           6816         116.00       505.24
   38.16        3347.00           6819          71.00       309.07
   38.20        3347.25           6823          63.00       274.20
   38.23        3347.50           6827          57.00       248.04
   38.25        3347.75           6831          57.00       248.04
   38.28        3348.00           6834          47.00       204.45
   38.31        3348.25           6838          47.00       204.45
   38.34        3348.50           6842          46.00       200.09
   38.36        3348.75           6846          43.00       187.01
   38.39        3349.00           6849          48.00       208.81
   38.42        3349.25           6853          47.00       204.45
   38.45        3349.50           6857          45.00       195.73
   38.47        3349.75           6861          45.00       195.73
   38.50        3350.00           6864          44.00       191.37
   38.54        3350.25           6868          44.00       191.37
   38.57        3350.50           6872          44.00       191.37
   38.59        3350.75           6876          46.00       200.09
   38.62        3351.00           6879          41.00       178.29
HL scan finished at 00:40:06
end
************************************************************
  HL Scan of (1) Internal mercury lamp
************************************************************
Integration time is 0.2294 seconds per sample
dh160217DelftKZ 51.997-4.386 2.321352pr1000
************************************************************
Dead Time -------------------------  3E-08 
Number of Cycles Used -------------  4 
Starting Wavelength (Angstroms) ---  3331 
Final Wavelength (Angstoms) -------  3351 
Wavelength Increment (Angstroms) --  .25 
Filter Wheel #1 Position ---------- (1) Ground quartz diffuser (ND=2.32)
Filter Wheel #2 Position ---------- 



************************************************************
HL scan start time = 05:45:44
Dark Count =  .1 


Time (GMT)  Wavelength (Ang)  Step Number  Raw Counts  Counts/Second

  346.50        3331.00           6581          41.00       178.29
  346.91        3331.25           6584          44.00       191.37
  346.94        3331.50           6588          49.00       213.17
  346.96        3331.75           6592          37.00       160.86
  346.99        3332.00           6595          41.00       178.29
  347.03        3332.25           6599          43.00       187.01
  347.06        3332.50           6603          38.00       165.21
  347.09        3332.75           6607          40.00       173.93
  347.11        3333.00           6610          42.00       182.65
  347.14        3333.25           6614          37.00       160.86
  347.17        3333.50           6618          42.00       182.65
  347.20        3333.75           6622          50.00       217.53
  347.23        3334.00           6625          47.00       204.45
  347.26        3334.25           6629          43.00       187.01
  347.29        3334.50           6633          51.00       221.88
  347.31        3334.75           6636          50.00       217.53
  347.34        3335.00           6640          49.00       213.17
  347.37        3335.25           6644          47.00       204.45
  347.40        3335.50           6648          54.00       234.96
  347.42        3335.75           6651          58.00       252.40
  347.45        3336.00           6655          74.00       322.15
  347.48        3336.25           6659         265.00      1154.79
  347.51        3336.50           6663        1129.00      4921.83
  347.54        3336.75           6666        2149.00      9370.11
  347.56        3337.00           6670        3440.00     15001.96
  347.59        3337.25           6674        4650.00     20282.17
  347.62        3337.50           6677        5507.00     24022.98
  347.65        3337.75           6681        6736.00     29389.02
  347.67        3338.00           6685        7967.00     34765.54
  347.70        3338.25           6689        9220.00     40239.92
  347.73        3338.50           6692        9940.00     43386.43
  347.76        3338.75           6696       11187.00     48837.42
  347.79        3339.00           6700       12328.00     53826.61
  347.81        3339.25           6704       13416.00     58585.44
  347.84        3339.50           6707       14795.00     64619.05
  347.87        3339.75           6711       16180.00     70681.10
  347.90        3340.00           6715       17434.00     76171.69
  347.92        3340.25           6719       18528.00     80963.21
  347.95        3340.50           6722       19565.00     85506.33
  347.98        3340.75           6726       20560.00     89866.63
  348.01        3341.00           6730       21457.00     93798.44
  348.04        3341.25           6733       21676.00     94758.53
  348.06        3341.50           6737       21777.00     95201.33
  348.09        3341.75           6741       21674.00     94749.76
  348.12        3342.00           6745       20873.00     91238.50
  348.15        3342.25           6748       19925.00     87083.80
  348.17        3342.50           6752       18885.00     82527.09
  348.20        3342.75           6756       17695.00     77314.70
  348.23        3343.00           6760       16527.00     72200.25
  348.26        3343.25           6763       15429.00     67393.75
  348.29        3343.50           6767       14379.00     62798.67
  348.32        3343.75           6771       13252.00     57868.03
  348.35        3344.00           6775       12036.00     52549.65
  348.38        3344.25           6778       10936.00     47740.08
  348.40        3344.50           6782        9638.00     42066.57
  348.43        3344.75           6786        8295.00     36198.40
  348.46        3345.00           6790        7056.00     30786.49
  348.49        3345.25           6793        6315.00     27550.66
  348.52        3345.50           6797        4922.00     21469.36
  348.55        3345.75           6801        3570.00     15569.17
  348.58        3346.00           6805        2413.00     10521.63
  348.60        3346.25           6808        1562.00      6810.02
  348.63        3346.50           6812         492.00      2144.43
  348.66        3346.75           6816         116.00       505.24
  348.68        3347.00           6819          59.00       256.76
  348.71        3347.25           6823          53.00       230.60
  348.74        3347.50           6827          51.00       221.88
  348.77        3347.75           6831          48.00       208.81
  348.80        3348.00           6834          40.00       173.93
  348.82        3348.25           6838          47.00       204.45
  348.85        3348.50           6842          41.00       178.29
  348.88        3348.75           6846          44.00       191.37
  348.91        3349.00           6849          41.00       178.29
  348.94        3349.25           6853          41.00       178.29
  348.97        3349.50           6857          36.00       156.50
  348.99        3349.75           6861          48.00       208.81
  349.02        3350.00           6864          41.00       178.29
  349.05        3350.25           6868          45.00       195.73
  349.08        3350.50           6872          44.00       191.37
  349.11        3350.75           6876          44.00       191.37
  349.13        3351.00           6879          44.00       191.37
HL scan finished at 05:50:37
end
