************************************************************
  HL Scan of (1) Internal mercury lamp
************************************************************
Integration time is 0.2294 seconds per sample
dh090217DelftKZ 51.997-4.386 2.10676pr1000
************************************************************
Dead Time -------------------------  3E-08 
Number of Cycles Used -------------  4 
Starting Wavelength (Angstroms) ---  3331 
Final Wavelength (Angstoms) -------  3351 
Wavelength Increment (Angstroms) --  .25 
Filter Wheel #1 Position ---------- (1) Ground quartz diffuser (ND=2.32)
Filter Wheel #2 Position ---------- 



************************************************************
HL scan start time = 00:35:28
Dark Count =  .2 


Time (GMT)  Wavelength (Ang)  Step Number  Raw Counts  Counts/Second

   36.23        3331.00           6581          42.00       182.22
   36.64        3331.25           6584          47.00       204.01
   36.66        3331.50           6588          43.00       186.57
   36.69        3331.75           6592          44.00       190.93
   36.72        3332.00           6595          52.00       225.81
   36.75        3332.25           6599          41.00       177.86
   36.77        3332.50           6603          46.00       199.65
   36.80        3332.75           6607          41.00       177.86
   36.83        3333.00           6610          46.00       199.65
   36.86        3333.25           6614          43.00       186.57
   36.88        3333.50           6618          42.00       182.22
   36.91        3333.75           6622          43.00       186.57
   36.94        3334.00           6625          49.00       212.73
   36.97        3334.25           6629          44.00       190.93
   36.99        3334.50           6633          44.00       190.93
   37.02        3334.75           6636          45.00       195.29
   37.05        3335.00           6640          50.00       217.09
   37.08        3335.25           6644          54.00       234.53
   37.11        3335.50           6648          61.00       265.04
   37.13        3335.75           6651          66.00       286.84
   37.16        3336.00           6655          72.00       312.99
   37.19        3336.25           6659         255.00      1110.76
   37.22        3336.50           6663        1148.00      5004.24
   37.24        3336.75           6666        2086.00      9094.90
   37.27        3337.00           6670        3552.00     15490.20
   37.30        3337.25           6674        4878.00     21276.87
   37.33        3337.50           6677        5854.00     25537.43
   37.35        3337.75           6681        7290.00     31808.02
   37.38        3338.00           6685        8712.00     38019.80
   37.41        3338.25           6689       10223.00     44622.90
   37.44        3338.50           6692       11433.00     49912.52
   37.47        3338.75           6696       12860.00     56152.93
   37.49        3339.00           6700       14188.00     61962.51
   37.52        3339.25           6704       15669.00     68443.79
   37.55        3339.50           6707       16688.00     72904.71
   37.58        3339.75           6711       17921.00     78304.05
   37.60        3340.00           6715       19232.00     84046.88
   37.63        3340.25           6719       20353.00     88958.99
   37.66        3340.50           6722       21471.00     93859.39
   37.69        3340.75           6726       22943.00    100313.60
   37.72        3341.00           6730       24256.00    106072.90
   37.74        3341.25           6733       24338.00    106432.60
   37.77        3341.50           6737       24591.00    107542.60
   37.80        3341.75           6741       24381.00    106621.20
   37.83        3342.00           6745       23651.00    103418.90
   37.85        3342.25           6748       22653.00     99041.89
   37.88        3342.50           6752       21497.00     93973.38
   37.91        3342.75           6756       20247.00     88494.44
   37.94        3343.00           6760       18580.00     81190.55
   37.96        3343.25           6763       17675.00     77226.66
   37.99        3343.50           6767       16160.00     70593.11
   38.02        3343.75           6771       14842.00     64824.28
   38.05        3344.00           6775       13379.00     58423.15
   38.08        3344.25           6778       12187.00     53209.54
   38.10        3344.50           6782       10789.00     47097.02
   38.13        3344.75           6786        9292.00     40554.11
   38.16        3345.00           6790        8088.00     35293.67
   38.19        3345.25           6793        7160.00     31240.25
   38.21        3345.50           6797        5733.00     25009.17
   38.24        3345.75           6801        4298.00     18745.50
   38.27        3346.00           6805        2863.00     12484.19
   38.30        3346.25           6808        1833.00      7991.45
   38.33        3346.50           6812         640.00      2789.25
   38.35        3346.75           6816         170.00       740.21
   38.38        3347.00           6819          74.00       321.71
   38.41        3347.25           6823          58.00       251.96
   38.44        3347.50           6827          55.00       238.89
   38.47        3347.75           6831          46.00       199.65
   38.50        3348.00           6834          51.00       221.45
   38.52        3348.25           6838          49.00       212.73
   38.55        3348.50           6842          42.00       182.22
   38.58        3348.75           6846          45.00       195.29
   38.61        3349.00           6849          44.00       190.93
   38.63        3349.25           6853          41.00       177.86
   38.66        3349.50           6857          42.00       182.22
   38.69        3349.75           6861          47.00       204.01
   38.72        3350.00           6864          43.00       186.57
   38.74        3350.25           6868          50.00       217.09
   38.77        3350.50           6872          47.00       204.01
   38.80        3350.75           6876          45.00       195.29
   38.83        3351.00           6879          47.00       204.01
HL scan finished at 00:40:18
end
************************************************************
  HL Scan of (1) Internal mercury lamp
************************************************************
Integration time is 0.2294 seconds per sample
dh090217DelftKZ 51.997-4.386 2.160408pr1000
************************************************************
Dead Time -------------------------  3E-08 
Number of Cycles Used -------------  4 
Starting Wavelength (Angstroms) ---  3331 
Final Wavelength (Angstoms) -------  3351 
Wavelength Increment (Angstroms) --  .25 
Filter Wheel #1 Position ---------- (1) Ground quartz diffuser (ND=2.32)
Filter Wheel #2 Position ---------- 



************************************************************
HL scan start time = 05:58:02
Dark Count =  .1 


Time (GMT)  Wavelength (Ang)  Step Number  Raw Counts  Counts/Second

  358.79        3331.00           6581          41.00       178.29
  359.19        3331.25           6584          41.00       178.29
  359.22        3331.50           6588          39.00       169.57
  359.25        3331.75           6592          43.00       187.01
  359.28        3332.00           6595          41.00       178.29
  359.31        3332.25           6599          41.00       178.29
  359.33        3332.50           6603          40.00       173.93
  359.36        3332.75           6607          36.00       156.50
  359.39        3333.00           6610          44.00       191.37
  359.42        3333.25           6614          42.00       182.65
  359.44        3333.50           6618          43.00       187.01
  359.47        3333.75           6622          42.00       182.65
  359.50        3334.00           6625          41.00       178.29
  359.53        3334.25           6629          38.00       165.21
  359.56        3334.50           6633          44.00       191.37
  359.59        3334.75           6636          42.00       182.65
  359.61        3335.00           6640          41.00       178.29
  359.64        3335.25           6644          52.00       226.24
  359.67        3335.50           6648          57.00       248.04
  359.70        3335.75           6651          52.00       226.24
  359.72        3336.00           6655          65.00       282.91
  359.75        3336.25           6659         178.00       775.52
  359.78        3336.50           6663         871.00      3796.86
  359.81        3336.75           6666        1625.00      7084.77
  359.83        3337.00           6670        2703.00     11786.64
  359.86        3337.25           6674        3821.00     16664.39
  359.89        3337.50           6677        4724.00     20605.15
  359.92        3337.75           6681        5981.00     26092.35
  359.95        3338.00           6685        7049.00     30755.92
  359.97        3338.25           6689        8268.00     36080.45
  360.00        3338.50           6692        8954.00     39077.61
  360.03        3338.75           6696       10049.00     43862.83
  360.06        3339.00           6700       11004.00     48037.36
  360.08        3339.25           6704       12067.00     52685.21
  360.11        3339.50           6707       12857.00     56140.25
  360.14        3339.75           6711       14049.00     61354.77
  360.17        3340.00           6715       15170.00     66260.19
  360.20        3340.25           6719       16242.00     70952.53
  360.22        3340.50           6722       16998.00     74262.48
  360.25        3340.75           6726       18059.00     78908.90
  360.28        3341.00           6730       18919.00     82676.04
  360.31        3341.25           6733       19310.00     84389.06
  360.33        3341.50           6737       19225.00     84016.64
  360.36        3341.75           6741       19228.00     84029.78
  360.39        3342.00           6745       18601.00     81282.97
  360.42        3342.25           6748       17743.00     77524.90
  360.45        3342.50           6752       16782.00     73316.71
  360.47        3342.75           6756       15588.00     68089.69
  360.50        3343.00           6760       14608.00     63800.73
  360.53        3343.25           6763       13632.00     59530.38
  360.56        3343.50           6767       12600.00     55016.19
  360.58        3343.75           6771       11683.00     51006.07
  360.61        3344.00           6775       10526.00     45947.78
  360.64        3344.25           6778        9762.00     42608.49
  360.67        3344.50           6782        8640.00     37705.66
  360.70        3344.75           6786        7457.00     32537.85
  360.72        3345.00           6790        6368.00     27782.09
  360.75        3345.25           6793        5471.00     23865.82
  360.78        3345.50           6797        4308.00     18789.58
  360.81        3345.75           6801        3332.00     14530.75
  360.83        3346.00           6805        2379.00     10373.32
  360.86        3346.25           6808        1540.00      6714.08
  360.89        3346.50           6812         574.00      2501.93
  360.92        3346.75           6816         132.00       574.99
  360.95        3347.00           6819          59.00       256.76
  360.97        3347.25           6823          42.00       182.65
  361.00        3347.50           6827          51.00       221.88
  361.03        3347.75           6831          41.00       178.29
  361.06        3348.00           6834          43.00       187.01
  361.09        3348.25           6838          37.00       160.86
  361.12        3348.50           6842          41.00       178.29
  361.15        3348.75           6846          38.00       165.21
  361.17        3349.00           6849          42.00       182.65
  361.20        3349.25           6853          44.00       191.37
  361.23        3349.50           6857          44.00       191.37
  361.26        3349.75           6861          40.00       173.93
  361.29        3350.00           6864          40.00       173.93
  361.31        3350.25           6868          39.00       169.57
  361.34        3350.50           6872          43.00       187.01
  361.37        3350.75           6876          50.00       217.53
  361.40        3351.00           6879          42.00       182.65
HL scan finished at 06:02:53
end
