************************************************************
  HL Scan of (1) Internal mercury lamp
************************************************************
Integration time is 0.2294 seconds per sample
dh280217DelftKZ 51.997-4.386 2.214056pr1000
************************************************************
Dead Time -------------------------  3E-08 
Number of Cycles Used -------------  4 
Starting Wavelength (Angstroms) ---  3331 
Final Wavelength (Angstoms) -------  3351 
Wavelength Increment (Angstroms) --  .25 
Filter Wheel #1 Position ---------- (1) Ground quartz diffuser (ND=2.32)
Filter Wheel #2 Position ---------- 



************************************************************
HL scan start time = 05:21:30
Dark Count =  0 


Time (GMT)  Wavelength (Ang)  Step Number  Raw Counts  Counts/Second

  322.27        3331.00           6581          36.00       156.93
  322.68        3331.25           6584          42.00       183.09
  322.70        3331.50           6588          39.00       170.01
  322.73        3331.75           6592          35.00       152.57
  322.76        3332.00           6595          47.00       204.88
  322.79        3332.25           6599          48.00       209.24
  322.81        3332.50           6603          36.00       156.93
  322.84        3332.75           6607          39.00       170.01
  322.87        3333.00           6610          39.00       170.01
  322.90        3333.25           6614          42.00       183.09
  322.92        3333.50           6618          36.00       156.93
  322.95        3333.75           6622          43.00       187.45
  322.98        3334.00           6625          47.00       204.88
  323.01        3334.25           6629          48.00       209.24
  323.03        3334.50           6633          42.00       183.09
  323.06        3334.75           6636          45.00       196.17
  323.09        3335.00           6640          45.00       196.17
  323.12        3335.25           6644          51.00       222.32
  323.14        3335.50           6648          49.00       213.60
  323.17        3335.75           6651          53.00       231.04
  323.20        3336.00           6655          61.00       265.91
  323.23        3336.25           6659         268.00      1168.31
  323.26        3336.50           6663        1143.00      4983.31
  323.29        3336.75           6666        1945.00      8480.80
  323.32        3337.00           6670        2982.00     13004.20
  323.34        3337.25           6674        3913.00     17066.28
  323.37        3337.50           6677        4735.00     20653.60
  323.40        3337.75           6681        5704.00     24883.43
  323.43        3338.00           6685        6814.00     29730.08
  323.46        3338.25           6689        8008.00     34945.08
  323.49        3338.50           6692        8853.00     38636.74
  323.51        3338.75           6696        9917.00     43286.34
  323.54        3339.00           6700       10902.00     47591.88
  323.57        3339.25           6704       12234.00     53415.96
  323.60        3339.50           6707       13008.00     56801.16
  323.63        3339.75           6711       13905.00     60725.18
  323.65        3340.00           6715       15068.00     65814.22
  323.68        3340.25           6719       16157.00     70580.85
  323.71        3340.50           6722       16856.00     73641.16
  323.74        3340.75           6726       17867.00     78068.43
  323.76        3341.00           6730       18859.00     82413.63
  323.79        3341.25           6733       19127.00     83587.73
  323.82        3341.50           6737       19323.00     84446.46
  323.85        3341.75           6741       19276.00     84240.52
  323.88        3342.00           6745       18561.00     81108.19
  323.90        3342.25           6748       18144.00     79281.63
  323.93        3342.50           6752       16942.00     74017.71
  323.96        3342.75           6756       15932.00     69595.90
  323.99        3343.00           6760       14536.00     63486.10
  324.01        3343.25           6763       13705.00     59850.17
  324.04        3343.50           6767       12601.00     55021.00
  324.07        3343.75           6771       11554.00     50442.46
  324.10        3344.00           6775       10559.00     46092.47
  324.13        3344.25           6778        9843.00     42962.93
  324.15        3344.50           6782        8711.00     38016.31
  324.18        3344.75           6786        7774.00     33922.91
  324.21        3345.00           6790        6705.00     29254.09
  324.24        3345.25           6793        5728.00     24988.21
  324.26        3345.50           6797        4527.00     19745.78
  324.29        3345.75           6801        3322.00     14487.55
  324.33        3346.00           6805        2184.00      9523.21
  324.36        3346.25           6808        1461.00      6370.01
  324.38        3346.50           6812         418.00      1822.24
  324.41        3346.75           6816          86.00       374.90
  324.44        3347.00           6819          60.00       261.55
  324.47        3347.25           6823          52.00       226.68
  324.50        3347.50           6827          47.00       204.88
  324.52        3347.75           6831          45.00       196.17
  324.55        3348.00           6834          44.00       191.81
  324.58        3348.25           6838          38.00       165.65
  324.61        3348.50           6842          41.00       178.73
  324.63        3348.75           6846          40.00       174.37
  324.66        3349.00           6849          47.00       204.88
  324.69        3349.25           6853          41.00       178.73
  324.72        3349.50           6857          36.00       156.93
  324.74        3349.75           6861          41.00       178.73
  324.77        3350.00           6864          43.00       187.45
  324.80        3350.25           6868          40.00       174.37
  324.83        3350.50           6872          42.00       183.09
  324.86        3350.75           6876          35.00       152.57
  324.89        3351.00           6879          43.00       187.45
HL scan finished at 05:26:22
end
