************************************************************
  HL Scan of (1) Internal mercury lamp
************************************************************
Integration time is 0.2294 seconds per sample
dh100317DelftKZ 51.997-4.386 2.214056pr1000
************************************************************
Dead Time -------------------------  3E-08 
Number of Cycles Used -------------  4 
Starting Wavelength (Angstroms) ---  3331 
Final Wavelength (Angstoms) -------  3351 
Wavelength Increment (Angstroms) --  .25 
Filter Wheel #1 Position ---------- (1) Ground quartz diffuser (ND=2.32)
Filter Wheel #2 Position ---------- 



************************************************************
HL scan start time = 04:58:18
Dark Count =  .1 


Time (GMT)  Wavelength (Ang)  Step Number  Raw Counts  Counts/Second

  299.06        3331.00           6581          37.00       160.86
  299.47        3331.25           6584          34.00       147.78
  299.50        3331.50           6588          38.00       165.21
  299.52        3331.75           6592          40.00       173.93
  299.55        3332.00           6595          38.00       165.21
  299.58        3332.25           6599          40.00       173.93
  299.61        3332.50           6603          41.00       178.29
  299.63        3332.75           6607          36.00       156.50
  299.66        3333.00           6610          40.00       173.93
  299.69        3333.25           6614          40.00       173.93
  299.72        3333.50           6618          38.00       165.21
  299.75        3333.75           6622          41.00       178.29
  299.78        3334.00           6625          41.00       178.29
  299.80        3334.25           6629          39.00       169.57
  299.83        3334.50           6633          38.00       165.21
  299.86        3334.75           6636          37.00       160.86
  299.89        3335.00           6640          40.00       173.93
  299.92        3335.25           6644          53.00       230.60
  299.95        3335.50           6648          51.00       221.88
  299.98        3335.75           6651          47.00       204.45
  300.01        3336.00           6655          58.00       252.40
  300.03        3336.25           6659         206.00       897.58
  300.06        3336.50           6663         987.00      4302.65
  300.09        3336.75           6666        1791.00      7808.72
  300.12        3337.00           6670        3040.00     13256.80
  300.14        3337.25           6674        4119.00     17964.78
  300.17        3337.50           6677        4878.00     21277.31
  300.20        3337.75           6681        5917.00     25812.92
  300.23        3338.00           6685        6976.00     30437.11
  300.26        3338.25           6689        7994.00     34883.48
  300.28        3338.50           6692        8713.00     38024.61
  300.31        3338.75           6696        9761.00     42604.12
  300.34        3339.00           6700       10804.00     47163.02
  300.37        3339.25           6704       11978.00     52296.02
  300.40        3339.50           6707       12952.00     56555.78
  300.44        3339.75           6711       14132.00     61717.92
  300.47        3340.00           6715       14998.00     65507.43
  300.49        3340.25           6719       16033.00     70037.59
  300.53        3340.50           6722       16737.00     73119.68
  300.56        3340.75           6726       17773.00     77656.30
  300.59        3341.00           6730       18500.00     80840.55
  300.61        3341.25           6733       18760.00     81979.49
  300.64        3341.50           6737       18806.00     82181.00
  300.67        3341.75           6741       18764.00     81997.02
  300.70        3342.00           6745       18083.00     79014.02
  300.73        3342.25           6748       17150.00     74928.05
  300.75        3342.50           6752       16195.00     70746.78
  300.78        3342.75           6756       15056.00     65761.26
  300.81        3343.00           6760       13888.00     60650.37
  300.84        3343.25           6763       13117.00     57277.51
  300.87        3343.50           6767       12137.00     52991.33
  300.89        3343.75           6771       11216.00     48964.21
  300.92        3344.00           6775       10132.00     44225.60
  300.95        3344.25           6778        9323.00     40690.01
  300.98        3344.50           6782        8166.00     35634.85
  301.00        3344.75           6786        7124.00     31083.46
  301.03        3345.00           6790        6091.00     26572.61
  301.06        3345.25           6793        5336.00     23276.49
  301.09        3345.50           6797        4318.00     18833.22
  301.12        3345.75           6801        3076.00     13413.85
  301.14        3346.00           6805        2153.00      9387.56
  301.17        3346.25           6808        1443.00      6291.07
  301.20        3346.50           6812         461.00      2009.28
  301.23        3346.75           6816          84.00       365.74
  301.25        3347.00           6819          56.00       243.68
  301.29        3347.25           6823          50.00       217.53
  301.32        3347.50           6827          43.00       187.01
  301.34        3347.75           6831          46.00       200.09
  301.37        3348.00           6834          39.00       169.57
  301.40        3348.25           6838          41.00       178.29
  301.43        3348.50           6842          47.00       204.45
  301.46        3348.75           6846          39.00       169.57
  301.48        3349.00           6849          40.00       173.93
  301.51        3349.25           6853          38.00       165.21
  301.54        3349.50           6857          33.00       143.42
  301.57        3349.75           6861          40.00       173.93
  301.59        3350.00           6864          34.00       147.78
  301.62        3350.25           6868          39.00       169.57
  301.65        3350.50           6872          40.00       173.93
  301.68        3350.75           6876          45.00       195.73
  301.71        3351.00           6879          42.00       182.65
HL scan finished at 05:03:11
end
