************************************************************
  HL Scan of (1) Internal mercury lamp
************************************************************
Integration time is 0.2294 seconds per sample
dh010317DelftKZ 51.997-4.386 2.267704pr1000
************************************************************
Dead Time -------------------------  3E-08 
Number of Cycles Used -------------  4 
Starting Wavelength (Angstroms) ---  3331 
Final Wavelength (Angstoms) -------  3351 
Wavelength Increment (Angstroms) --  .25 
Filter Wheel #1 Position ---------- (1) Ground quartz diffuser (ND=2.32)
Filter Wheel #2 Position ---------- 



************************************************************
HL scan start time = 05:19:18
Dark Count =  .1 


Time (GMT)  Wavelength (Ang)  Step Number  Raw Counts  Counts/Second

  320.06        3331.00           6581          39.00       169.57
  320.47        3331.25           6584          35.00       152.14
  320.49        3331.50           6588          42.00       182.65
  320.52        3331.75           6592          41.00       178.29
  320.55        3332.00           6595          44.00       191.37
  320.58        3332.25           6599          39.00       169.57
  320.60        3332.50           6603          43.00       187.01
  320.63        3332.75           6607          42.00       182.65
  320.66        3333.00           6610          43.00       187.01
  320.69        3333.25           6614          42.00       182.65
  320.71        3333.50           6618          43.00       187.01
  320.74        3333.75           6622          37.00       160.86
  320.77        3334.00           6625          46.00       200.09
  320.80        3334.25           6629          36.00       156.50
  320.83        3334.50           6633          39.00       169.57
  320.86        3334.75           6636          48.00       208.81
  320.88        3335.00           6640          45.00       195.73
  320.91        3335.25           6644          47.00       204.45
  320.94        3335.50           6648          53.00       230.60
  320.97        3335.75           6651          52.00       226.24
  321.00        3336.00           6655          65.00       282.91
  321.03        3336.25           6659         326.00      1420.72
  321.05        3336.50           6663        1167.00      5087.52
  321.08        3336.75           6666        1926.00      8397.50
  321.11        3337.00           6670        3079.00     13426.94
  321.14        3337.25           6674        4462.00     19461.66
  321.17        3337.50           6677        5457.00     23804.70
  321.19        3337.75           6681        6501.00     28362.84
  321.22        3338.00           6685        7545.00     32922.21
  321.25        3338.25           6689        8701.00     37972.18
  321.28        3338.50           6692        9625.00     42009.76
  321.30        3338.75           6696       10940.00     47757.57
  321.33        3339.00           6700       12071.00     52702.71
  321.37        3339.25           6704       13286.00     58016.76
  321.39        3339.50           6707       14239.00     62186.09
  321.42        3339.75           6711       15456.00     67511.93
  321.45        3340.00           6715       16770.00     73264.18
  321.48        3340.25           6719       17888.00     78159.96
  321.51        3340.50           6722       18643.00     81466.96
  321.54        3340.75           6726       19837.00     86698.19
  321.57        3341.00           6730       20848.00     91128.92
  321.59        3341.25           6733       21089.00     92185.28
  321.62        3341.50           6737       21079.00     92141.44
  321.65        3341.75           6741       21091.00     92194.06
  321.68        3342.00           6745       20548.00     89814.04
  321.71        3342.25           6748       19403.00     84796.52
  321.73        3342.50           6752       18289.00     79916.31
  321.76        3342.75           6756       17091.00     74669.70
  321.79        3343.00           6760       15979.00     69801.20
  321.82        3343.25           6763       15009.00     65555.57
  321.86        3343.50           6767       13747.00     60033.49
  321.89        3343.75           6771       12627.00     55134.28
  321.93        3344.00           6775       11660.00     50905.50
  321.96        3344.25           6778       10833.00     47289.80
  321.99        3344.50           6782        9590.00     41856.80
  322.01        3344.75           6786        8293.00     36189.67
  322.04        3345.00           6790        7017.00     30616.16
  322.07        3345.25           6793        5973.00     26057.42
  322.10        3345.50           6797        4786.00     20875.75
  322.13        3345.75           6801        3546.00     15464.45
  322.15        3346.00           6805        2163.00      9431.18
  322.18        3346.25           6808        1351.00      5889.88
  322.21        3346.50           6812         419.00      1826.17
  322.24        3346.75           6816          98.00       426.77
  322.26        3347.00           6819          67.00       291.63
  322.29        3347.25           6823          45.00       195.73
  322.32        3347.50           6827          45.00       195.73
  322.35        3347.75           6831          58.00       252.40
  322.37        3348.00           6834          45.00       195.73
  322.40        3348.25           6838          44.00       191.37
  322.43        3348.50           6842          45.00       195.73
  322.46        3348.75           6846          44.00       191.37
  322.49        3349.00           6849          44.00       191.37
  322.51        3349.25           6853          46.00       200.09
  322.54        3349.50           6857          36.00       156.50
  322.57        3349.75           6861          39.00       169.57
  322.60        3350.00           6864          38.00       165.21
  322.63        3350.25           6868          41.00       178.29
  322.66        3350.50           6872          45.00       195.73
  322.68        3350.75           6876          48.00       208.81
  322.71        3351.00           6879          46.00       200.09
HL scan finished at 05:24:11
end
