************************************************************
  HL Scan of (1) Internal mercury lamp
************************************************************
Integration time is 0.2294 seconds per sample
dh090317DelftKZ 51.997-4.386 2.267704pr1000
************************************************************
Dead Time -------------------------  3E-08 
Number of Cycles Used -------------  4 
Starting Wavelength (Angstroms) ---  3331 
Final Wavelength (Angstoms) -------  3351 
Wavelength Increment (Angstroms) --  .25 
Filter Wheel #1 Position ---------- (1) Ground quartz diffuser (ND=2.32)
Filter Wheel #2 Position ---------- 



************************************************************
HL scan start time = 00:32:41
Dark Count =  .1 


Time (GMT)  Wavelength (Ang)  Step Number  Raw Counts  Counts/Second

   33.44        3331.00           6581          44.00       191.37
   33.85        3331.25           6584          49.00       213.17
   33.87        3331.50           6588          43.00       187.01
   33.90        3331.75           6592          39.00       169.57
   33.93        3332.00           6595          48.00       208.81
   33.96        3332.25           6599          48.00       208.81
   33.98        3332.50           6603          39.00       169.57
   34.01        3332.75           6607          41.00       178.29
   34.04        3333.00           6610          45.00       195.73
   34.07        3333.25           6614          49.00       213.17
   34.10        3333.50           6618          48.00       208.81
   34.12        3333.75           6622          50.00       217.53
   34.15        3334.00           6625          39.00       169.57
   34.18        3334.25           6629          48.00       208.81
   34.21        3334.50           6633          41.00       178.29
   34.23        3334.75           6636          46.00       200.09
   34.26        3335.00           6640          43.00       187.01
   34.29        3335.25           6644          53.00       230.60
   34.32        3335.50           6648          55.00       239.32
   34.34        3335.75           6651          61.00       265.48
   34.37        3336.00           6655          64.00       278.56
   34.40        3336.25           6659         184.00       801.68
   34.43        3336.50           6663        1150.00      5013.40
   34.46        3336.75           6666        2183.00      9518.41
   34.48        3337.00           6670        3644.00     15892.06
   34.51        3337.25           6674        5355.00     23359.43
   34.54        3337.50           6677        6395.00     27899.98
   34.58        3337.75           6681        8074.00     35232.95
   34.61        3338.00           6685        9670.00     42206.42
   34.63        3338.25           6689       11154.00     48693.14
   34.66        3338.50           6692       12413.00     54198.35
   34.69        3338.75           6696       13894.00     60676.62
   34.72        3339.00           6700       15432.00     67406.88
   34.74        3339.25           6704       16954.00     74069.81
   34.77        3339.50           6707       17971.00     78523.47
   34.80        3339.75           6711       19496.00     85204.01
   34.83        3340.00           6715       21076.00     92128.30
   34.86        3340.25           6719       22812.00     99739.59
   34.88        3340.50           6722       23874.00    104397.50
   34.91        3340.75           6726       25272.00    110531.10
   34.94        3341.00           6730       26534.00    116070.00
   34.97        3341.25           6733       26894.00    117650.40
   35.00        3341.50           6737       26798.00    117228.90
   35.02        3341.75           6741       26896.00    117659.10
   35.05        3342.00           6745       26286.00    114981.40
   35.08        3342.25           6748       25258.00    110469.70
   35.11        3342.50           6752       23571.00    103068.40
   35.13        3342.75           6756       22163.00     96893.72
   35.16        3343.00           6760       20464.00     89445.89
   35.19        3343.25           6763       19290.00     84301.42
   35.22        3343.50           6767       17849.00     77989.15
   35.25        3343.75           6771       16243.00     70956.90
   35.28        3344.00           6775       14709.00     64242.71
   35.31        3344.25           6778       13654.00     59626.62
   35.33        3344.50           6782       12213.00     53323.69
   35.36        3344.75           6786       10719.00     46791.45
   35.39        3345.00           6790        9222.00     40248.66
   35.42        3345.25           6793        7966.00     34761.17
   35.44        3345.50           6797        6242.00     27231.92
   35.47        3345.75           6801        4784.00     20867.03
   35.50        3346.00           6805        3347.00     14596.19
   35.53        3346.25           6808        2305.00     10050.55
   35.56        3346.50           6812         882.00      3844.82
   35.59        3346.75           6816         191.00       832.19
   35.62        3347.00           6819          83.00       361.38
   35.64        3347.25           6823          61.00       265.48
   35.67        3347.50           6827          59.00       256.76
   35.70        3347.75           6831          56.00       243.68
   35.73        3348.00           6834          51.00       221.88
   35.75        3348.25           6838          51.00       221.88
   35.79        3348.50           6842          45.00       195.73
   35.82        3348.75           6846          43.00       187.01
   35.85        3349.00           6849          49.00       213.17
   35.88        3349.25           6853          44.00       191.37
   35.90        3349.50           6857          43.00       187.01
   35.93        3349.75           6861          46.00       200.09
   35.96        3350.00           6864          40.00       173.93
   35.99        3350.25           6868          45.00       195.73
   36.02        3350.50           6872          46.00       200.09
   36.04        3350.75           6876          43.00       187.01
   36.07        3351.00           6879          45.00       195.73
HL scan finished at 00:37:33
end
************************************************************
  HL Scan of (1) Internal mercury lamp
************************************************************
Integration time is 0.2294 seconds per sample
dh090317DelftKZ 51.997-4.386 2.428648pr1000
************************************************************
Dead Time -------------------------  3E-08 
Number of Cycles Used -------------  4 
Starting Wavelength (Angstroms) ---  3331 
Final Wavelength (Angstoms) -------  3351 
Wavelength Increment (Angstroms) --  .25 
Filter Wheel #1 Position ---------- (1) Ground quartz diffuser (ND=2.32)
Filter Wheel #2 Position ---------- 



************************************************************
HL scan start time = 05:00:53
Dark Count =  .1 


Time (GMT)  Wavelength (Ang)  Step Number  Raw Counts  Counts/Second

  301.63        3331.00           6581          46.00       200.09
  302.04        3331.25           6584          44.00       191.37
  302.07        3331.50           6588          40.00       173.93
  302.10        3331.75           6592          43.00       187.01
  302.13        3332.00           6595          42.00       182.65
  302.15        3332.25           6599          44.00       191.37
  302.18        3332.50           6603          42.00       182.65
  302.21        3332.75           6607          40.00       173.93
  302.24        3333.00           6610          48.00       208.81
  302.26        3333.25           6614          44.00       191.37
  302.29        3333.50           6618          45.00       195.73
  302.32        3333.75           6622          44.00       191.37
  302.35        3334.00           6625          46.00       200.09
  302.37        3334.25           6629          45.00       195.73
  302.40        3334.50           6633          42.00       182.65
  302.43        3334.75           6636          45.00       195.73
  302.46        3335.00           6640          48.00       208.81
  302.49        3335.25           6644          56.00       243.68
  302.51        3335.50           6648          59.00       256.76
  302.54        3335.75           6651          61.00       265.48
  302.57        3336.00           6655          63.00       274.20
  302.60        3336.25           6659         300.00      1307.37
  302.62        3336.50           6663        1594.00      6949.57
  302.65        3336.75           6666        2696.00     11756.11
  302.68        3337.00           6670        4052.00     17672.40
  302.71        3337.25           6674        5428.00     23678.11
  302.74        3337.50           6677        6393.00     27891.25
  302.77        3337.75           6681        7760.00     33861.32
  302.80        3338.00           6685        8990.00     39234.92
  302.83        3338.25           6689       10159.00     44343.62
  302.86        3338.50           6692       11243.00     49082.25
  302.88        3338.75           6696       12817.00     55965.29
  302.91        3339.00           6700       14303.00     62466.13
  302.94        3339.25           6704       15829.00     69144.60
  302.97        3339.50           6707       16798.00     73386.77
  302.99        3339.75           6711       18041.00     78830.06
  303.02        3340.00           6715       19402.00     84792.15
  303.05        3340.25           6719       20897.00     91343.69
  303.08        3340.50           6722       21919.00     95823.91
  303.11        3340.75           6726       22895.00    100103.60
  303.14        3341.00           6730       24037.00    105112.60
  303.17        3341.25           6733       24416.00    106775.20
  303.19        3341.50           6737       24412.00    106757.70
  303.22        3341.75           6741       24235.00    105981.20
  303.25        3342.00           6745       23201.00    101445.60
  303.28        3342.25           6748       22232.00     97196.26
  303.30        3342.50           6752       20890.00     91313.01
  303.33        3342.75           6756       19365.00     84630.03
  303.36        3343.00           6760       18129.00     79215.50
  303.39        3343.25           6763       17050.00     74490.18
  303.42        3343.50           6767       15904.00     69472.90
  303.45        3343.75           6771       14409.00     62929.95
  303.48        3344.00           6775       13026.00     56879.46
  303.51        3344.25           6778       11929.00     52081.75
  303.54        3344.50           6782       10625.00     46380.53
  303.56        3344.75           6786        9422.00     41122.63
  303.59        3345.00           6790        7884.00     34402.97
  303.62        3345.25           6793        6786.00     29607.37
  303.65        3345.50           6797        5373.00     23438.01
  303.68        3345.75           6801        4157.00     18130.61
  303.70        3346.00           6805        2846.00     12410.46
  303.73        3346.25           6808        1750.00      7629.91
  303.76        3346.50           6812         436.00      1900.28
  303.79        3346.75           6816         103.00       448.57
  303.81        3347.00           6819          58.00       252.40
  303.84        3347.25           6823          62.00       269.84
  303.87        3347.50           6827          48.00       208.81
  303.90        3347.75           6831          44.00       191.37
  303.92        3348.00           6834          43.00       187.01
  303.95        3348.25           6838          49.00       213.17
  303.99        3348.50           6842          42.00       182.65
  304.02        3348.75           6846          48.00       208.81
  304.05        3349.00           6849          47.00       204.45
  304.08        3349.25           6853          42.00       182.65
  304.11        3349.50           6857          40.00       173.93
  304.13        3349.75           6861          46.00       200.09
  304.16        3350.00           6864          47.00       204.45
  304.19        3350.25           6868          44.00       191.37
  304.22        3350.50           6872          40.00       173.93
  304.24        3350.75           6876          45.00       195.73
  304.27        3351.00           6879          42.00       182.65
HL scan finished at 05:05:45
end
