************************************************************
  HL Scan of (1) Internal mercury lamp
************************************************************
Integration time is 0.2294 seconds per sample
dh110317DelftKZ 51.997-4.386 2.321352pr1000
************************************************************
Dead Time -------------------------  3E-08 
Number of Cycles Used -------------  4 
Starting Wavelength (Angstroms) ---  3331 
Final Wavelength (Angstoms) -------  3351 
Wavelength Increment (Angstroms) --  .25 
Filter Wheel #1 Position ---------- (1) Ground quartz diffuser (ND=2.32)
Filter Wheel #2 Position ---------- 



************************************************************
HL scan start time = 04:55:44
Dark Count =  0 


Time (GMT)  Wavelength (Ang)  Step Number  Raw Counts  Counts/Second

  296.50        3331.00           6581          42.00       183.09
  296.91        3331.25           6584          38.00       165.65
  296.93        3331.50           6588          34.00       148.21
  296.96        3331.75           6592          40.00       174.37
  296.99        3332.00           6595          43.00       187.45
  297.02        3332.25           6599          42.00       183.09
  297.05        3332.50           6603          38.00       165.65
  297.07        3332.75           6607          37.00       161.29
  297.10        3333.00           6610          37.00       161.29
  297.13        3333.25           6614          46.00       200.52
  297.16        3333.50           6618          43.00       187.45
  297.18        3333.75           6622          41.00       178.73
  297.21        3334.00           6625          43.00       187.45
  297.24        3334.25           6629          38.00       165.65
  297.27        3334.50           6633          42.00       183.09
  297.29        3334.75           6636          39.00       170.01
  297.32        3335.00           6640          40.00       174.37
  297.36        3335.25           6644          54.00       235.40
  297.39        3335.50           6648          53.00       231.04
  297.42        3335.75           6651          57.00       248.48
  297.46        3336.00           6655          68.00       296.43
  297.49        3336.25           6659         203.00       884.94
  297.52        3336.50           6663        1063.00      4634.47
  297.54        3336.75           6666        1950.00      8502.61
  297.57        3337.00           6670        3223.00     14055.62
  297.60        3337.25           6674        4565.00     19911.63
  297.63        3337.50           6677        5529.00     24119.45
  297.65        3337.75           6681        6611.00     28843.61
  297.68        3338.00           6685        7746.00     33800.61
  297.71        3338.25           6689        9047.00     39484.41
  297.74        3338.50           6692        9983.00     43574.80
  297.77        3338.75           6696       11037.00     48182.07
  297.80        3339.00           6700       12131.00     52965.53
  297.83        3339.25           6704       13428.00     58638.38
  297.85        3339.50           6707       14382.00     62812.24
  297.88        3339.75           6711       15763.00     68856.13
  297.91        3340.00           6715       16802.00     73404.71
  297.94        3340.25           6719       17946.00     78414.41
  297.97        3340.50           6722       18786.00     82093.82
  297.99        3340.75           6726       19951.00     87198.18
  298.02        3341.00           6730       20811.00     90967.19
  298.05        3341.25           6733       21117.00     92308.46
  298.08        3341.50           6737       21034.00     91944.64
  298.11        3341.75           6741       21154.00     92470.64
  298.14        3342.00           6745       20247.00     88495.31
  298.17        3342.25           6748       19272.00     84222.99
  298.19        3342.50           6752       18193.00     79496.26
  298.22        3342.75           6756       16896.00     73816.29
  298.25        3343.00           6760       15794.00     68991.82
  298.28        3343.25           6763       14685.00     64138.12
  298.30        3343.50           6767       13651.00     59613.94
  298.33        3343.75           6771       12529.00     54706.10
  298.36        3344.00           6775       11455.00     50009.59
  298.39        3344.25           6778       10624.00     46376.60
  298.42        3344.50           6782        9367.00     40882.72
  298.44        3344.75           6786        8150.00     35565.39
  298.47        3345.00           6790        6915.00     30171.15
  298.50        3345.25           6793        5877.00     25638.72
  298.53        3345.50           6797        4779.00     20845.64
  298.55        3345.75           6801        3623.00     15800.86
  298.58        3346.00           6805        2354.00     10264.71
  298.61        3346.25           6808        1554.00      6775.57
  298.64        3346.50           6812         523.00      2280.02
  298.66        3346.75           6816         108.00       470.80
  298.69        3347.00           6819          54.00       235.40
  298.72        3347.25           6823          48.00       209.24
  298.75        3347.50           6827          46.00       200.52
  298.78        3347.75           6831          47.00       204.88
  298.81        3348.00           6834          45.00       196.17
  298.83        3348.25           6838          47.00       204.88
  298.86        3348.50           6842          41.00       178.73
  298.89        3348.75           6846          42.00       183.09
  298.92        3349.00           6849          44.00       191.81
  298.95        3349.25           6853          41.00       178.73
  298.97        3349.50           6857          41.00       178.73
  299.00        3349.75           6861          40.00       174.37
  299.03        3350.00           6864          41.00       178.73
  299.06        3350.25           6868          41.00       178.73
  299.08        3350.50           6872          43.00       187.45
  299.11        3350.75           6876          43.00       187.45
  299.14        3351.00           6879          46.00       200.52
HL scan finished at 05:00:37
end
