************************************************************
  HL Scan of (1) Internal mercury lamp
************************************************************
Integration time is 0.2294 seconds per sample
dh250318Delft 51.9969-4.3863 3.287017pr1000
************************************************************
Dead Time -------------------------  2.7E-08 
Number of Cycles Used -------------  4 
Starting Wavelength (Angstroms) ---  3331 
Final Wavelength (Angstoms) -------  3351 
Wavelength Increment (Angstroms) --  .25 
Filter Wheel #1 Position ---------- (1) Ground quartz diffuser (ND=2.32)
Filter Wheel #2 Position ---------- 



************************************************************
HL scan start time = 06:18:10
Dark Count =  .5 


Time (GMT)  Wavelength (Ang)  Step Number  Raw Counts  Counts/Second

  378.94        3331.00           6579          52.00       224.50
  379.35        3331.25           6582          50.00       215.78
  379.38        3331.50           6586          54.00       233.22
  379.41        3331.75           6590          50.00       215.78
  379.44        3332.00           6594          50.00       215.78
  379.47        3332.25           6597          50.00       215.78
  379.50        3332.50           6601          51.00       220.14
  379.53        3332.75           6605          52.00       224.50
  379.55        3333.00           6608          45.00       193.99
  379.58        3333.25           6612          50.00       215.78
  379.61        3333.50           6616          55.00       237.58
  379.64        3333.75           6620          58.00       250.66
  379.67        3334.00           6623          60.00       259.37
  379.70        3334.25           6627          48.00       207.06
  379.73        3334.50           6631          53.00       228.86
  379.76        3334.75           6635          54.00       233.22
  379.79        3335.00           6638          64.00       276.81
  379.82        3335.25           6642          60.00       259.37
  379.85        3335.50           6646          65.00       281.17
  379.88        3335.75           6649          77.00       333.48
  379.91        3336.00           6653          88.00       381.43
  379.94        3336.25           6657         117.00       507.85
  379.97        3336.50           6661         502.00      2186.27
  380.00        3336.75           6664        1900.00      8282.15
  380.03        3337.00           6668        4372.00     19066.05
  380.06        3337.25           6672        7042.00     30720.76
  380.09        3337.50           6676        9898.00     43195.51
  380.12        3337.75           6679       11908.00     51980.05
  380.15        3338.00           6683       14398.00     62868.18
  380.18        3338.25           6687       17173.00     75010.09
  380.21        3338.50           6690       19194.00     83857.93
  380.24        3338.75           6694       21557.00     94208.38
  380.27        3339.00           6698       23971.00    104788.20
  380.30        3339.25           6702       26281.00    114917.90
  380.33        3339.50           6705       28344.00    123969.20
  380.36        3339.75           6709       31141.00    136247.90
  380.39        3340.00           6713       33881.00    148284.30
  380.41        3340.25           6717       36154.00    158275.20
  380.44        3340.50           6720       37996.00    166375.60
  380.47        3340.75           6724       40033.00    175337.70
  380.50        3341.00           6728       42684.00    187007.70
  380.53        3341.25           6732       44246.00    193887.20
  380.56        3341.50           6735       45064.00    197491.00
  380.59        3341.75           6739       44950.00    196988.70
  380.62        3342.00           6743       44495.00    194984.20
  380.65        3342.25           6747       42765.00    187364.40
  380.68        3342.50           6750       40554.00    177630.60
  380.71        3342.75           6754       38315.00    167778.80
  380.74        3343.00           6758       35757.00    156529.80
  380.77        3343.25           6761       33696.00    147471.40
  380.80        3343.50           6765       31264.00    136788.10
  380.83        3343.75           6769       29025.00    126958.00
  380.86        3344.00           6773       26710.00    116799.80
  380.89        3344.25           6776       24680.00    107896.70
  380.92        3344.50           6780       22204.00     97043.38
  380.95        3344.75           6784       19287.00     84265.18
  380.98        3345.00           6788       16756.00     73185.01
  381.01        3345.25           6791       14777.00     64526.01
  381.04        3345.50           6795       12236.00     53413.95
  381.07        3345.75           6799        9928.00     43326.60
  381.10        3346.00           6803        7318.00     31925.94
  381.13        3346.25           6806        5475.00     23879.82
  381.16        3346.50           6810        3086.00     13455.19
  381.19        3346.75           6814        1064.00      4636.59
  381.22        3347.00           6818         215.00       935.07
  381.25        3347.25           6821         104.00       451.18
  381.28        3347.50           6825          88.00       381.43
  381.31        3347.75           6829          67.00       289.89
  381.34        3348.00           6833          67.00       289.89
  381.37        3348.25           6836          64.00       276.81
  381.40        3348.50           6840          59.00       255.01
  381.43        3348.75           6844          61.00       263.73
  381.46        3349.00           6848          50.00       215.78
  381.48        3349.25           6851          55.00       237.58
  381.52        3349.50           6855          52.00       224.50
  381.54        3349.75           6859          62.00       268.09
  381.57        3350.00           6863          55.00       237.58
  381.61        3350.25           6866          48.00       207.06
  381.63        3350.50           6870          56.00       241.94
  381.66        3350.75           6874          56.00       241.94
  381.69        3351.00           6878          54.00       233.22
HL scan finished at 06:23:11
end
************************************************************
  HL Scan of (1) Internal mercury lamp
************************************************************
Integration time is 0.2294 seconds per sample
dh250318Delft 51.9969-4.3863 3.287017pr1000
************************************************************
Dead Time -------------------------  2.7E-08 
Number of Cycles Used -------------  4 
Starting Wavelength (Angstroms) ---  3331 
Final Wavelength (Angstoms) -------  3351 
Wavelength Increment (Angstroms) --  .25 
Filter Wheel #1 Position ---------- (1) Ground quartz diffuser (ND=2.32)
Filter Wheel #2 Position ---------- 



************************************************************
HL scan start time = 08:05:23
Dark Count =  .2 


Time (GMT)  Wavelength (Ang)  Step Number  Raw Counts  Counts/Second

  486.16        3331.00           6579          51.00       221.45
  486.57        3331.25           6582          50.00       217.09
  486.59        3331.50           6586          48.00       208.37
  486.62        3331.75           6590          53.00       230.17
  486.65        3332.00           6594          46.00       199.65
  486.68        3332.25           6597          51.00       221.45
  486.71        3332.50           6601          48.00       208.37
  486.74        3332.75           6605          50.00       217.09
  486.77        3333.00           6608          48.00       208.37
  486.80        3333.25           6612          46.00       199.65
  486.83        3333.50           6616          45.00       195.29
  486.86        3333.75           6620          49.00       212.73
  486.89        3334.00           6623          44.00       190.93
  486.92        3334.25           6627          44.00       190.93
  486.95        3334.50           6631          55.00       238.89
  486.98        3334.75           6635          66.00       286.84
  487.01        3335.00           6638          63.00       273.76
  487.04        3335.25           6642          64.00       278.12
  487.07        3335.50           6646          70.00       304.27
  487.10        3335.75           6649          75.00       326.07
  487.13        3336.00           6653          82.00       356.59
  487.16        3336.25           6657         144.00       626.86
  487.18        3336.50           6661        1344.00      5858.82
  487.21        3336.75           6664        3078.00     13421.60
  487.24        3337.00           6668        5527.00     24108.10
  487.27        3337.25           6672        7966.00     34757.10
  487.30        3337.50           6676       10386.00     45329.21
  487.33        3337.75           6679       12288.00     53642.59
  487.36        3338.00           6683       14541.00     63494.99
  487.39        3338.25           6687       16983.00     74179.81
  487.42        3338.50           6690       19012.00     83062.28
  487.45        3338.75           6694       22091.00     96549.53
  487.48        3339.00           6698       24683.00    107911.20
  487.51        3339.25           6702       26867.00    117489.80
  487.54        3339.50           6705       28553.00    124887.70
  487.57        3339.75           6709       31217.00    136583.00
  487.60        3340.00           6713       33917.00    148443.80
  487.63        3340.25           6717       36244.00    158672.20
  487.66        3340.50           6720       37676.00    164969.50
  487.69        3340.75           6724       40086.00    175572.30
  487.72        3341.00           6728       42559.00    186458.60
  487.75        3341.25           6732       44341.00    194307.10
  487.78        3341.50           6735       44497.00    194994.30
  487.81        3341.75           6739       44387.00    194509.70
  487.84        3342.00           6743       44147.00    193452.40
  487.87        3342.25           6747       41657.00    182487.20
  487.90        3342.50           6750       39928.00    174877.00
  487.93        3342.75           6754       37566.00    164485.70
  487.96        3343.00           6758       35395.00    154939.80
  487.99        3343.25           6761       33585.00    146985.00
  488.02        3343.50           6765       31052.00    135858.40
  488.05        3343.75           6769       28258.00    123593.10
  488.08        3344.00           6773       25672.00    112248.10
  488.11        3344.25           6776       23673.00    103483.20
  488.14        3344.50           6780       21445.00     93718.99
  488.17        3344.75           6784       18931.00     82707.60
  488.20        3345.00           6788       16202.00     70761.91
  488.22        3345.25           6791       14358.00     62694.53
  488.26        3345.50           6795       12092.00     52785.73
  488.29        3345.75           6799        9597.00     41881.68
  488.31        3346.00           6803        6742.00     29412.19
  488.34        3346.25           6806        4765.00     20782.36
  488.37        3346.50           6810        2160.00      9417.39
  488.40        3346.75           6814         500.00      2178.86
  488.43        3347.00           6818         138.00       600.71
  488.46        3347.25           6821          87.00       378.38
  488.49        3347.50           6825          79.00       343.51
  488.52        3347.75           6829          65.00       282.48
  488.55        3348.00           6833          69.00       299.92
  488.58        3348.25           6836          68.00       295.56
  488.61        3348.50           6840          62.00       269.40
  488.64        3348.75           6844          59.00       256.32
  488.67        3349.00           6848          60.00       260.68
  488.70        3349.25           6851          48.00       208.37
  488.73        3349.50           6855          60.00       260.68
  488.76        3349.75           6859          49.00       212.73
  488.79        3350.00           6863          57.00       247.60
  488.82        3350.25           6866          50.00       217.09
  488.85        3350.50           6870          55.00       238.89
  488.88        3350.75           6874          53.00       230.17
  488.91        3351.00           6878          48.00       208.37
HL scan finished at 08:10:24
end
************************************************************
  HL Scan of (1) Internal mercury lamp
************************************************************
Integration time is 0.2294 seconds per sample
dh250318Delft 51.9969-4.3863 3.287017pr1000
************************************************************
Dead Time -------------------------  2.7E-08 
Number of Cycles Used -------------  4 
Starting Wavelength (Angstroms) ---  3331 
Final Wavelength (Angstoms) -------  3351 
Wavelength Increment (Angstroms) --  .25 
Filter Wheel #1 Position ---------- (1) Ground quartz diffuser (ND=2.32)
Filter Wheel #2 Position ---------- 



************************************************************
HL scan start time = 09:52:35
Dark Count =  .3 


Time (GMT)  Wavelength (Ang)  Step Number  Raw Counts  Counts/Second

  593.34        3331.00           6579          55.00       238.45
  593.75        3331.25           6582          52.00       225.37
  593.78        3331.50           6586          52.00       225.37
  593.81        3331.75           6590          55.00       238.45
  593.84        3332.00           6594          55.00       238.45
  593.87        3332.25           6597          54.00       234.09
  593.90        3332.50           6601          53.00       229.73
  593.93        3332.75           6605          48.00       207.93
  593.96        3333.00           6608          48.00       207.93
  593.99        3333.25           6612          52.00       225.37
  594.02        3333.50           6616          50.00       216.65
  594.05        3333.75           6620          48.00       207.93
  594.08        3334.00           6623          61.00       264.61
  594.11        3334.25           6627          52.00       225.37
  594.14        3334.50           6631          53.00       229.73
  594.17        3334.75           6635          51.00       221.01
  594.20        3335.00           6638          60.00       260.25
  594.23        3335.25           6642          70.00       303.84
  594.26        3335.50           6646          70.00       303.84
  594.29        3335.75           6649          79.00       343.07
  594.31        3336.00           6653          84.00       364.87
  594.34        3336.25           6657         173.00       752.85
  594.37        3336.50           6661        1450.00      6320.61
  594.40        3336.75           6664        3110.00     13560.76
  594.43        3337.00           6668        5241.00     22859.35
  594.46        3337.25           6672        7429.00     32411.53
  594.49        3337.50           6676        9931.00     43340.58
  594.52        3337.75           6679       12111.00     52868.36
  594.55        3338.00           6683       14705.00     64211.93
  594.58        3338.25           6687       17226.00     75242.94
  594.61        3338.50           6690       19121.00     83539.13
  594.64        3338.75           6694       21504.00     93977.03
  594.67        3339.00           6698       24165.00    105639.60
  594.70        3339.25           6702       26626.00    116432.10
  594.73        3339.50           6705       28318.00    123856.00
  594.76        3339.75           6709       30768.00    134610.90
  594.79        3340.00           6713       33444.00    146365.00
  594.82        3340.25           6717       36058.00    157854.00
  594.85        3340.50           6720       38007.00    166424.90
  594.88        3340.75           6724       40193.00    176042.70
  594.91        3341.00           6728       42538.00    186365.70
  594.94        3341.25           6732       44299.00    194121.60
  594.97        3341.50           6735       44584.00    195377.10
  595.00        3341.75           6739       44748.00    196099.60
  595.03        3342.00           6743       44101.00    193249.40
  595.06        3342.25           6747       42146.00    184639.60
  595.09        3342.50           6750       40541.00    177574.30
  595.12        3342.75           6754       37814.00    165576.00
  595.15        3343.00           6758       34986.00    153141.50
  595.18        3343.25           6761       33219.00    145376.40
  595.21        3343.50           6765       30992.00    135594.50
  595.24        3343.75           6769       28528.00    124777.60
  595.27        3344.00           6773       26150.00    114344.20
  595.30        3344.25           6776       24139.00    105525.60
  595.33        3344.50           6780       21733.00     94980.41
  595.36        3344.75           6784       19150.00     83666.11
  595.39        3345.00           6788       16568.00     72363.13
  595.41        3345.25           6791       14375.00     62768.46
  595.45        3345.50           6795       11592.00     50599.60
  595.48        3345.75           6799        8909.00     38875.58
  595.50        3346.00           6803        6447.00     28123.79
  595.54        3346.25           6806        4653.00     20293.16
  595.56        3346.50           6810        2058.00      8972.10
  595.59        3346.75           6814         477.00      2078.15
  595.62        3347.00           6818         151.00       656.94
  595.65        3347.25           6821          99.00       430.26
  595.68        3347.50           6825          77.00       334.35
  595.71        3347.75           6829          76.00       329.99
  595.74        3348.00           6833          69.00       299.48
  595.77        3348.25           6836          63.00       273.32
  595.80        3348.50           6840          56.00       242.81
  595.83        3348.75           6844          60.00       260.25
  595.86        3349.00           6848          59.00       255.89
  595.89        3349.25           6851          47.00       203.58
  595.92        3349.50           6855          54.00       234.09
  595.95        3349.75           6859          52.00       225.37
  595.98        3350.00           6863          57.00       247.17
  596.01        3350.25           6866          42.00       181.78
  596.04        3350.50           6870          52.00       225.37
  596.07        3350.75           6874          50.00       216.65
  596.10        3351.00           6878          61.00       264.61
HL scan finished at 09:57:35
end
************************************************************
  HL Scan of (1) Internal mercury lamp
************************************************************
Integration time is 0.2294 seconds per sample
dh250318Delft 51.9969-4.3863 3.287017pr1000
************************************************************
Dead Time -------------------------  2.7E-08 
Number of Cycles Used -------------  4 
Starting Wavelength (Angstroms) ---  3331 
Final Wavelength (Angstoms) -------  3351 
Wavelength Increment (Angstroms) --  .25 
Filter Wheel #1 Position ---------- (1) Ground quartz diffuser (ND=2.32)
Filter Wheel #2 Position ---------- 



************************************************************
HL scan start time = 11:39:46
Dark Count =  .2 


