************************************************************
  HL Scan of (1) Internal mercury lamp
************************************************************
Integration time is 0.2294 seconds per sample
dh280318Delft 51.9969-4.3863 3.340665pr1000
************************************************************
Dead Time -------------------------  2.7E-08 
Number of Cycles Used -------------  4 
Starting Wavelength (Angstroms) ---  3331 
Final Wavelength (Angstoms) -------  3351 
Wavelength Increment (Angstroms) --  .25 
Filter Wheel #1 Position ---------- (1) Ground quartz diffuser (ND=2.32)
Filter Wheel #2 Position ---------- 



************************************************************
HL scan start time = 06:11:14
Dark Count =  .3 


Time (GMT)  Wavelength (Ang)  Step Number  Raw Counts  Counts/Second

  372.00        3331.00           6579          55.00       238.45
  372.41        3331.25           6582          52.00       225.37
  372.44        3331.50           6586          55.00       238.45
  372.47        3331.75           6590          42.00       181.78
  372.50        3332.00           6594          54.00       234.09
  372.53        3332.25           6597          54.00       234.09
  372.56        3332.50           6601          42.00       181.78
  372.59        3332.75           6605          54.00       234.09
  372.62        3333.00           6608          48.00       207.93
  372.65        3333.25           6612          50.00       216.65
  372.67        3333.50           6616          53.00       229.73
  372.70        3333.75           6620          55.00       238.45
  372.73        3334.00           6623          55.00       238.45
  372.76        3334.25           6627          53.00       229.73
  372.79        3334.50           6631          56.00       242.81
  372.82        3334.75           6635          58.00       251.53
  372.85        3335.00           6638          53.00       229.73
  372.88        3335.25           6642          60.00       260.25
  372.91        3335.50           6646          60.00       260.25
  372.94        3335.75           6649          75.00       325.63
  372.97        3336.00           6653          75.00       325.63
  373.00        3336.25           6657         106.00       460.77
  373.03        3336.50           6661         860.00      3747.98
  373.06        3336.75           6664        2437.00     10625.11
  373.09        3337.00           6668        4833.00     21078.69
  373.12        3337.25           6672        7443.00     32472.66
  373.15        3337.50           6676       10030.00     43773.15
  373.18        3337.75           6679       11813.00     51565.64
  373.21        3338.00           6683       13978.00     61032.06
  373.24        3338.25           6687       16604.00     72520.68
  373.27        3338.50           6690       18689.00     81647.53
  373.30        3338.75           6694       21516.00     94029.62
  373.33        3339.00           6698       24212.00    105845.70
  373.36        3339.25           6702       26643.00    116506.70
  373.39        3339.50           6705       28563.00    124931.20
  373.42        3339.75           6709       30876.00    135085.10
  373.44        3340.00           6713       33684.00    147419.50
  373.48        3340.25           6717       35932.00    157300.10
  373.50        3340.50           6720       37859.00    165773.90
  373.53        3340.75           6724       40051.00    175417.80
  373.56        3341.00           6728       42860.00    187783.60
  373.59        3341.25           6732       44682.00    195808.90
  373.62        3341.50           6735       45496.00    199395.40
  373.65        3341.75           6739       45168.00    197950.10
  373.68        3342.00           6743       44968.00    197068.90
  373.71        3342.25           6747       43072.00    188717.20
  373.74        3342.50           6750       41352.00    181144.00
  373.77        3342.75           6754       39139.00    171404.80
  373.80        3343.00           6758       36808.00    161151.70
  373.83        3343.25           6761       34789.00    152275.60
  373.86        3343.50           6765       32380.00    141690.50
  373.89        3343.75           6769       29512.00    129096.50
  373.92        3344.00           6773       26920.00    117721.90
  373.95        3344.25           6776       24927.00    108980.60
  373.98        3344.50           6780       22518.00     98420.30
  374.01        3344.75           6784       19987.00     87331.66
  374.04        3345.00           6788       17245.00     75326.10
  374.07        3345.25           6791       15273.00     66696.73
  374.10        3345.50           6795       13102.00     57201.19
  374.13        3345.75           6799       10526.00     45940.57
  374.16        3346.00           6803        7617.00     33232.51
  374.19        3346.25           6806        5590.00     24382.66
  374.22        3346.50           6810        2730.00     11903.13
  374.25        3346.75           6814         759.00      3307.62
  374.28        3347.00           6818         190.00       826.96
  374.31        3347.25           6821         107.00       465.13
  374.34        3347.50           6825          77.00       334.35
  374.37        3347.75           6829          79.00       343.07
  374.40        3348.00           6833          74.00       321.28
  374.42        3348.25           6836          58.00       251.53
  374.45        3348.50           6840          63.00       273.32
  374.48        3348.75           6844          57.00       247.17
  374.51        3349.00           6848          59.00       255.89
  374.54        3349.25           6851          52.00       225.37
  374.57        3349.50           6855          47.00       203.58
  374.60        3349.75           6859          60.00       260.25
  374.63        3350.00           6863          50.00       216.65
  374.66        3350.25           6866          47.00       203.58
  374.69        3350.50           6870          55.00       238.45
  374.72        3350.75           6874          51.00       221.01
  374.75        3351.00           6878          56.00       242.81
HL scan finished at 06:16:14
end
************************************************************
  HL Scan of (1) Internal mercury lamp
************************************************************
Integration time is 0.2294 seconds per sample
dh280318Delft 51.9969-4.3863 3.287017pr1000
************************************************************
Dead Time -------------------------  2.7E-08 
Number of Cycles Used -------------  4 
Starting Wavelength (Angstroms) ---  3331 
Final Wavelength (Angstoms) -------  3351 
Wavelength Increment (Angstroms) --  .25 
Filter Wheel #1 Position ---------- (1) Ground quartz diffuser (ND=2.32)
Filter Wheel #2 Position ---------- 



************************************************************
HL scan start time = 07:58:26
Dark Count =  .4 


Time (GMT)  Wavelength (Ang)  Step Number  Raw Counts  Counts/Second

  479.20        3331.00           6579          53.00       229.30
  479.61        3331.25           6582          49.00       211.86
  479.64        3331.50           6586          55.00       238.01
  479.67        3331.75           6590          51.00       220.58
  479.70        3332.00           6594          47.00       203.14
  479.73        3332.25           6597          47.00       203.14
  479.76        3332.50           6601          50.00       216.22
  479.79        3332.75           6605          47.00       203.14
  479.82        3333.00           6608          52.00       224.94
  479.85        3333.25           6612          55.00       238.01
  479.87        3333.50           6616          50.00       216.22
  479.90        3333.75           6620          54.00       233.65
  479.93        3334.00           6623          53.00       229.30
  479.96        3334.25           6627          51.00       220.58
  479.99        3334.50           6631          52.00       224.94
  480.02        3334.75           6635          58.00       251.09
  480.05        3335.00           6638          59.00       255.45
  480.08        3335.25           6642          59.00       255.45
  480.11        3335.50           6646          70.00       303.40
  480.14        3335.75           6649          69.00       299.04
  480.17        3336.00           6653          80.00       347.00
  480.20        3336.25           6657         118.00       512.65
  480.23        3336.50           6661         872.00      3799.87
  480.26        3336.75           6664        2394.00     10437.12
  480.29        3337.00           6668        4448.00     19398.13
  480.32        3337.25           6672        6797.00     29651.46
  480.35        3337.50           6676        9252.00     40373.54
  480.38        3337.75           6679       11438.00     49926.02
  480.41        3338.00           6683       14138.00     61731.40
  480.44        3338.25           6687       16618.00     72581.50
  480.47        3338.50           6690       18336.00     80101.56
  480.50        3338.75           6694       20921.00     91422.43
  480.53        3339.00           6698       23706.00    103626.90
  480.56        3339.25           6702       26151.00    114348.10
  480.59        3339.50           6705       27712.00    121196.30
  480.62        3339.75           6709       30277.00    132454.50
  480.65        3340.00           6713       32659.00    142915.70
  480.68        3340.25           6717       35298.00    154512.50
  480.71        3340.50           6720       37670.00    164942.20
  480.74        3340.75           6724       39950.00    174972.90
  480.77        3341.00           6728       42331.00    185453.80
  480.79        3341.25           6732       44253.00    193918.50
  480.82        3341.50           6735       44911.00    196817.30
  480.85        3341.75           6739       44974.00    197094.90
  480.88        3342.00           6743       44740.00    196064.00
  480.91        3342.25           6747       43219.00    189364.10
  480.94        3342.50           6750       41585.00    182169.40
  480.97        3342.75           6754       38874.00    170238.40
  481.00        3343.00           6758       36389.00    159308.90
  481.03        3343.25           6761       34329.00    150253.50
  481.06        3343.50           6765       31975.00    139911.10
  481.09        3343.75           6769       29570.00    129350.70
  481.12        3344.00           6773       27300.00    119388.60
  481.15        3344.25           6776       25094.00    109712.50
  481.18        3344.50           6780       22924.00    100199.20
  481.21        3344.75           6784       20190.00     88220.34
  481.24        3345.00           6788       17438.00     76170.45
  481.27        3345.25           6791       15377.00     67151.28
  481.30        3345.50           6795       12520.00     54656.01
  481.33        3345.75           6799        9824.00     42872.62
  481.36        3346.00           6803        7300.00     31847.78
  481.39        3346.25           6806        5411.00     23600.91
  481.42        3346.50           6810        2719.00     11854.71
  481.45        3346.75           6814         794.00      3459.78
  481.48        3347.00           6818         218.00       948.59
  481.51        3347.25           6821         110.00       477.77
  481.54        3347.50           6825          92.00       399.31
  481.57        3347.75           6829          77.00       333.92
  481.60        3348.00           6833          65.00       281.61
  481.63        3348.25           6836          65.00       281.61
  481.66        3348.50           6840          58.00       251.09
  481.69        3348.75           6844          59.00       255.45
  481.71        3349.00           6848          58.00       251.09
  481.74        3349.25           6851          54.00       233.65
  481.77        3349.50           6855          51.00       220.58
  481.80        3349.75           6859          53.00       229.30
  481.83        3350.00           6863          62.00       268.53
  481.86        3350.25           6866          55.00       238.01
  481.89        3350.50           6870          56.00       242.37
  481.92        3350.75           6874          52.00       224.94
  481.95        3351.00           6878          54.00       233.65
HL scan finished at 08:03:27
end
************************************************************
  HL Scan of (1) Internal mercury lamp
************************************************************
Integration time is 0.2294 seconds per sample
dh280318Delft 51.9969-4.3863 3.340665pr1000
************************************************************
Dead Time -------------------------  2.7E-08 
Number of Cycles Used -------------  4 
Starting Wavelength (Angstroms) ---  3331 
Final Wavelength (Angstoms) -------  3351 
Wavelength Increment (Angstroms) --  .25 
Filter Wheel #1 Position ---------- (1) Ground quartz diffuser (ND=2.32)
Filter Wheel #2 Position ---------- 



************************************************************
HL scan start time = 09:45:37
Dark Count =  .2 


Time (GMT)  Wavelength (Ang)  Step Number  Raw Counts  Counts/Second

  586.37        3331.00           6579          57.00       247.60
  586.79        3331.25           6582          48.00       208.37
  586.81        3331.50           6586          48.00       208.37
  586.84        3331.75           6590          50.00       217.09
  586.87        3332.00           6594          54.00       234.53
  586.90        3332.25           6597          50.00       217.09
  586.93        3332.50           6601          50.00       217.09
  586.96        3332.75           6605          45.00       195.29
  586.99        3333.00           6608          48.00       208.37
  587.02        3333.25           6612          50.00       217.09
  587.05        3333.50           6616          54.00       234.53
  587.08        3333.75           6620          49.00       212.73
  587.11        3334.00           6623          54.00       234.53
  587.14        3334.25           6627          48.00       208.37
  587.17        3334.50           6631          54.00       234.53
  587.20        3334.75           6635          53.00       230.17
  587.23        3335.00           6638          58.00       251.96
  587.26        3335.25           6642          63.00       273.76
  587.29        3335.50           6646          69.00       299.92
  587.32        3335.75           6649          72.00       312.99
  587.35        3336.00           6653          81.00       352.23
  587.38        3336.25           6657         113.00       491.72
  587.41        3336.50           6661         576.00      2510.20
  587.44        3336.75           6664        2233.00      9735.78
  587.47        3337.00           6668        4786.00     20874.01
  587.50        3337.25           6672        7256.00     31656.52
  587.52        3337.50           6676        9720.00     42419.09
  587.55        3337.75           6679       11535.00     50350.89
  587.59        3338.00           6683       14007.00     61159.33
  587.62        3338.25           6687       16872.00     73694.01
  587.64        3338.50           6690       18757.00     81945.72
  587.67        3338.75           6694       21033.00     91913.96
  587.70        3339.00           6698       23673.00    103483.20
  587.73        3339.25           6702       26138.00    114292.00
  587.76        3339.50           6705       28397.00    124203.10
  587.79        3339.75           6709       31279.00    136855.30
  587.82        3340.00           6713       33572.00    146927.90
  587.85        3340.25           6717       36143.00    158228.20
  587.88        3340.50           6720       38046.00    166596.90
  587.91        3340.75           6724       40392.00    176919.00
  587.94        3341.00           6728       42682.00    187000.20
  587.97        3341.25           6732       44389.00    194518.50
  588.00        3341.50           6735       45044.00    197404.20
  588.03        3341.75           6739       45324.00    198637.90
  588.06        3342.00           6743       44793.00    196298.30
  588.09        3342.25           6747       43151.00    189065.60
  588.12        3342.50           6750       41439.00    181527.50
  588.15        3342.75           6754       39072.00    171110.40
  588.18        3343.00           6758       36556.00    160044.10
  588.21        3343.25           6761       34642.00    151630.00
  588.24        3343.50           6765       32091.00    140421.60
  588.27        3343.75           6769       29837.00    130523.70
  588.30        3344.00           6773       27571.00    120578.50
  588.33        3344.25           6776       25472.00    111371.00
  588.36        3344.50           6780       22815.00     99722.38
  588.39        3344.75           6784       19605.00     85659.09
  588.42        3345.00           6788       16927.00     73934.71
  588.45        3345.25           6791       15149.00     66154.68
  588.48        3345.50           6795       12529.00     54696.23
  588.51        3345.75           6799        9966.00     43493.94
  588.54        3346.00           6803        7489.00     32673.98
  588.57        3346.25           6806        5752.00     25090.23
  588.60        3346.50           6810        3208.00     13988.72
  588.63        3346.75           6814        1100.00      4794.87
  588.66        3347.00           6818         199.00       866.63
  588.69        3347.25           6821          95.00       413.26
  588.72        3347.50           6825          89.00       387.10
  588.75        3347.75           6829          69.00       299.92
  588.78        3348.00           6833          70.00       304.27
  588.81        3348.25           6836          64.00       278.12
  588.84        3348.50           6840          59.00       256.32
  588.87        3348.75           6844          53.00       230.17
  588.90        3349.00           6848          55.00       238.89
  588.93        3349.25           6851          58.00       251.96
  588.96        3349.50           6855          48.00       208.37
  588.99        3349.75           6859          47.00       204.01
  589.02        3350.00           6863          59.00       256.32
  589.05        3350.25           6866          51.00       221.45
  589.08        3350.50           6870          54.00       234.53
  589.11        3350.75           6874          50.00       217.09
  589.13        3351.00           6878          57.00       247.60
HL scan finished at 09:50:38
end
************************************************************
  HL Scan of (1) Internal mercury lamp
************************************************************
Integration time is 0.2294 seconds per sample
dh280318Delft 51.9969-4.3863 3.340665pr1000
************************************************************
Dead Time -------------------------  2.7E-08 
Number of Cycles Used -------------  4 
Starting Wavelength (Angstroms) ---  3331 
Final Wavelength (Angstoms) -------  3351 
Wavelength Increment (Angstroms) --  .25 
Filter Wheel #1 Position ---------- (1) Ground quartz diffuser (ND=2.32)
Filter Wheel #2 Position ---------- 



************************************************************
HL scan start time = 11:32:48
Dark Count =  .4 


