************************************************************
  HL Scan of (1) Internal mercury lamp
************************************************************
Integration time is 0.2294 seconds per sample
dh300317DelftKZ 51.997-4.386 2.643241pr1000
************************************************************
Dead Time -------------------------  3E-08 
Number of Cycles Used -------------  4 
Starting Wavelength (Angstroms) ---  3331 
Final Wavelength (Angstoms) -------  3351 
Wavelength Increment (Angstroms) --  .25 
Filter Wheel #1 Position ---------- (1) Ground quartz diffuser (ND=2.32)
Filter Wheel #2 Position ---------- 



************************************************************
HL scan start time = 00:32:09
Dark Count =  .1 


Time (GMT)  Wavelength (Ang)  Step Number  Raw Counts  Counts/Second

   32.91        3331.00           6581          47.00       204.45
   33.32        3331.25           6584          49.00       213.17
   33.35        3331.50           6588          41.00       178.29
   33.37        3331.75           6592          47.00       204.45
   33.40        3332.00           6595          50.00       217.53
   33.43        3332.25           6599          48.00       208.81
   33.46        3332.50           6603          50.00       217.53
   33.49        3332.75           6607          44.00       191.37
   33.51        3333.00           6610          50.00       217.53
   33.54        3333.25           6614          46.00       200.09
   33.57        3333.50           6618          43.00       187.01
   33.60        3333.75           6622          44.00       191.37
   33.62        3334.00           6625          45.00       195.73
   33.66        3334.25           6629          49.00       213.17
   33.69        3334.50           6633          52.00       226.24
   33.72        3334.75           6636          57.00       248.04
   33.75        3335.00           6640          63.00       274.20
   33.77        3335.25           6644          57.00       248.04
   33.80        3335.50           6648          70.00       304.71
   33.83        3335.75           6651          65.00       282.91
   33.86        3336.00           6655          83.00       361.38
   33.88        3336.25           6659         171.00       745.00
   33.91        3336.50           6663        1225.00      5340.44
   33.94        3336.75           6666        2684.00     11703.76
   33.97        3337.00           6670        4731.00     20635.70
   33.99        3337.25           6674        7078.00     30882.57
   34.02        3337.50           6677        8812.00     38457.17
   34.05        3337.75           6681       10578.00     46175.08
   34.08        3338.00           6685       12609.00     55055.56
   34.11        3338.25           6689       14618.00     63844.49
   34.13        3338.50           6692       16063.00     70168.93
   34.16        3338.75           6696       17941.00     78392.08
   34.19        3339.00           6700       19770.00     86404.60
   34.22        3339.25           6704       21644.00     94618.24
   34.25        3339.50           6707       23330.00    102011.40
   34.27        3339.75           6711       25689.00    112361.10
   34.30        3340.00           6715       27494.00    120284.60
   34.33        3340.25           6719       29361.00    128484.30
   34.36        3340.50           6722       30849.00    135022.30
   34.38        3340.75           6726       32653.00    142952.20
   34.41        3341.00           6730       34290.00    150151.30
   34.44        3341.25           6733       34881.00    152751.10
   34.47        3341.50           6737       34902.00    152843.50
   34.50        3341.75           6741       35090.00    153670.60
   34.52        3342.00           6745       33982.00    148796.60
   34.55        3342.25           6748       32816.00    143668.90
   34.58        3342.50           6752       30648.00    134139.00
   34.61        3342.75           6756       28592.00    125106.40
   34.63        3343.00           6760       26586.00    116298.30
   34.67        3343.25           6763       25066.00    109627.20
   34.70        3343.50           6767       22833.00     99831.68
   34.73        3343.75           6771       21068.00     92093.24
   34.76        3344.00           6775       19427.00     84901.68
   34.78        3344.25           6778       17837.00     77936.59
   34.81        3344.50           6782       16055.00     70133.90
   34.84        3344.75           6786       13909.00     60742.24
   34.88        3345.00           6790       11846.00     51718.81
   34.90        3345.25           6793       10343.00     45147.86
   34.93        3345.50           6797        8382.00     36578.48
   34.96        3345.75           6801        6373.00     27803.92
   34.99        3346.00           6805        4450.00     19409.29
   35.01        3346.25           6808        3022.00     13178.27
   35.04        3346.50           6812        1213.00      5288.11
   35.07        3346.75           6816         260.00      1132.99
   35.10        3347.00           6819         100.00       435.49
   35.13        3347.25           6823          65.00       282.91
   35.15        3347.50           6827          69.00       300.35
   35.18        3347.75           6831          60.00       261.12
   35.21        3348.00           6834          57.00       248.04
   35.24        3348.25           6838          49.00       213.17
   35.26        3348.50           6842          54.00       234.96
   35.29        3348.75           6846          56.00       243.68
   35.32        3349.00           6849          52.00       226.24
   35.35        3349.25           6853          45.00       195.73
   35.38        3349.50           6857          51.00       221.88
   35.40        3349.75           6861          51.00       221.88
   35.43        3350.00           6864          50.00       217.53
   35.46        3350.25           6868          55.00       239.32
   35.49        3350.50           6872          48.00       208.81
   35.51        3350.75           6876          44.00       191.37
   35.54        3351.00           6879          46.00       200.09
HL scan finished at 00:37:01
end
************************************************************
  HL Scan of (1) Internal mercury lamp
************************************************************
Integration time is 0.2294 seconds per sample
dh300317DelftKZ 51.997-4.386 2.696889pr1000
************************************************************
Dead Time -------------------------  3E-08 
Number of Cycles Used -------------  4 
Starting Wavelength (Angstroms) ---  3331 
Final Wavelength (Angstoms) -------  3351 
Wavelength Increment (Angstroms) --  .25 
Filter Wheel #1 Position ---------- (1) Ground quartz diffuser (ND=2.32)
Filter Wheel #2 Position ---------- 



************************************************************
HL scan start time = 04:03:59
Dark Count =  0 


Time (GMT)  Wavelength (Ang)  Step Number  Raw Counts  Counts/Second

  244.74        3331.00           6581          49.00       213.60
  245.15        3331.25           6584          48.00       209.24
  245.18        3331.50           6588          46.00       200.52
  245.21        3331.75           6592          46.00       200.52
  245.23        3332.00           6595          43.00       187.45
  245.26        3332.25           6599          46.00       200.52
  245.29        3332.50           6603          44.00       191.81
  245.32        3332.75           6607          47.00       204.88
  245.35        3333.00           6610          46.00       200.52
  245.38        3333.25           6614          42.00       183.09
  245.41        3333.50           6618          44.00       191.81
  245.43        3333.75           6622          41.00       178.73
  245.46        3334.00           6625          47.00       204.88
  245.49        3334.25           6629          48.00       209.24
  245.52        3334.50           6633          46.00       200.52
  245.54        3334.75           6636          49.00       213.60
  245.57        3335.00           6640          51.00       222.32
  245.60        3335.25           6644          52.00       226.68
  245.63        3335.50           6648          58.00       252.84
  245.66        3335.75           6651          63.00       274.63
  245.68        3336.00           6655          75.00       326.94
  245.71        3336.25           6659         308.00      1342.69
  245.74        3336.50           6663        1544.00      6731.96
  245.77        3336.75           6666        2789.00     12162.24
  245.79        3337.00           6670        4481.00     19545.02
  245.82        3337.25           6674        6279.00     27393.91
  245.85        3337.50           6677        7336.00     32009.80
  245.88        3337.75           6681        8729.00     38094.95
  245.91        3338.00           6685       10412.00     45449.90
  245.93        3338.25           6689       12229.00     53394.10
  245.96        3338.50           6692       13695.00     59806.43
  245.99        3338.75           6696       15350.00     67048.41
  246.02        3339.00           6700       16810.00     73439.75
  246.04        3339.25           6704       18756.00     81962.41
  246.07        3339.50           6707       20030.00     87544.35
  246.10        3339.75           6711       21743.00     95052.71
  246.13        3340.00           6715       23268.00    101739.90
  246.16        3340.25           6719       24903.00    108912.40
  246.18        3340.50           6722       26244.00    114797.50
  246.21        3340.75           6726       27866.00    121918.50
  246.24        3341.00           6730       29232.00    127918.00
  246.27        3341.25           6733       29905.00    130874.70
  246.30        3341.50           6737       30009.00    131331.60
  246.32        3341.75           6741       29975.00    131182.20
  246.35        3342.00           6745       28986.00    126837.40
  246.38        3342.25           6748       27908.00    122103.00
  246.41        3342.50           6752       26221.00    114696.50
  246.43        3342.75           6756       24730.00    108153.30
  246.46        3343.00           6760       22967.00    100419.80
  246.49        3343.25           6763       21744.00     95057.09
  246.52        3343.50           6767       19704.00     86115.84
  246.55        3343.75           6771       18036.00     78808.60
  246.58        3344.00           6775       16528.00     72205.07
  246.61        3344.25           6778       15351.00     67052.79
  246.64        3344.50           6782       13852.00     60493.29
  246.66        3344.75           6786       12072.00     52707.52
  246.69        3345.00           6790       10513.00     45891.39
  246.72        3345.25           6793        9218.00     40231.62
  246.75        3345.50           6797        7522.00     32822.19
  246.78        3345.75           6801        5490.00     23949.20
  246.80        3346.00           6805        3649.00     15914.31
  246.83        3346.25           6808        2246.00      9793.64
  246.86        3346.50           6812         696.00      3034.28
  246.89        3346.75           6816         168.00       732.36
  246.91        3347.00           6819          68.00       296.43
  246.94        3347.25           6823          63.00       274.63
  246.97        3347.50           6827          56.00       244.12
  247.00        3347.75           6831          60.00       261.55
  247.03        3348.00           6834          51.00       222.32
  247.05        3348.25           6838          48.00       209.24
  247.08        3348.50           6842          51.00       222.32
  247.11        3348.75           6846          50.00       217.96
  247.14        3349.00           6849          43.00       187.45
  247.17        3349.25           6853          46.00       200.52
  247.20        3349.50           6857          39.00       170.01
  247.22        3349.75           6861          42.00       183.09
  247.25        3350.00           6864          48.00       209.24
  247.29        3350.25           6868          43.00       187.45
  247.32        3350.50           6872          46.00       200.52
  247.34        3350.75           6876          45.00       196.17
  247.37        3351.00           6879          45.00       196.17
HL scan finished at 04:08:51
end
