************************************************************
  HL Scan of (1) Internal mercury lamp
************************************************************
Integration time is 0.2294 seconds per sample
dh290318Delft 51.9969-4.3863 3.287017pr1000
************************************************************
Dead Time -------------------------  2.7E-08 
Number of Cycles Used -------------  4 
Starting Wavelength (Angstroms) ---  3331 
Final Wavelength (Angstoms) -------  3351 
Wavelength Increment (Angstroms) --  .25 
Filter Wheel #1 Position ---------- (1) Ground quartz diffuser (ND=2.32)
Filter Wheel #2 Position ---------- 



************************************************************
HL scan start time = 06:08:56
Dark Count =  .1 


Time (GMT)  Wavelength (Ang)  Step Number  Raw Counts  Counts/Second

  369.69        3331.00           6579          54.00       234.96
  370.10        3331.25           6582          49.00       213.17
  370.13        3331.50           6586          52.00       226.24
  370.16        3331.75           6590          51.00       221.88
  370.19        3332.00           6594          52.00       226.24
  370.22        3332.25           6597          51.00       221.88
  370.25        3332.50           6601          57.00       248.04
  370.28        3332.75           6605          48.00       208.81
  370.31        3333.00           6608          53.00       230.60
  370.34        3333.25           6612          50.00       217.53
  370.37        3333.50           6616          51.00       221.88
  370.40        3333.75           6620          52.00       226.24
  370.43        3334.00           6623          56.00       243.68
  370.46        3334.25           6627          58.00       252.40
  370.49        3334.50           6631          52.00       226.24
  370.52        3334.75           6635          61.00       265.48
  370.55        3335.00           6638          55.00       239.32
  370.58        3335.25           6642          58.00       252.40
  370.61        3335.50           6646          78.00       339.58
  370.63        3335.75           6649          74.00       322.15
  370.66        3336.00           6653          81.00       352.66
  370.69        3336.25           6657         110.00       479.08
  370.72        3336.50           6661         562.00      2449.60
  370.75        3336.75           6664        2197.00      9579.20
  370.78        3337.00           6668        4289.00     18705.61
  370.81        3337.25           6672        6636.00     28949.82
  370.84        3337.50           6676        9238.00     40313.70
  370.87        3337.75           6679       11223.00     48987.60
  370.90        3338.00           6683       14152.00     61793.96
  370.93        3338.25           6687       16822.00     73475.61
  370.96        3338.50           6690       18719.00     81779.77
  370.99        3338.75           6694       21359.00     93342.62
  371.02        3339.00           6698       24024.00    105022.30
  371.05        3339.25           6702       26332.00    115143.40
  371.08        3339.50           6705       28336.00    123935.90
  371.11        3339.75           6709       30405.00    133017.90
  371.14        3340.00           6713       32983.00    144340.40
  371.17        3340.25           6717       35556.00    155647.90
  371.20        3340.50           6720       37665.00    164921.50
  371.23        3340.75           6724       40125.00    175744.30
  371.26        3341.00           6728       42506.00    186225.60
  371.29        3341.25           6732       44106.00    193272.30
  371.32        3341.50           6735       44596.00    195430.90
  371.35        3341.75           6739       44772.00    196206.30
  371.38        3342.00           6743       44591.00    195408.90
  371.41        3342.25           6747       42871.00    187832.90
  371.44        3342.50           6750       40911.00    179203.70
  371.47        3342.75           6754       38744.00    169667.80
  371.50        3343.00           6758       36137.00    158202.20
  371.53        3343.25           6761       33837.00    148092.70
  371.55        3343.50           6765       31413.00    137444.20
  371.58        3343.75           6769       28937.00    126573.50
  371.61        3344.00           6773       26550.00    116099.60
  371.64        3344.25           6776       24300.00    106232.40
  371.67        3344.50           6780       22203.00     97040.77
  371.70        3344.75           6784       19549.00     85414.28
  371.73        3345.00           6788       17016.00     74324.68
  371.76        3345.25           6791       15107.00     65971.38
  371.79        3345.50           6795       12504.00     54587.38
  371.82        3345.75           6799        9692.00     42297.19
  371.85        3346.00           6803        7159.00     31233.39
  371.88        3346.25           6806        5490.00     23947.04
  371.91        3346.50           6810        3120.00     13605.26
  371.94        3346.75           6814         981.00      4276.43
  371.97        3347.00           6818         221.00       962.97
  372.00        3347.25           6821         114.00       496.52
  372.03        3347.50           6825          77.00       335.23
  372.06        3347.75           6829          71.00       309.07
  372.09        3348.00           6833          64.00       278.55
  372.12        3348.25           6836          60.00       261.12
  372.15        3348.50           6840          57.00       248.04
  372.18        3348.75           6844          60.00       261.12
  372.21        3349.00           6848          58.00       252.40
  372.24        3349.25           6851          49.00       213.17
  372.27        3349.50           6855          48.00       208.81
  372.30        3349.75           6859          49.00       213.17
  372.33        3350.00           6863          55.00       239.32
  372.36        3350.25           6866          57.00       248.04
  372.39        3350.50           6870          55.00       239.32
  372.41        3350.75           6874          48.00       208.81
  372.44        3351.00           6878          45.00       195.73
HL scan finished at 06:13:56
end
************************************************************
  HL Scan of (1) Internal mercury lamp
************************************************************
Integration time is 0.2294 seconds per sample
dh290318Delft 51.9969-4.3863 3.287017pr1000
************************************************************
Dead Time -------------------------  2.7E-08 
Number of Cycles Used -------------  4 
Starting Wavelength (Angstroms) ---  3331 
Final Wavelength (Angstoms) -------  3351 
Wavelength Increment (Angstroms) --  .25 
Filter Wheel #1 Position ---------- (1) Ground quartz diffuser (ND=2.32)
Filter Wheel #2 Position ---------- 



************************************************************
HL scan start time = 07:56:06
Dark Count =  .2 


Time (GMT)  Wavelength (Ang)  Step Number  Raw Counts  Counts/Second

  476.87        3331.00           6579          47.00       204.01
  477.28        3331.25           6582          50.00       217.09
  477.31        3331.50           6586          61.00       265.04
  477.34        3331.75           6590          45.00       195.29
  477.37        3332.00           6594          49.00       212.73
  477.40        3332.25           6597          51.00       221.45
  477.43        3332.50           6601          54.00       234.53
  477.46        3332.75           6605          47.00       204.01
  477.49        3333.00           6608          48.00       208.37
  477.52        3333.25           6612          49.00       212.73
  477.55        3333.50           6616          45.00       195.29
  477.58        3333.75           6620          53.00       230.17
  477.61        3334.00           6623          52.00       225.81
  477.64        3334.25           6627          52.00       225.81
  477.67        3334.50           6631          59.00       256.32
  477.70        3334.75           6635          54.00       234.53
  477.73        3335.00           6638          57.00       247.60
  477.76        3335.25           6642          59.00       256.32
  477.79        3335.50           6646          72.00       312.99
  477.82        3335.75           6649          77.00       334.79
  477.84        3336.00           6653          77.00       334.79
  477.87        3336.25           6657         112.00       487.36
  477.90        3336.50           6661         812.00      3539.14
  477.93        3336.75           6664        2491.00     10861.07
  477.96        3337.00           6668        5068.00     22104.73
  477.99        3337.25           6672        7778.00     33936.05
  478.02        3337.50           6676       10166.00     44367.85
  478.05        3337.75           6679       12167.00     53113.60
  478.08        3338.00           6683       14736.00     64347.97
  478.11        3338.25           6687       17241.00     75309.03
  478.14        3338.50           6690       19201.00     83889.89
  478.17        3338.75           6694       21660.00     94660.99
  478.20        3339.00           6698       24003.00    104929.80
  478.23        3339.25           6702       26444.00    115634.20
  478.26        3339.50           6705       28570.00    124962.30
  478.29        3339.75           6709       31303.00    136960.60
  478.32        3340.00           6713       33834.00    148079.10
  478.35        3340.25           6717       36292.00    158883.30
  478.38        3340.50           6720       37783.00    165440.10
  478.41        3340.75           6724       40032.00    175334.60
  478.44        3341.00           6728       42753.00    187312.90
  478.47        3341.25           6732       44336.00    194285.00
  478.50        3341.50           6735       44543.00    195196.90
  478.53        3341.75           6739       44508.00    195042.70
  478.56        3342.00           6743       44323.00    194227.80
  478.59        3342.25           6747       41805.00    183138.70
  478.62        3342.50           6750       40119.00    175717.50
  478.65        3342.75           6754       37811.00    165563.20
  478.68        3343.00           6758       35097.00    153629.90
  478.71        3343.25           6761       32944.00    144168.60
  478.74        3343.50           6765       30704.00    134330.30
  478.77        3343.75           6769       28499.00    124650.70
  478.80        3344.00           6773       26144.00    114318.30
  478.83        3344.25           6776       24279.00    106139.80
  478.86        3344.50           6780       21476.00     93854.80
  478.89        3344.75           6784       18555.00     81061.28
  478.91        3345.00           6788       16023.00     69978.66
  478.95        3345.25           6791       14215.00     62069.07
  478.97        3345.50           6795       11991.00     52344.20
  479.00        3345.75           6799        9404.00     41038.47
  479.03        3346.00           6803        6875.00     29992.89
  479.06        3346.25           6806        5158.00     22497.53
  479.09        3346.50           6810        2903.00     12658.21
  479.12        3346.75           6814         786.00      3425.77
  479.15        3347.00           6818         158.00       687.89
  479.18        3347.25           6821          95.00       413.26
  479.21        3347.50           6825          83.00       360.95
  479.24        3347.75           6829          72.00       312.99
  479.27        3348.00           6833          66.00       286.84
  479.30        3348.25           6836          56.00       243.24
  479.33        3348.50           6840          55.00       238.89
  479.36        3348.75           6844          58.00       251.96
  479.39        3349.00           6848          55.00       238.89
  479.42        3349.25           6851          53.00       230.17
  479.45        3349.50           6855          57.00       247.60
  479.48        3349.75           6859          50.00       217.09
  479.51        3350.00           6863          57.00       247.60
  479.54        3350.25           6866          50.00       217.09
  479.57        3350.50           6870          59.00       256.32
  479.60        3350.75           6874          58.00       251.96
  479.62        3351.00           6878          54.00       234.53
HL scan finished at 08:01:07
end
