************************************************************
  HL Scan of (1) Internal mercury lamp
************************************************************
Integration time is 0.2294 seconds per sample
dh240318Delft 51.9969-4.3863 3.287017pr1000
************************************************************
Dead Time -------------------------  2.7E-08 
Number of Cycles Used -------------  4 
Starting Wavelength (Angstroms) ---  3331 
Final Wavelength (Angstoms) -------  3351 
Wavelength Increment (Angstroms) --  .25 
Filter Wheel #1 Position ---------- (1) Ground quartz diffuser (ND=2.32)
Filter Wheel #2 Position ---------- 



************************************************************
HL scan start time = 06:20:30
Dark Count =  .4 


Time (GMT)  Wavelength (Ang)  Step Number  Raw Counts  Counts/Second

  381.26        3331.00           6579          54.00       233.65
  381.67        3331.25           6582          52.00       224.94
  381.70        3331.50           6586          55.00       238.01
  381.73        3331.75           6590          56.00       242.37
  381.76        3332.00           6594          53.00       229.30
  381.79        3332.25           6597          52.00       224.94
  381.82        3332.50           6601          49.00       211.86
  381.85        3332.75           6605          45.00       194.42
  381.88        3333.00           6608          48.00       207.50
  381.91        3333.25           6612          54.00       233.65
  381.94        3333.50           6616          46.00       198.78
  381.97        3333.75           6620          55.00       238.01
  382.00        3334.00           6623          48.00       207.50
  382.03        3334.25           6627          54.00       233.65
  382.06        3334.50           6631          54.00       233.65
  382.09        3334.75           6635          55.00       238.01
  382.12        3335.00           6638          54.00       233.65
  382.15        3335.25           6642          68.00       294.68
  382.17        3335.50           6646          67.00       290.32
  382.20        3335.75           6649          72.00       312.12
  382.23        3336.00           6653          82.00       355.71
  382.26        3336.25           6657         111.00       482.13
  382.29        3336.50           6661         674.00      2936.59
  382.32        3336.75           6664        2153.00      9385.99
  382.35        3337.00           6668        4648.00     20270.90
  382.38        3337.25           6672        7410.00     32328.12
  382.41        3337.50           6676        9900.00     43204.69
  382.44        3337.75           6679       11786.00     51447.17
  382.47        3338.00           6683       13948.00     60900.41
  382.50        3338.25           6687       16716.00     73010.40
  382.53        3338.50           6690       18929.00     82697.96
  382.56        3338.75           6694       21444.00     93713.72
  382.59        3339.00           6698       23673.00    103482.30
  382.62        3339.25           6702       26280.00    114914.00
  382.65        3339.50           6705       28171.00    123210.40
  382.68        3339.75           6709       31088.00    136015.60
  382.71        3340.00           6713       33916.00    148438.60
  382.74        3340.25           6717       36037.00    157761.30
  382.77        3340.50           6720       38148.00    167044.70
  382.80        3340.75           6724       40787.00    178656.60
  382.83        3341.00           6728       42948.00    188170.70
  382.86        3341.25           6732       44740.00    196064.00
  382.89        3341.50           6735       45213.00    198147.90
  382.92        3341.75           6739       45316.00    198601.80
  382.95        3342.00           6743       45058.00    197465.00
  382.98        3342.25           6747       43015.00    188465.80
  383.01        3342.50           6750       41470.00    181663.10
  383.04        3342.75           6754       39043.00    170982.00
  383.07        3343.00           6758       36383.00    159282.50
  383.10        3343.25           6761       34497.00    150991.80
  383.13        3343.50           6765       32050.00    140240.60
  383.16        3343.75           6769       29656.00    129728.20
  383.18        3344.00           6773       27534.00    120415.30
  383.21        3344.25           6776       25406.00    111080.70
  383.24        3344.50           6780       22780.00     99568.10
  383.27        3344.75           6784       19832.00     86652.36
  383.30        3345.00           6788       17003.00     74266.47
  383.33        3345.25           6791       15115.00     66005.06
  383.36        3345.50           6795       12603.00     55018.90
  383.39        3345.75           6799        9778.00     42671.63
  383.42        3346.00           6803        7029.00     30664.44
  383.45        3346.25           6806        5384.00     23483.06
  383.48        3346.50           6810        3094.00     13490.53
  383.51        3346.75           6814         948.00      4131.24
  383.54        3347.00           6818         208.00       904.99
  383.57        3347.25           6821          97.00       421.10
  383.60        3347.50           6825          78.00       338.28
  383.63        3347.75           6829          73.00       316.48
  383.66        3348.00           6833          78.00       338.28
  383.69        3348.25           6836          62.00       268.53
  383.72        3348.50           6840          60.00       259.81
  383.75        3348.75           6844          63.00       272.89
  383.78        3349.00           6848          55.00       238.01
  383.81        3349.25           6851          52.00       224.94
  383.84        3349.50           6855          58.00       251.09
  383.87        3349.75           6859          52.00       224.94
  383.89        3350.00           6863          48.00       207.50
  383.93        3350.25           6866          56.00       242.37
  383.96        3350.50           6870          51.00       220.58
  383.98        3350.75           6874          49.00       211.86
  384.02        3351.00           6878          57.00       246.73
HL scan finished at 06:25:30
end
************************************************************
  HL Scan of (1) Internal mercury lamp
************************************************************
Integration time is 0.2294 seconds per sample
dh240318Delft 51.9969-4.3863 3.287017pr1000
************************************************************
Dead Time -------------------------  2.7E-08 
Number of Cycles Used -------------  4 
Starting Wavelength (Angstroms) ---  3331 
Final Wavelength (Angstoms) -------  3351 
Wavelength Increment (Angstroms) --  .25 
Filter Wheel #1 Position ---------- (1) Ground quartz diffuser (ND=2.32)
Filter Wheel #2 Position ---------- 



************************************************************
HL scan start time = 08:07:41
Dark Count =  .3 


Time (GMT)  Wavelength (Ang)  Step Number  Raw Counts  Counts/Second

  488.45        3331.00           6579          51.00       221.01
  488.86        3331.25           6582          52.00       225.37
  488.89        3331.50           6586          54.00       234.09
  488.92        3331.75           6590          49.00       212.29
  488.95        3332.00           6594          54.00       234.09
  488.98        3332.25           6597          50.00       216.65
  489.01        3332.50           6601          51.00       221.01
  489.04        3332.75           6605          51.00       221.01
  489.07        3333.00           6608          57.00       247.17
  489.10        3333.25           6612          53.00       229.73
  489.13        3333.50           6616          54.00       234.09
  489.16        3333.75           6620          47.00       203.58
  489.19        3334.00           6623          49.00       212.29
  489.22        3334.25           6627          53.00       229.73
  489.25        3334.50           6631          48.00       207.93
  489.27        3334.75           6635          56.00       242.81
  489.31        3335.00           6638          60.00       260.25
  489.33        3335.25           6642          65.00       282.04
  489.36        3335.50           6646          61.00       264.61
  489.39        3335.75           6649          78.00       338.71
  489.42        3336.00           6653          87.00       377.95
  489.45        3336.25           6657         112.00       486.93
  489.48        3336.50           6661         945.00      4118.59
  489.51        3336.75           6664        2548.00     11109.26
  489.54        3337.00           6668        4846.00     21135.43
  489.57        3337.25           6672        7070.00     30843.90
  489.60        3337.50           6676        9589.00     41846.30
  489.63        3337.75           6679       11847.00     51714.27
  489.66        3338.00           6683       14144.00     61758.08
  489.69        3338.25           6687       16545.00     72262.47
  489.72        3338.50           6690       18550.00     81038.94
  489.75        3338.75           6694       21320.00     93170.88
  489.78        3339.00           6698       23900.00    104477.80
  489.81        3339.25           6702       26688.00    116704.10
  489.84        3339.50           6705       28625.00    125203.30
  489.87        3339.75           6709       31175.00    136398.10
  489.90        3340.00           6713       33824.00    148034.70
  489.93        3340.25           6717       36129.00    158166.20
  489.96        3340.50           6720       37958.00    166209.40
  489.99        3340.75           6724       40008.00    175228.60
  490.02        3341.00           6728       42359.00    185577.50
  490.04        3341.25           6732       44295.00    194104.00
  490.08        3341.50           6735       44852.00    196557.80
  490.11        3341.75           6739       44853.00    196562.20
  490.13        3342.00           6743       44533.00    195152.40
  490.17        3342.25           6747       42963.00    188237.20
  490.19        3342.50           6750       41220.00    180563.00
  490.22        3342.75           6754       38469.00    168457.10
  490.26        3343.00           6758       35998.00    157590.20
  490.28        3343.25           6761       34440.00    150741.70
  490.31        3343.50           6765       32300.00    141339.10
  490.34        3343.75           6769       29621.00    129575.00
  490.37        3344.00           6773       26870.00    117502.50
  490.40        3344.25           6776       24784.00    108353.60
  490.43        3344.50           6780       22104.00     96606.06
  490.46        3344.75           6784       19356.00     84568.21
  490.49        3345.00           6788       16731.00     73076.48
  490.52        3345.25           6791       14603.00     63765.76
  490.55        3345.50           6795       12269.00     53559.10
  490.58        3345.75           6799       10056.00     43886.76
  490.61        3346.00           6803        7409.00     32324.19
  490.64        3346.25           6806        5642.00     24609.64
  490.67        3346.50           6810        3043.00     13268.49
  490.70        3346.75           6814         790.00      3442.78
  490.73        3347.00           6818         185.00       805.16
  490.76        3347.25           6821          95.00       412.82
  490.79        3347.50           6825          86.00       373.59
  490.82        3347.75           6829          75.00       325.63
  490.85        3348.00           6833          66.00       286.40
  490.88        3348.25           6836          66.00       286.40
  490.91        3348.50           6840          56.00       242.81
  490.94        3348.75           6844          56.00       242.81
  490.97        3349.00           6848          61.00       264.61
  491.00        3349.25           6851          53.00       229.73
  491.03        3349.50           6855          53.00       229.73
  491.05        3349.75           6859          55.00       238.45
  491.08        3350.00           6863          55.00       238.45
  491.11        3350.25           6866          52.00       225.37
  491.14        3350.50           6870          57.00       247.17
  491.17        3350.75           6874          51.00       221.01
  491.20        3351.00           6878          57.00       247.17
HL scan finished at 08:12:42
end
************************************************************
  HL Scan of (1) Internal mercury lamp
************************************************************
Integration time is 0.2294 seconds per sample
dh240318Delft 51.9969-4.3863 3.287017pr1000
************************************************************
Dead Time -------------------------  2.7E-08 
Number of Cycles Used -------------  4 
Starting Wavelength (Angstroms) ---  3331 
Final Wavelength (Angstoms) -------  3351 
Wavelength Increment (Angstroms) --  .25 
Filter Wheel #1 Position ---------- (1) Ground quartz diffuser (ND=2.32)
Filter Wheel #2 Position ---------- 



************************************************************
HL scan start time = 09:54:54
Dark Count =  .3 


Time (GMT)  Wavelength (Ang)  Step Number  Raw Counts  Counts/Second

  595.66        3331.00           6579          53.00       229.73
  596.07        3331.25           6582          48.00       207.93
  596.10        3331.50           6586          42.00       181.78
  596.13        3331.75           6590          50.00       216.65
  596.16        3332.00           6594          57.00       247.17
  596.19        3332.25           6597          46.00       199.22
  596.22        3332.50           6601          54.00       234.09
  596.25        3332.75           6605          53.00       229.73
  596.27        3333.00           6608          51.00       221.01
  596.30        3333.25           6612          48.00       207.93
  596.33        3333.50           6616          44.00       190.50
  596.36        3333.75           6620          57.00       247.17
  596.39        3334.00           6623          55.00       238.45
  596.42        3334.25           6627          49.00       212.29
  596.45        3334.50           6631          50.00       216.65
  596.48        3334.75           6635          55.00       238.45
  596.51        3335.00           6638          60.00       260.25
  596.54        3335.25           6642          58.00       251.53
  596.57        3335.50           6646          71.00       308.20
  596.60        3335.75           6649          72.00       312.56
  596.63        3336.00           6653          81.00       351.79
  596.66        3336.25           6657         116.00       504.37
  596.69        3336.50           6661         699.00      3046.02
  596.72        3336.75           6664        2321.00     10119.15
  596.75        3337.00           6668        4764.00     20777.57
  596.78        3337.25           6672        7051.00     30760.94
  596.81        3337.50           6676        9430.00     41151.63
  596.84        3337.75           6679       11398.00     49751.62
  596.87        3338.00           6683       13957.00     60940.21
  596.90        3338.25           6687       16932.00     73956.16
  596.93        3338.50           6690       19343.00     84511.28
  596.96        3338.75           6694       21685.00     94770.09
  596.99        3339.00           6698       24179.00    105701.00
  597.02        3339.25           6702       26917.00    117708.70
  597.05        3339.50           6705       28988.00    126796.50
  597.08        3339.75           6709       31214.00    136569.40
  597.11        3340.00           6713       33528.00    146734.10
  597.14        3340.25           6717       36012.00    157651.80
  597.17        3340.50           6720       37916.00    166024.60
  597.20        3340.75           6724       40521.00    177486.30
  597.23        3341.00           6728       42864.00    187801.20
  597.25        3341.25           6732       44861.00    196597.50
  597.29        3341.50           6735       45291.00    198492.10
  597.32        3341.75           6739       45068.00    197509.50
  597.34        3342.00           6743       44787.00    196271.50
  597.38        3342.25           6747       43073.00    188721.60
  597.41        3342.50           6750       41537.00    181958.50
  597.44        3342.75           6754       39241.00    171853.60
  597.47        3343.00           6758       36367.00    159212.60
  597.50        3343.25           6761       34515.00    151071.40
  597.52        3343.50           6765       31709.00    138743.30
  597.55        3343.75           6769       29016.00    126919.40
  597.58        3344.00           6773       26726.00    116870.80
  597.61        3344.25           6776       24558.00    107362.60
  597.64        3344.50           6780       22042.00     96334.37
  597.67        3344.75           6784       19432.00     84901.02
  597.70        3345.00           6788       17179.00     75037.23
  597.73        3345.25           6791       15113.00     65996.75
  597.76        3345.50           6795       12708.00     55478.42
  597.79        3345.75           6799        9934.00     43353.69
  597.82        3346.00           6803        7039.00     30708.54
  597.85        3346.25           6806        5246.00     22881.18
  597.88        3346.50           6810        2787.00     12151.76
  597.91        3346.75           6814         882.00      3843.90
  597.94        3347.00           6818         206.00       896.71
  597.97        3347.25           6821          97.00       421.54
  598.00        3347.50           6825          87.00       377.95
  598.03        3347.75           6829          79.00       343.07
  598.06        3348.00           6833          70.00       303.84
  598.09        3348.25           6836          65.00       282.04
  598.12        3348.50           6840          57.00       247.17
  598.15        3348.75           6844          53.00       229.73
  598.18        3349.00           6848          52.00       225.37
  598.21        3349.25           6851          57.00       247.17
  598.24        3349.50           6855          54.00       234.09
  598.27        3349.75           6859          57.00       247.17
  598.30        3350.00           6863          55.00       238.45
  598.33        3350.25           6866          55.00       238.45
  598.36        3350.50           6870          53.00       229.73
  598.39        3350.75           6874          59.00       255.89
  598.42        3351.00           6878          52.00       225.37
HL scan finished at 09:59:54
end
************************************************************
  HL Scan of (1) Internal mercury lamp
************************************************************
Integration time is 0.2294 seconds per sample
dh240318Delft 51.9969-4.3863 3.287017pr1000
************************************************************
Dead Time -------------------------  2.7E-08 
Number of Cycles Used -------------  4 
Starting Wavelength (Angstroms) ---  3331 
Final Wavelength (Angstoms) -------  3351 
Wavelength Increment (Angstroms) --  .25 
Filter Wheel #1 Position ---------- (1) Ground quartz diffuser (ND=2.32)
Filter Wheel #2 Position ---------- 



************************************************************
HL scan start time = 11:42:05
Dark Count =  .4 


