************************************************************
  HL Scan of (1) Internal mercury lamp
************************************************************
Integration time is 0.2294 seconds per sample
dh020417DelftKZ 51.997-4.386 2.428648pr1000
************************************************************
Dead Time -------------------------  3E-08 
Number of Cycles Used -------------  4 
Starting Wavelength (Angstroms) ---  3331 
Final Wavelength (Angstoms) -------  3351 
Wavelength Increment (Angstroms) --  .25 
Filter Wheel #1 Position ---------- (1) Ground quartz diffuser (ND=2.32)
Filter Wheel #2 Position ---------- 



************************************************************
HL scan start time = 03:54:54
Dark Count =  .1 


Time (GMT)  Wavelength (Ang)  Step Number  Raw Counts  Counts/Second

  235.66        3331.00           6581          43.00       187.01
  236.07        3331.25           6584          43.00       187.01
  236.10        3331.50           6588          39.00       169.57
  236.13        3331.75           6592          34.00       147.78
  236.15        3332.00           6595          39.00       169.57
  236.18        3332.25           6599          48.00       208.81
  236.21        3332.50           6603          40.00       173.93
  236.24        3332.75           6607          44.00       191.37
  236.26        3333.00           6610          39.00       169.57
  236.29        3333.25           6614          44.00       191.37
  236.32        3333.50           6618          38.00       165.21
  236.35        3333.75           6622          45.00       195.73
  236.38        3334.00           6625          38.00       165.21
  236.40        3334.25           6629          46.00       200.09
  236.43        3334.50           6633          46.00       200.09
  236.46        3334.75           6636          45.00       195.73
  236.49        3335.00           6640          54.00       234.96
  236.52        3335.25           6644          50.00       217.53
  236.54        3335.50           6648          58.00       252.40
  236.57        3335.75           6651          56.00       243.68
  236.60        3336.00           6655          70.00       304.71
  236.62        3336.25           6659         409.00      1782.57
  236.65        3336.50           6663        1476.00      6434.98
  236.69        3336.75           6666        2414.00     10525.99
  236.72        3337.00           6670        3582.00     15621.53
  236.74        3337.25           6674        4647.00     20269.08
  236.77        3337.50           6677        5771.00     25175.51
  236.80        3337.75           6681        7112.00     31031.06
  236.83        3338.00           6685        8507.00     37124.59
  236.85        3338.25           6689        9717.00     42411.82
  236.88        3338.50           6692       10507.00     45864.73
  236.91        3338.75           6696       11988.00     52339.75
  236.94        3339.00           6700       13285.00     58012.39
  236.97        3339.25           6704       14650.00     63984.52
  236.99        3339.50           6707       15525.00     67813.94
  237.02        3339.75           6711       16772.00     73272.93
  237.05        3340.00           6715       18187.00     79469.53
  237.08        3340.25           6719       19664.00     85940.12
  237.11        3340.50           6722       20701.00     90484.61
  237.14        3340.75           6726       21837.00     95464.39
  237.16        3341.00           6730       22889.00    100077.30
  237.19        3341.25           6733       23099.00    100998.20
  237.22        3341.50           6737       23206.00    101467.50
  237.25        3341.75           6741       23209.00    101480.70
  237.27        3342.00           6745       22389.00     97884.68
  237.31        3342.25           6748       21708.00     94898.83
  237.34        3342.50           6752       20303.00     88740.29
  237.37        3342.75           6756       18718.00     81795.50
  237.40        3343.00           6760       17374.00     75908.95
  237.43        3343.25           6763       16369.00     71508.53
  237.46        3343.50           6767       15137.00     66115.76
  237.49        3343.75           6771       13920.00     60790.37
  237.52        3344.00           6775       12602.00     55024.94
  237.54        3344.25           6778       11617.00     50717.48
  237.57        3344.50           6782       10401.00     45401.38
  237.60        3344.75           6786        9251.00     40375.38
  237.63        3345.00           6790        7812.00     34088.46
  237.65        3345.25           6793        6727.00     29349.72
  237.68        3345.50           6797        5199.00     22678.46
  237.71        3345.75           6801        3757.00     16385.12
  237.74        3346.00           6805        2580.00     11250.09
  237.77        3346.25           6808        1582.00      6897.24
  237.79        3346.50           6812         389.00      1695.38
  237.82        3346.75           6816          96.00       418.05
  237.85        3347.00           6819          62.00       269.84
  237.88        3347.25           6823          60.00       261.12
  237.90        3347.50           6827          44.00       191.37
  237.93        3347.75           6831          54.00       234.96
  237.96        3348.00           6834          48.00       208.81
  237.99        3348.25           6838          48.00       208.81
  238.02        3348.50           6842          41.00       178.29
  238.04        3348.75           6846          45.00       195.73
  238.07        3349.00           6849          40.00       173.93
  238.10        3349.25           6853          44.00       191.37
  238.13        3349.50           6857          38.00       165.21
  238.15        3349.75           6861          38.00       165.21
  238.18        3350.00           6864          42.00       182.65
  238.22        3350.25           6868          44.00       191.37
  238.24        3350.50           6872          43.00       187.01
  238.27        3350.75           6876          44.00       191.37
  238.30        3351.00           6879          42.00       182.65
HL scan finished at 03:59:47
end
