************************************************************
  HL Scan of (1) Internal mercury lamp
************************************************************
Integration time is 0.2294 seconds per sample
dh030417DelftKZ 51.997-4.386 2.482296pr1000
************************************************************
Dead Time -------------------------  3E-08 
Number of Cycles Used -------------  4 
Starting Wavelength (Angstroms) ---  3331 
Final Wavelength (Angstoms) -------  3351 
Wavelength Increment (Angstroms) --  .25 
Filter Wheel #1 Position ---------- (1) Ground quartz diffuser (ND=2.32)
Filter Wheel #2 Position ---------- 



************************************************************
HL scan start time = 03:51:51
Dark Count =  0 


Time (GMT)  Wavelength (Ang)  Step Number  Raw Counts  Counts/Second

  232.61        3331.00           6581          39.00       170.01
  233.02        3331.25           6584          41.00       178.73
  233.04        3331.50           6588          40.00       174.37
  233.07        3331.75           6592          49.00       213.60
  233.10        3332.00           6595          44.00       191.81
  233.13        3332.25           6599          50.00       217.96
  233.16        3332.50           6603          43.00       187.45
  233.19        3332.75           6607          40.00       174.37
  233.21        3333.00           6610          46.00       200.52
  233.24        3333.25           6614          43.00       187.45
  233.27        3333.50           6618          38.00       165.65
  233.30        3333.75           6622          39.00       170.01
  233.32        3334.00           6625          43.00       187.45
  233.35        3334.25           6629          43.00       187.45
  233.38        3334.50           6633          46.00       200.52
  233.41        3334.75           6636          42.00       183.09
  233.44        3335.00           6640          50.00       217.96
  233.46        3335.25           6644          50.00       217.96
  233.49        3335.50           6648          51.00       222.32
  233.52        3335.75           6651          62.00       270.27
  233.55        3336.00           6655          79.00       344.38
  233.57        3336.25           6659         443.00      1931.24
  233.60        3336.50           6663        1510.00      6583.69
  233.63        3336.75           6666        2344.00     10221.09
  233.66        3337.00           6670        3771.00     16446.65
  233.69        3337.25           6674        5257.00     22932.08
  233.71        3337.50           6677        6332.00     27625.33
  233.74        3337.75           6681        7668.00     33459.90
  233.77        3338.00           6685        8925.00     38951.33
  233.80        3338.25           6689       10122.00     44182.33
  233.82        3338.50           6692       11185.00     48829.10
  233.85        3338.75           6696       12827.00     56009.47
  233.88        3339.00           6700       14143.00     61766.48
  233.91        3339.25           6704       15488.00     67652.43
  233.94        3339.50           6707       16470.00     71951.13
  233.96        3339.75           6711       17950.00     78431.93
  233.99        3340.00           6715       19278.00     84249.29
  234.02        3340.25           6719       20950.00     91576.44
  234.05        3340.50           6722       21854.00     95539.36
  234.07        3340.75           6726       23091.00    100963.60
  234.10        3341.00           6730       24392.00    106670.40
  234.13        3341.25           6733       24429.00    106832.70
  234.17        3341.50           6737       24473.00    107025.70
  234.20        3341.75           6741       24565.00    107429.40
  234.22        3342.00           6745       23741.00    103814.60
  234.25        3342.25           6748       22512.00     98424.46
  234.28        3342.50           6752       21020.00     91883.27
  234.31        3342.75           6756       19799.00     86532.10
  234.34        3343.00           6760       18486.00     80779.66
  234.36        3343.25           6763       17379.00     75931.28
  234.39        3343.50           6767       16100.00     70331.32
  234.42        3343.75           6771       14645.00     63963.07
  234.45        3344.00           6775       13393.00     58485.26
  234.47        3344.25           6778       12423.00     54242.52
  234.50        3344.50           6782       11124.00     48562.42
  234.53        3344.75           6786        9623.00     42001.46
  234.56        3345.00           6790        8019.00     34993.13
  234.59        3345.25           6793        6818.00     29747.55
  234.61        3345.50           6797        5524.00     24097.63
  234.64        3345.75           6801        3986.00     17384.83
  234.67        3346.00           6805        2467.00     10757.61
  234.70        3346.25           6808        1511.00      6588.05
  234.72        3346.50           6812         442.00      1926.88
  234.75        3346.75           6816         113.00       492.60
  234.78        3347.00           6819          60.00       261.55
  234.81        3347.25           6823          55.00       239.76
  234.84        3347.50           6827          57.00       248.48
  234.86        3347.75           6831          52.00       226.68
  234.89        3348.00           6834          43.00       187.45
  234.92        3348.25           6838          40.00       174.37
  234.95        3348.50           6842          43.00       187.45
  234.97        3348.75           6846          39.00       170.01
  235.00        3349.00           6849          41.00       178.73
  235.03        3349.25           6853          39.00       170.01
  235.06        3349.50           6857          46.00       200.52
  235.08        3349.75           6861          41.00       178.73
  235.11        3350.00           6864          38.00       165.65
  235.14        3350.25           6868          43.00       187.45
  235.17        3350.50           6872          40.00       174.37
  235.20        3350.75           6876          41.00       178.73
  235.22        3351.00           6879          42.00       183.09
HL scan finished at 03:56:42
end
