************************************************************
  HL Scan of (1) Internal mercury lamp
************************************************************
Integration time is 0.2294 seconds per sample
dh120417DelftKZ 51.997-4.386 2.535944pr1000
************************************************************
Dead Time -------------------------  3E-08 
Number of Cycles Used -------------  4 
Starting Wavelength (Angstroms) ---  3331 
Final Wavelength (Angstoms) -------  3351 
Wavelength Increment (Angstroms) --  .25 
Filter Wheel #1 Position ---------- (1) Ground quartz diffuser (ND=2.32)
Filter Wheel #2 Position ---------- 



************************************************************
HL scan start time = 03:22:50
Dark Count =  .1 


Time (GMT)  Wavelength (Ang)  Step Number  Raw Counts  Counts/Second

  203.59        3331.00           6581          42.00       182.65
  204.00        3331.25           6584          44.00       191.37
  204.03        3331.50           6588          40.00       173.93
  204.05        3331.75           6592          47.00       204.45
  204.08        3332.00           6595          37.00       160.86
  204.11        3332.25           6599          42.00       182.65
  204.14        3332.50           6603          44.00       191.37
  204.16        3332.75           6607          43.00       187.01
  204.19        3333.00           6610          38.00       165.21
  204.22        3333.25           6614          45.00       195.73
  204.24        3333.50           6618          36.00       156.50
  204.27        3333.75           6622          49.00       213.17
  204.30        3334.00           6625          39.00       169.57
  204.33        3334.25           6629          40.00       173.93
  204.36        3334.50           6633          38.00       165.21
  204.38        3334.75           6636          40.00       173.93
  204.41        3335.00           6640          51.00       221.88
  204.44        3335.25           6644          55.00       239.32
  204.47        3335.50           6648          53.00       230.60
  204.49        3335.75           6651          56.00       243.68
  204.52        3336.00           6655          73.00       317.79
  204.55        3336.25           6659         438.00      1909.00
  204.58        3336.50           6663        1676.00      7307.18
  204.60        3336.75           6666        2809.00     12249.05
  204.63        3337.00           6670        4290.00     18711.02
  204.66        3337.25           6674        5659.00     24686.54
  204.69        3337.50           6677        6620.00     28882.47
  204.72        3337.75           6681        7886.00     34411.70
  204.74        3338.00           6685        9205.00     40174.38
  204.77        3338.25           6689       10624.00     46376.17
  204.80        3338.50           6692       11914.00     52016.16
  204.83        3338.75           6696       13465.00     58799.80
  204.85        3339.00           6700       14861.00     64907.89
  204.88        3339.25           6704       16204.00     70786.18
  204.91        3339.50           6707       17399.00     76018.41
  204.94        3339.75           6711       18834.00     82303.68
  204.96        3340.00           6715       20138.00     88017.21
  204.99        3340.25           6719       21663.00     94701.54
  205.02        3340.50           6722       22587.00     98752.91
  205.05        3340.75           6726       24121.00    105481.00
  205.08        3341.00           6730       25269.00    110518.00
  205.10        3341.25           6733       25465.00    111378.10
  205.13        3341.50           6737       25629.00    112097.80
  205.16        3341.75           6741       25541.00    111711.60
  205.19        3342.00           6745       24547.00    107350.00
  205.21        3342.25           6748       23523.00    102857.90
  205.24        3342.50           6752       22055.00     96420.18
  205.27        3342.75           6756       20601.00     90046.34
  205.30        3343.00           6760       19268.00     84205.05
  205.33        3343.25           6763       18157.00     79338.13
  205.35        3343.50           6767       16560.00     72344.73
  205.38        3343.75           6771       15104.00     65971.33
  205.41        3344.00           6775       13639.00     59561.00
  205.44        3344.25           6778       12671.00     55326.72
  205.46        3344.50           6782       11367.00     49624.40
  205.49        3344.75           6786        9927.00     43329.61
  205.52        3345.00           6790        8605.00     37552.75
  205.55        3345.25           6793        7519.00     32808.65
  205.58        3345.50           6797        5994.00     26149.10
  205.60        3345.75           6801        4302.00     18763.39
  205.63        3346.00           6805        2732.00     11913.15
  205.66        3346.25           6808        1626.00      7089.13
  205.69        3346.50           6812         406.00      1769.49
  205.71        3346.75           6816         104.00       452.93
  205.74        3347.00           6819          73.00       317.79
  205.77        3347.25           6823          66.00       287.27
  205.80        3347.50           6827          51.00       221.88
  205.83        3347.75           6831          50.00       217.53
  205.85        3348.00           6834          52.00       226.24
  205.88        3348.25           6838          52.00       226.24
  205.91        3348.50           6842          43.00       187.01
  205.94        3348.75           6846          42.00       182.65
  205.96        3349.00           6849          48.00       208.81
  205.99        3349.25           6853          46.00       200.09
  206.02        3349.50           6857          49.00       213.17
  206.05        3349.75           6861          39.00       169.57
  206.07        3350.00           6864          45.00       195.73
  206.10        3350.25           6868          42.00       182.65
  206.13        3350.50           6872          42.00       182.65
  206.16        3350.75           6876          48.00       208.81
  206.18        3351.00           6879          45.00       195.73
HL scan finished at 03:27:40
end
