************************************************************
  HL Scan of (1) Internal mercury lamp
************************************************************
Integration time is 0.2294 seconds per sample
dh170418Delft 51.9969-4.3863 2.535944pr1000
************************************************************
Dead Time -------------------------  2.7E-08 
Number of Cycles Used -------------  4 
Starting Wavelength (Angstroms) ---  3331 
Final Wavelength (Angstoms) -------  3351 
Wavelength Increment (Angstroms) --  .25 
Filter Wheel #1 Position ---------- (1) Ground quartz diffuser (ND=2.32)
Filter Wheel #2 Position ---------- 



************************************************************
HL scan start time = 03:22:06
Dark Count =  0 


Time (GMT)  Wavelength (Ang)  Step Number  Raw Counts  Counts/Second

  202.86        3331.00           6579          38.00       165.65
  203.27        3331.25           6582          37.00       161.29
  203.30        3331.50           6586          40.00       174.37
  203.33        3331.75           6590          40.00       174.37
  203.36        3332.00           6594          40.00       174.37
  203.39        3332.25           6597          39.00       170.01
  203.42        3332.50           6601          45.00       196.16
  203.45        3332.75           6605          43.00       187.45
  203.48        3333.00           6608          40.00       174.37
  203.51        3333.25           6612          46.00       200.52
  203.54        3333.50           6616          34.00       148.21
  203.57        3333.75           6620          38.00       165.65
  203.60        3334.00           6623          42.00       183.09
  203.63        3334.25           6627          45.00       196.16
  203.66        3334.50           6631          47.00       204.88
  203.69        3334.75           6635          42.00       183.09
  203.72        3335.00           6638          46.00       200.52
  203.75        3335.25           6642          44.00       191.81
  203.78        3335.50           6646          53.00       231.04
  203.81        3335.75           6649          56.00       244.12
  203.84        3336.00           6653          56.00       244.12
  203.87        3336.25           6657         108.00       470.80
  203.90        3336.50           6661         868.00      3784.17
  203.93        3336.75           6664        1945.00      8480.58
  203.96        3337.00           6668        3300.00     14390.94
  203.99        3337.25           6672        4505.00     19648.61
  204.02        3337.50           6676        6035.00     26326.47
  204.05        3337.75           6679        7082.00     30897.61
  204.08        3338.00           6683        8884.00     38767.67
  204.11        3338.25           6687       10262.00     44788.22
  204.14        3338.50           6690       11407.00     49792.27
  204.17        3338.75           6694       12935.00     56472.27
  204.20        3339.00           6698       14343.00     62629.80
  204.23        3339.25           6702       15973.00     69760.75
  204.26        3339.50           6705       17204.00     75147.96
  204.29        3339.75           6709       18673.00     81578.79
  204.32        3340.00           6713       20219.00     88349.12
  204.35        3340.25           6717       21606.00     94425.27
  204.38        3340.50           6720       22779.00     99565.47
  204.40        3340.75           6724       24064.00    105198.10
  204.43        3341.00           6728       25418.00    111135.10
  204.46        3341.25           6732       26362.00    115275.40
  204.50        3341.50           6735       26533.00    116025.50
  204.53        3341.75           6739       26494.00    115854.40
  204.56        3342.00           6743       26085.00    114060.40
  204.59        3342.25           6747       24851.00    108648.70
  204.62        3342.50           6750       23644.00    103356.90
  204.65        3342.75           6754       22332.00     97606.50
  204.67        3343.00           6758       20878.00     91235.81
  204.70        3343.25           6761       19933.00     87096.47
  204.73        3343.50           6765       18528.00     80943.93
  204.76        3343.75           6769       16978.00     74158.80
  204.79        3344.00           6773       15370.00     67122.41
  204.82        3344.25           6776       14269.00     62306.13
  204.85        3344.50           6780       12530.00     54701.49
  204.88        3344.75           6784       10968.00     47873.53
  204.91        3345.00           6788        9382.00     40943.23
  204.94        3345.25           6791        8245.00     35976.52
  204.97        3345.50           6795        6675.00     29120.53
  205.00        3345.75           6799        5444.00     23746.70
  205.03        3346.00           6803        3923.00     17109.04
  205.06        3346.25           6806        2891.00     12606.73
  205.09        3346.50           6810        1471.00      6413.49
  205.12        3346.75           6814         302.00      1316.52
  205.15        3347.00           6818          75.00       326.94
  205.18        3347.25           6821          68.00       296.43
  205.21        3347.50           6825          50.00       217.96
  205.25        3347.75           6829          48.00       209.24
  205.27        3348.00           6833          55.00       239.76
  205.30        3348.25           6836          45.00       196.16
  205.34        3348.50           6840          39.00       170.01
  205.37        3348.75           6844          44.00       191.81
  205.40        3349.00           6848          42.00       183.09
  205.42        3349.25           6851          41.00       178.73
  205.46        3349.50           6855          45.00       196.16
  205.48        3349.75           6859          43.00       187.45
  205.51        3350.00           6863          44.00       191.81
  205.55        3350.25           6866          45.00       196.16
  205.57        3350.50           6870          40.00       174.37
  205.60        3350.75           6874          49.00       213.60
  205.63        3351.00           6878          37.00       161.29
HL scan finished at 03:27:07
end
