************************************************************
  HL Scan of (1) Internal mercury lamp
************************************************************
Integration time is 0.2294 seconds per sample
dh170417DelftKZ 51.997-4.386 2.267704pr1000
************************************************************
Dead Time -------------------------  3E-08 
Number of Cycles Used -------------  4 
Starting Wavelength (Angstroms) ---  3331 
Final Wavelength (Angstoms) -------  3351 
Wavelength Increment (Angstroms) --  .25 
Filter Wheel #1 Position ---------- (1) Ground quartz diffuser (ND=2.32)
Filter Wheel #2 Position ---------- 



************************************************************
HL scan start time = 03:05:36
Dark Count =  0 


Time (GMT)  Wavelength (Ang)  Step Number  Raw Counts  Counts/Second

  186.36        3331.00           6581          38.00       165.65
  186.77        3331.25           6584          37.00       161.29
  186.80        3331.50           6588          37.00       161.29
  186.83        3331.75           6592          44.00       191.81
  186.86        3332.00           6595          34.00       148.21
  186.88        3332.25           6599          39.00       170.01
  186.91        3332.50           6603          42.00       183.09
  186.94        3332.75           6607          35.00       152.57
  186.97        3333.00           6610          40.00       174.37
  186.99        3333.25           6614          43.00       187.45
  187.02        3333.50           6618          34.00       148.21
  187.05        3333.75           6622          43.00       187.45
  187.08        3334.00           6625          43.00       187.45
  187.11        3334.25           6629          39.00       170.01
  187.13        3334.50           6633          41.00       178.73
  187.16        3334.75           6636          45.00       196.17
  187.19        3335.00           6640          43.00       187.45
  187.21        3335.25           6644          47.00       204.88
  187.24        3335.50           6648          50.00       217.96
  187.27        3335.75           6651          53.00       231.04
  187.30        3336.00           6655          59.00       257.19
  187.32        3336.25           6659         197.00       858.78
  187.35        3336.50           6663        1043.00      4547.26
  187.38        3336.75           6666        1929.00      8411.01
  187.41        3337.00           6670        3097.00     13505.91
  187.44        3337.25           6674        4122.00     17978.31
  187.46        3337.50           6677        4958.00     21626.93
  187.49        3337.75           6681        6201.00     27053.34
  187.52        3338.00           6685        7153.00     31210.55
  187.55        3338.25           6689        8158.00     35600.34
  187.57        3338.50           6692        8885.00     38776.56
  187.60        3338.75           6696       10008.00     43684.07
  187.63        3339.00           6700       11246.00     49095.80
  187.66        3339.25           6704       12411.00     54190.03
  187.69        3339.50           6707       13238.00     57807.23
  187.72        3339.75           6711       14290.00     62409.69
  187.75        3340.00           6715       15436.00     67424.82
  187.78        3340.25           6719       16674.00     72844.28
  187.81        3340.50           6722       17423.00     76123.96
  187.84        3340.75           6726       18289.00     79916.75
  187.87        3341.00           6730       19087.00     83412.49
  187.90        3341.25           6733       19355.00     84586.66
  187.92        3341.50           6737       19505.00     85243.88
  187.96        3341.75           6741       19483.00     85147.48
  187.99        3342.00           6745       18744.00     81909.84
  188.02        3342.25           6748       18075.00     78979.41
  188.05        3342.50           6752       16807.00     73426.61
  188.08        3342.75           6756       15599.00     68138.28
  188.10        3343.00           6760       14607.00     63796.79
  188.13        3343.25           6763       13720.00     59915.80
  188.16        3343.50           6767       12788.00     55838.89
  188.19        3343.75           6771       11660.00     50905.94
  188.22        3344.00           6775       10581.00     46188.64
  188.24        3344.25           6778        9675.00     42228.71
  188.27        3344.50           6782        8637.00     37692.99
  188.30        3344.75           6786        7505.00     32747.94
  188.33        3345.00           6790        6455.00     28162.41
  188.35        3345.25           6793        5581.00     24346.46
  188.38        3345.50           6797        4450.00     19409.73
  188.41        3345.75           6801        3381.00     14744.97
  188.44        3346.00           6805        2381.00     10382.48
  188.46        3346.25           6808        1585.00      6910.76
  188.49        3346.50           6812         478.00      2083.83
  188.52        3346.75           6816          98.00       427.21
  188.55        3347.00           6819          51.00       222.32
  188.58        3347.25           6823          56.00       244.12
  188.60        3347.50           6827          45.00       196.17
  188.63        3347.75           6831          47.00       204.88
  188.66        3348.00           6834          45.00       196.17
  188.69        3348.25           6838          42.00       183.09
  188.71        3348.50           6842          41.00       178.73
  188.74        3348.75           6846          43.00       187.45
  188.77        3349.00           6849          37.00       161.29
  188.80        3349.25           6853          38.00       165.65
  188.82        3349.50           6857          35.00       152.57
  188.85        3349.75           6861          41.00       178.73
  188.88        3350.00           6864          36.00       156.93
  188.91        3350.25           6868          43.00       187.45
  188.93        3350.50           6872          39.00       170.01
  188.96        3350.75           6876          33.00       143.85
  188.99        3351.00           6879          34.00       148.21
HL scan finished at 03:10:28
end
