************************************************************
  HL Scan of (1) Internal mercury lamp
************************************************************
Integration time is 0.2294 seconds per sample
dh220417DelftKZ 51.997-4.386 2.428648pr1000
************************************************************
Dead Time -------------------------  3E-08 
Number of Cycles Used -------------  4 
Starting Wavelength (Angstroms) ---  3331 
Final Wavelength (Angstoms) -------  3351 
Wavelength Increment (Angstroms) --  .25 
Filter Wheel #1 Position ---------- (1) Ground quartz diffuser (ND=2.32)
Filter Wheel #2 Position ---------- 



************************************************************
HL scan start time = 02:46:55
Dark Count =  0 


Time (GMT)  Wavelength (Ang)  Step Number  Raw Counts  Counts/Second

  167.68        3331.00           6581          42.00       183.09
  168.09        3331.25           6584          39.00       170.01
  168.12        3331.50           6588          43.00       187.45
  168.15        3331.75           6592          42.00       183.09
  168.18        3332.00           6595          43.00       187.45
  168.20        3332.25           6599          40.00       174.37
  168.23        3332.50           6603          48.00       209.24
  168.26        3332.75           6607          39.00       170.01
  168.29        3333.00           6610          38.00       165.65
  168.31        3333.25           6614          39.00       170.01
  168.34        3333.50           6618          42.00       183.09
  168.37        3333.75           6622          42.00       183.09
  168.40        3334.00           6625          35.00       152.57
  168.42        3334.25           6629          38.00       165.65
  168.45        3334.50           6633          48.00       209.24
  168.48        3334.75           6636          47.00       204.88
  168.51        3335.00           6640          49.00       213.60
  168.53        3335.25           6644          50.00       217.96
  168.56        3335.50           6648          58.00       252.84
  168.59        3335.75           6651          51.00       222.32
  168.62        3336.00           6655          68.00       296.43
  168.64        3336.25           6659         207.00       902.38
  168.67        3336.50           6663        1094.00      4769.64
  168.70        3336.75           6666        2031.00      8855.88
  168.74        3337.00           6670        3371.00     14701.34
  168.77        3337.25           6674        4854.00     21172.99
  168.79        3337.50           6677        5830.00     25433.52
  168.82        3337.75           6681        7001.00     30546.73
  168.85        3338.00           6685        8219.00     35866.82
  168.88        3338.25           6689        9522.00     41560.07
  168.91        3338.50           6692       10579.00     46179.89
  168.93        3338.75           6696       11666.00     50932.17
  168.96        3339.00           6700       12899.00     56324.39
  169.00        3339.25           6704       14318.00     62532.20
  169.02        3339.50           6707       15298.00     66820.83
  169.05        3339.75           6711       16580.00     72432.72
  169.08        3340.00           6715       17835.00     77928.27
  169.11        3340.25           6719       19127.00     83587.73
  169.14        3340.50           6722       20081.00     87767.85
  169.16        3340.75           6726       21201.00     92676.66
  169.19        3341.00           6730       22159.00     96876.61
  169.22        3341.25           6733       22434.00     98082.44
  169.25        3341.50           6737       22463.00     98209.59
  169.27        3341.75           6741       22532.00     98512.16
  169.30        3342.00           6745       21740.00     95039.56
  169.33        3342.25           6748       20715.00     90546.41
  169.36        3342.50           6752       19352.00     84573.52
  169.39        3342.75           6756       18271.00     79837.90
  169.41        3343.00           6760       16911.00     73881.98
  169.44        3343.25           6763       15865.00     69302.62
  169.47        3343.50           6767       14457.00     63140.42
  169.50        3343.75           6771       13432.00     58655.87
  169.53        3344.00           6775       12257.00     53516.55
  169.55        3344.25           6778       11276.00     49226.97
  169.58        3344.50           6782       10149.00     44300.34
  169.61        3344.75           6786        8804.00     38422.64
  169.64        3345.00           6790        7406.00     32315.53
  169.67        3345.25           6793        6379.00     27830.55
  169.69        3345.50           6797        5079.00     22155.09
  169.72        3345.75           6801        3912.00     17061.91
  169.75        3346.00           6805        2583.00     11263.61
  169.78        3346.25           6808        1676.00      7307.62
  169.80        3346.50           6812         583.00      2541.61
  169.83        3346.75           6816         132.00       575.42
  169.86        3347.00           6819          65.00       283.35
  169.89        3347.25           6823          51.00       222.32
  169.91        3347.50           6827          49.00       213.60
  169.94        3347.75           6831          47.00       204.88
  169.97        3348.00           6834          49.00       213.60
  170.00        3348.25           6838          41.00       178.73
  170.03        3348.50           6842          45.00       196.17
  170.06        3348.75           6846          36.00       156.93
  170.09        3349.00           6849          44.00       191.81
  170.12        3349.25           6853          42.00       183.09
  170.14        3349.50           6857          44.00       191.81
  170.17        3349.75           6861          45.00       196.17
  170.20        3350.00           6864          37.00       161.29
  170.23        3350.25           6868          45.00       196.17
  170.25        3350.50           6872          42.00       183.09
  170.28        3350.75           6876          47.00       204.88
  170.31        3351.00           6879          40.00       174.37
HL scan finished at 02:51:47
end
