************************************************************
  HL Scan of (1) Internal mercury lamp
************************************************************
Integration time is 0.2294 seconds per sample
dh220418Delft 51.9969-4.3863 2.696889pr1000
************************************************************
Dead Time -------------------------  2.7E-08 
Number of Cycles Used -------------  4 
Starting Wavelength (Angstroms) ---  3331 
Final Wavelength (Angstoms) -------  3351 
Wavelength Increment (Angstroms) --  .25 
Filter Wheel #1 Position ---------- (1) Ground quartz diffuser (ND=2.32)
Filter Wheel #2 Position ---------- 



************************************************************
HL scan start time = 03:03:36
Dark Count =  0 


Time (GMT)  Wavelength (Ang)  Step Number  Raw Counts  Counts/Second

  184.37        3331.00           6579          48.00       209.24
  184.78        3331.25           6582          40.00       174.37
  184.81        3331.50           6586          44.00       191.81
  184.84        3331.75           6590          46.00       200.52
  184.87        3332.00           6594          44.00       191.81
  184.90        3332.25           6597          40.00       174.37
  184.93        3332.50           6601          42.00       183.09
  184.96        3332.75           6605          45.00       196.16
  184.99        3333.00           6608          49.00       213.60
  185.02        3333.25           6612          44.00       191.81
  185.05        3333.50           6616          44.00       191.81
  185.08        3333.75           6620          41.00       178.73
  185.11        3334.00           6623          52.00       226.68
  185.14        3334.25           6627          48.00       209.24
  185.17        3334.50           6631          45.00       196.16
  185.20        3334.75           6635          48.00       209.24
  185.23        3335.00           6638          55.00       239.76
  185.26        3335.25           6642          57.00       248.48
  185.28        3335.50           6646          58.00       252.84
  185.31        3335.75           6649          57.00       248.48
  185.34        3336.00           6653          59.00       257.19
  185.37        3336.25           6657          90.00       392.33
  185.40        3336.50           6661         837.00      3649.01
  185.43        3336.75           6664        1940.00      8458.78
  185.46        3337.00           6668        3357.00     14639.61
  185.49        3337.25           6672        5198.00     22672.99
  185.52        3337.50           6676        6934.00     30251.38
  185.55        3337.75           6679        8194.00     35753.77
  185.58        3338.00           6683       10349.00     45168.40
  185.61        3338.25           6687       12159.00     53079.51
  185.64        3338.50           6690       13576.00     59275.26
  185.67        3338.75           6694       15192.00     66343.68
  185.70        3339.00           6698       17039.00     74425.78
  185.73        3339.25           6702       18790.00     82091.08
  185.76        3339.50           6705       19889.00     86903.76
  185.79        3339.75           6709       21543.00     94149.22
  185.82        3340.00           6713       23226.00    101524.70
  185.85        3340.25           6717       24986.00    109240.70
  185.88        3340.50           6720       26310.00    115047.30
  185.91        3340.75           6724       27907.00    122053.70
  185.94        3341.00           6728       29641.00    129664.10
  185.97        3341.25           6732       30592.00    133839.40
  186.00        3341.50           6735       30682.00    134234.50
  186.03        3341.75           6739       30630.00    134006.20
  186.06        3342.00           6743       30366.00    132847.10
  186.09        3342.25           6747       28731.00    125669.80
  186.12        3342.50           6750       27510.00    120311.70
  186.15        3342.75           6754       25819.00    112893.70
  186.18        3343.00           6758       23949.00    104694.00
  186.21        3343.25           6761       22684.00     99149.12
  186.24        3343.50           6765       21074.00     92094.46
  186.27        3343.75           6769       19127.00     83566.73
  186.30        3344.00           6773       17588.00     76828.78
  186.33        3344.25           6776       16251.00     70977.22
  186.36        3344.50           6780       14686.00     64130.14
  186.39        3344.75           6784       12859.00     56139.96
  186.42        3345.00           6788       11118.00     48529.11
  186.45        3345.25           6791        9710.00     42376.27
  186.48        3345.50           6795        7807.00     34063.58
  186.51        3345.75           6799        6058.00     26426.87
  186.54        3346.00           6803        4342.00     18937.32
  186.57        3346.25           6806        3120.00     13605.70
  186.60        3346.50           6810        1557.00      6788.52
  186.62        3346.75           6814         383.00      1669.65
  186.66        3347.00           6818         110.00       479.52
  186.68        3347.25           6821          66.00       287.71
  186.72        3347.50           6825          66.00       287.71
  186.74        3347.75           6829          64.00       278.99
  186.77        3348.00           6833          51.00       222.32
  186.80        3348.25           6836          47.00       204.88
  186.83        3348.50           6840          49.00       213.60
  186.86        3348.75           6844          44.00       191.81
  186.89        3349.00           6848          44.00       191.81
  186.92        3349.25           6851          49.00       213.60
  186.95        3349.50           6855          51.00       222.32
  186.98        3349.75           6859          49.00       213.60
  187.01        3350.00           6863          47.00       204.88
  187.04        3350.25           6866          41.00       178.73
  187.07        3350.50           6870          47.00       204.88
  187.10        3350.75           6874          47.00       204.88
  187.13        3351.00           6878          45.00       196.16
HL scan finished at 03:08:37
end
************************************************************
  HL Scan of (1) Internal mercury lamp
************************************************************
Integration time is 0.2294 seconds per sample
dh220418Delft 51.9969-4.3863 2.965129pr1000
************************************************************
Dead Time -------------------------  2.7E-08 
Number of Cycles Used -------------  4 
Starting Wavelength (Angstroms) ---  3331 
Final Wavelength (Angstoms) -------  3351 
Wavelength Increment (Angstroms) --  .25 
Filter Wheel #1 Position ---------- (1) Ground quartz diffuser (ND=2.32)
Filter Wheel #2 Position ---------- 



************************************************************
HL scan start time = 20:03:47
Dark Count =  .1 


Time (GMT)  Wavelength (Ang)  Step Number  Raw Counts  Counts/Second

 1204.54        3331.00           6579          44.00       191.37
 1204.95        3331.25           6582          46.00       200.09
 1204.98        3331.50           6586          44.00       191.37
 1205.01        3331.75           6590          48.00       208.81
 1205.04        3332.00           6594          47.00       204.45
 1205.07        3332.25           6597          45.00       195.73
 1205.10        3332.50           6601          41.00       178.29
 1205.13        3332.75           6605          40.00       173.93
 1205.16        3333.00           6608          48.00       208.81
 1205.19        3333.25           6612          40.00       173.93
 1205.22        3333.50           6616          46.00       200.09
 1205.25        3333.75           6620          45.00       195.73
 1205.28        3334.00           6623          46.00       200.09
 1205.31        3334.25           6627          46.00       200.09
 1205.34        3334.50           6631          46.00       200.09
 1205.37        3334.75           6635          49.00       213.17
 1205.40        3335.00           6638          59.00       256.76
 1205.43        3335.25           6642          54.00       234.96
 1205.46        3335.50           6646          59.00       256.76
 1205.49        3335.75           6649          57.00       248.04
 1205.52        3336.00           6653          61.00       265.48
 1205.55        3336.25           6657          85.00       370.10
 1205.58        3336.50           6661         553.00      2410.36
 1205.61        3336.75           6664        1568.00      6836.05
 1205.63        3337.00           6668        3447.00     15031.82
 1205.67        3337.25           6672        5346.00     23318.51
 1205.69        3337.50           6676        7413.00     32342.53
 1205.72        3337.75           6679        9254.00     40383.60
 1205.75        3338.00           6683       11256.00     49131.83
 1205.78        3338.25           6687       13395.00     58483.30
 1205.81        3338.50           6690       14999.00     65498.91
 1205.84        3338.75           6694       17063.00     74530.40
 1205.87        3339.00           6698       18818.00     82213.25
 1205.90        3339.25           6702       20707.00     90486.28
 1205.93        3339.50           6705       22232.00     97167.85
 1205.96        3339.75           6709       23979.00    104825.00
 1205.99        3340.00           6713       26032.00    113827.50
 1206.02        3340.25           6717       28198.00    123330.20
 1206.05        3340.50           6720       29573.00    129365.20
 1206.08        3340.75           6724       31407.00    137417.80
 1206.11        3341.00           6728       33075.00    144744.60
 1206.14        3341.25           6732       34731.00    152021.60
 1206.17        3341.50           6735       34890.00    152720.40
 1206.20        3341.75           6739       34991.00    153164.40
 1206.23        3342.00           6743       34753.00    152118.30
 1206.26        3342.25           6747       33277.00    145632.10
 1206.29        3342.50           6750       32064.00    140303.40
 1206.32        3342.75           6754       29801.00    130366.10
 1206.35        3343.00           6758       27551.00    120491.20
 1206.38        3343.25           6761       26256.00    114810.00
 1206.41        3343.50           6765       24267.00    106087.70
 1206.44        3343.75           6769       22437.00     98066.21
 1206.47        3344.00           6773       20534.00     89728.46
 1206.50        3344.25           6776       19330.00     84455.22
 1206.53        3344.50           6780       17170.00     74998.71
 1206.56        3344.75           6784       15215.00     66443.86
 1206.59        3345.00           6788       13178.00     57534.39
 1206.62        3345.25           6791       11443.00     49949.19
 1206.65        3345.50           6795        9379.00     40929.69
 1206.68        3345.75           6799        7514.00     32783.59
 1206.71        3346.00           6803        5556.00     24235.12
 1206.74        3346.25           6806        4203.00     18330.34
 1206.77        3346.50           6810        2215.00      9657.71
 1206.80        3346.75           6814         699.00      3046.89
 1206.83        3347.00           6818         167.00       727.56
 1206.86        3347.25           6821          81.00       352.66
 1206.89        3347.50           6825          61.00       265.48
 1206.92        3347.75           6829          63.00       274.20
 1206.95        3348.00           6833          61.00       265.48
 1206.98        3348.25           6836          52.00       226.24
 1207.01        3348.50           6840          47.00       204.45
 1207.04        3348.75           6844          48.00       208.81
 1207.07        3349.00           6848          46.00       200.09
 1207.09        3349.25           6851          46.00       200.09
 1207.13        3349.50           6855          40.00       173.93
 1207.15        3349.75           6859          39.00       169.57
 1207.18        3350.00           6863          55.00       239.32
 1207.21        3350.25           6866          45.00       195.73
 1207.24        3350.50           6870          42.00       182.65
 1207.27        3350.75           6874          44.00       191.37
 1207.30        3351.00           6878          54.00       234.96
HL scan finished at 20:08:48
end
