************************************************************
  HL Scan of (1) Internal mercury lamp
************************************************************
Integration time is 0.2294 seconds per sample
dh200418Delft 51.9969-4.3863 2.911481pr1000
************************************************************
Dead Time -------------------------  2.7E-08 
Number of Cycles Used -------------  4 
Starting Wavelength (Angstroms) ---  3331 
Final Wavelength (Angstoms) -------  3351 
Wavelength Increment (Angstroms) --  .25 
Filter Wheel #1 Position ---------- (1) Ground quartz diffuser (ND=2.32)
Filter Wheel #2 Position ---------- 



************************************************************
HL scan start time = 00:31:35
Dark Count =  .3 


Time (GMT)  Wavelength (Ang)  Step Number  Raw Counts  Counts/Second

   32.35        3331.00           6579          50.00       216.65
   32.77        3331.25           6582          47.00       203.58
   32.80        3331.50           6586          42.00       181.78
   32.83        3331.75           6590          53.00       229.73
   32.86        3332.00           6594          47.00       203.58
   32.89        3332.25           6597          48.00       207.93
   32.91        3332.50           6601          42.00       181.78
   32.94        3332.75           6605          44.00       190.50
   32.97        3333.00           6608          52.00       225.37
   33.00        3333.25           6612          46.00       199.22
   33.03        3333.50           6616          44.00       190.50
   33.06        3333.75           6620          53.00       229.73
   33.09        3334.00           6623          53.00       229.73
   33.12        3334.25           6627          49.00       212.29
   33.15        3334.50           6631          50.00       216.65
   33.18        3334.75           6635          49.00       212.29
   33.21        3335.00           6638          55.00       238.45
   33.24        3335.25           6642          69.00       299.48
   33.27        3335.50           6646          62.00       268.96
   33.30        3335.75           6649          70.00       303.84
   33.33        3336.00           6653          80.00       347.43
   33.36        3336.25           6657         108.00       469.49
   33.39        3336.50           6661         982.00      4279.92
   33.42        3336.75           6664        2599.00     11331.72
   33.45        3337.00           6668        4644.00     20253.88
   33.48        3337.25           6672        6707.00     29258.94
   33.51        3337.50           6676        8816.00     38469.32
   33.54        3337.75           6679       10772.00     47015.62
   33.57        3338.00           6683       12992.00     56720.20
   33.60        3338.25           6687       15248.00     66587.35
   33.63        3338.50           6690       17016.00     74323.81
   33.66        3338.75           6694       19454.00     84997.36
   33.69        3339.00           6698       21617.00     94472.14
   33.72        3339.25           6702       24141.00    105534.40
   33.74        3339.50           6705       25839.00    112980.10
   33.78        3339.75           6709       28184.00    123267.90
   33.81        3340.00           6713       30724.00    134417.60
   33.84        3340.25           6717       32629.00    142784.40
   33.87        3340.50           6720       34337.00    150289.10
   33.89        3340.75           6724       36364.00    159199.40
   33.92        3341.00           6728       38095.00    166812.00
   33.95        3341.25           6732       39932.00    174894.10
   33.98        3341.50           6735       40450.00    177173.80
   34.01        3341.75           6739       40462.00    177226.60
   34.04        3342.00           6743       39768.00    174172.40
   34.07        3342.25           6747       38162.00    167106.70
   34.10        3342.50           6750       36663.00    160514.10
   34.13        3342.75           6754       34323.00    150227.50
   34.16        3343.00           6758       32108.00    140495.80
   34.19        3343.25           6761       30638.00    134040.00
   34.22        3343.50           6765       28415.00    124281.60
   34.25        3343.75           6769       26275.00    114892.50
   34.28        3344.00           6773       23894.00    104451.50
   34.31        3344.25           6776       22081.00     96505.27
   34.34        3344.50           6780       19523.00     85299.54
   34.37        3344.75           6784       17128.00     74814.00
   34.40        3345.00           6788       14686.00     64128.82
   34.43        3345.25           6791       12889.00     56269.82
   34.46        3345.50           6795       10603.00     46277.06
   34.49        3345.75           6799        8524.00     37193.83
   34.52        3346.00           6803        6338.00     27647.92
   34.55        3346.25           6806        4798.00     20925.95
   34.58        3346.50           6810        2561.00     11165.96
   34.61        3346.75           6814         654.00      2849.83
   34.64        3347.00           6818         140.00       608.99
   34.67        3347.25           6821          92.00       399.74
   34.70        3347.50           6825          69.00       299.48
   34.73        3347.75           6829          70.00       303.84
   34.76        3348.00           6833          63.00       273.32
   34.79        3348.25           6836          58.00       251.53
   34.82        3348.50           6840          62.00       268.96
   34.85        3348.75           6844          53.00       229.73
   34.88        3349.00           6848          58.00       251.53
   34.91        3349.25           6851          52.00       225.37
   34.94        3349.50           6855          49.00       212.29
   34.97        3349.75           6859          52.00       225.37
   35.00        3350.00           6863          44.00       190.50
   35.03        3350.25           6866          45.00       194.86
   35.05        3350.50           6870          48.00       207.93
   35.08        3350.75           6874          55.00       238.45
   35.11        3351.00           6878          49.00       212.29
HL scan finished at 00:36:36
end
************************************************************
  HL Scan of (1) Internal mercury lamp
************************************************************
Integration time is 0.2294 seconds per sample
dh200418Delft 51.9969-4.3863 2.965129pr1000
************************************************************
Dead Time -------------------------  2.7E-08 
Number of Cycles Used -------------  4 
Starting Wavelength (Angstroms) ---  3331 
Final Wavelength (Angstoms) -------  3351 
Wavelength Increment (Angstroms) --  .25 
Filter Wheel #1 Position ---------- (1) Ground quartz diffuser (ND=2.32)
Filter Wheel #2 Position ---------- 



************************************************************
HL scan start time = 03:11:10
Dark Count =  0 


Time (GMT)  Wavelength (Ang)  Step Number  Raw Counts  Counts/Second

  191.93        3331.00           6579          45.00       196.16
  192.34        3331.25           6582          50.00       217.96
  192.37        3331.50           6586          48.00       209.24
  192.40        3331.75           6590          46.00       200.52
  192.43        3332.00           6594          49.00       213.60
  192.46        3332.25           6597          46.00       200.52
  192.49        3332.50           6601          46.00       200.52
  192.52        3332.75           6605          46.00       200.52
  192.55        3333.00           6608          47.00       204.88
  192.58        3333.25           6612          51.00       222.32
  192.61        3333.50           6616          45.00       196.16
  192.64        3333.75           6620          47.00       204.88
  192.67        3334.00           6623          45.00       196.16
  192.70        3334.25           6627          42.00       183.09
  192.73        3334.50           6631          43.00       187.45
  192.76        3334.75           6635          50.00       217.96
  192.79        3335.00           6638          48.00       209.24
  192.82        3335.25           6642          58.00       252.84
  192.85        3335.50           6646          63.00       274.63
  192.88        3335.75           6649          61.00       265.91
  192.91        3336.00           6653          66.00       287.71
  192.94        3336.25           6657          82.00       357.46
  192.97        3336.50           6661         726.00      3165.05
  193.00        3336.75           6664        1946.00      8484.94
  193.03        3337.00           6668        3636.00     15856.83
  193.06        3337.25           6672        5629.00     24554.20
  193.09        3337.50           6676        7696.00     33578.82
  193.12        3337.75           6679        9417.00     41096.14
  193.15        3338.00           6683       11756.00     51317.79
  193.18        3338.25           6687       13783.00     60180.54
  193.21        3338.50           6690       15310.00     66859.91
  193.23        3338.75           6694       17621.00     76973.24
  193.26        3339.00           6698       19538.00     85366.54
  193.30        3339.25           6702       21320.00     93172.19
  193.32        3339.50           6705       22667.00     99074.62
  193.35        3339.75           6709       24573.00    107429.70
  193.38        3340.00           6713       26584.00    116249.20
  193.41        3340.25           6717       28748.00    125744.40
  193.44        3340.50           6720       30235.00    132271.90
  193.47        3340.75           6724       32206.00    140927.60
  193.50        3341.00           6728       33891.00    148330.40
  193.53        3341.25           6732       35231.00    154219.70
  193.56        3341.50           6735       35446.00    155164.80
  193.59        3341.75           6739       35483.00    155327.50
  193.62        3342.00           6743       35237.00    154246.10
  193.65        3342.25           6747       33559.00    146871.60
  193.68        3342.50           6750       32251.00    141125.20
  193.71        3342.75           6754       30116.00    131749.40
  193.74        3343.00           6758       27978.00    122365.30
  193.77        3343.25           6761       26605.00    116341.40
  193.80        3343.50           6765       24643.00    107736.70
  193.83        3343.75           6769       22547.00     98548.71
  193.86        3344.00           6773       20478.00     89483.59
  193.89        3344.25           6776       19117.00     83522.94
  193.92        3344.50           6780       17173.00     75012.28
  193.95        3344.75           6784       15299.00     66811.78
  193.98        3345.00           6788       13084.00     57123.78
  194.01        3345.25           6791       11548.00     50408.58
  194.04        3345.50           6795        9215.00     40213.65
  194.07        3345.75           6799        7268.00     31709.79
  194.10        3346.00           6803        5421.00     23646.31
  194.13        3346.25           6806        4050.00     17663.17
  194.16        3346.50           6810        2113.00      9213.28
  194.19        3346.75           6814         542.00      2362.84
  194.22        3347.00           6818         146.00       636.45
  194.25        3347.25           6821          78.00       340.02
  194.28        3347.50           6825          69.00       300.79
  194.31        3347.75           6829          57.00       248.48
  194.34        3348.00           6833          67.00       292.07
  194.37        3348.25           6836          53.00       231.04
  194.40        3348.50           6840          54.00       235.40
  194.43        3348.75           6844          52.00       226.68
  194.46        3349.00           6848          51.00       222.32
  194.49        3349.25           6851          47.00       204.88
  194.51        3349.50           6855          50.00       217.96
  194.54        3349.75           6859          50.00       217.96
  194.58        3350.00           6863          46.00       200.52
  194.60        3350.25           6866          52.00       226.68
  194.64        3350.50           6870          43.00       187.45
  194.66        3350.75           6874          47.00       204.88
  194.69        3351.00           6878          44.00       191.81
HL scan finished at 03:16:11
end
************************************************************
  HL Scan of (1) Internal mercury lamp
************************************************************
Integration time is 0.2294 seconds per sample
dh200418Delft 51.9969-4.3863 2.804185pr1000
************************************************************
Dead Time -------------------------  2.7E-08 
Number of Cycles Used -------------  4 
Starting Wavelength (Angstroms) ---  3331 
Final Wavelength (Angstoms) -------  3351 
Wavelength Increment (Angstroms) --  .25 
Filter Wheel #1 Position ---------- (1) Ground quartz diffuser (ND=2.32)
Filter Wheel #2 Position ---------- 



************************************************************
HL scan start time = 20:02:47
Dark Count =  .1 


Time (GMT)  Wavelength (Ang)  Step Number  Raw Counts  Counts/Second

 1203.54        3331.00           6579          41.00       178.29
 1203.95        3331.25           6582          38.00       165.21
 1203.98        3331.50           6586          52.00       226.24
 1204.01        3331.75           6590          44.00       191.37
 1204.05        3332.00           6594          46.00       200.09
 1204.08        3332.25           6597          44.00       191.37
 1204.11        3332.50           6601          46.00       200.09
 1204.14        3332.75           6605          46.00       200.09
 1204.17        3333.00           6608          44.00       191.37
 1204.20        3333.25           6612          40.00       173.93
 1204.23        3333.50           6616          48.00       208.81
 1204.26        3333.75           6620          43.00       187.01
 1204.29        3334.00           6623          39.00       169.57
 1204.32        3334.25           6627          47.00       204.45
 1204.35        3334.50           6631          45.00       195.73
 1204.38        3334.75           6635          48.00       208.81
 1204.41        3335.00           6638          46.00       200.09
 1204.43        3335.25           6642          53.00       230.60
 1204.46        3335.50           6646          62.00       269.84
 1204.49        3335.75           6649          62.00       269.84
 1204.52        3336.00           6653          63.00       274.20
 1204.56        3336.25           6657          88.00       383.18
 1204.58        3336.50           6661         531.00      2314.44
 1204.61        3336.75           6664        1481.00      6456.66
 1204.64        3337.00           6668        3254.00     14189.83
 1204.67        3337.25           6672        5145.00     22441.23
 1204.70        3337.50           6676        7016.00     30608.99
 1204.73        3337.75           6679        8528.00     37212.18
 1204.76        3338.00           6683       10350.00     45172.33
 1204.79        3338.25           6687       12393.00     54102.08
 1204.82        3338.50           6690       13882.00     60613.07
 1204.85        3338.75           6694       15832.00     69143.35
 1204.88        3339.00           6698       17438.00     76171.75
 1204.91        3339.25           6702       19044.00     83202.84
 1204.94        3339.50           6705       20341.00     88883.07
 1204.97        3339.75           6709       22139.00     96760.31
 1205.00        3340.00           6713       24034.00    105066.20
 1205.03        3340.25           6717       25886.00    113187.10
 1205.06        3340.50           6720       27287.00    119332.90
 1205.09        3340.75           6724       28964.00    126692.00
 1205.12        3341.00           6728       30453.00    133228.60
 1205.15        3341.25           6732       31736.00    138862.70
 1205.18        3341.50           6735       32079.00    140369.30
 1205.21        3341.75           6739       31967.00    139877.30
 1205.24        3342.00           6743       31766.00    138994.50
 1205.27        3342.25           6747       30481.00    133351.60
 1205.30        3342.50           6750       29123.00    127389.90
 1205.33        3342.75           6754       27119.00    118595.80
 1205.36        3343.00           6758       25268.00    110476.80
 1205.39        3343.25           6761       23977.00    104816.30
 1205.42        3343.50           6765       22075.00     96479.85
 1205.45        3343.75           6769       20170.00     88134.06
 1205.48        3344.00           6773       18539.00     80991.65
 1205.51        3344.25           6776       17490.00     76399.38
 1205.54        3344.50           6780       15535.00     67843.87
 1205.57        3344.75           6784       13709.00     59856.47
 1205.60        3345.00           6788       11698.00     51063.82
 1205.63        3345.25           6791       10362.00     45224.76
 1205.66        3345.50           6795        8443.00     36840.90
 1205.69        3345.75           6799        6653.00     29024.04
 1205.72        3346.00           6803        5028.00     21930.60
 1205.75        3346.25           6806        3688.00     16083.27
 1205.78        3346.50           6810        1837.00      8009.14
 1205.81        3346.75           6814         562.00      2449.60
 1205.84        3347.00           6818         147.00       640.38
 1205.87        3347.25           6821          76.00       330.87
 1205.90        3347.50           6825          63.00       274.20
 1205.93        3347.75           6829          59.00       256.76
 1205.96        3348.00           6833          61.00       265.48
 1205.99        3348.25           6836          48.00       208.81
 1206.02        3348.50           6840          54.00       234.96
 1206.05        3348.75           6844          43.00       187.01
 1206.08        3349.00           6848          53.00       230.60
 1206.11        3349.25           6851          45.00       195.73
 1206.14        3349.50           6855          40.00       173.93
 1206.17        3349.75           6859          51.00       221.88
 1206.19        3350.00           6863          43.00       187.01
 1206.22        3350.25           6866          44.00       191.37
 1206.25        3350.50           6870          46.00       200.09
 1206.28        3350.75           6874          42.00       182.65
 1206.31        3351.00           6878          44.00       191.37
HL scan finished at 20:07:48
end
