************************************************************
  HL Scan of (1) Internal mercury lamp
************************************************************
Integration time is 0.2294 seconds per sample
dh200417DelftKZ 51.997-4.386 2.214056pr1000
************************************************************
Dead Time -------------------------  3E-08 
Number of Cycles Used -------------  4 
Starting Wavelength (Angstroms) ---  3331 
Final Wavelength (Angstoms) -------  3351 
Wavelength Increment (Angstroms) --  .25 
Filter Wheel #1 Position ---------- (1) Ground quartz diffuser (ND=2.32)
Filter Wheel #2 Position ---------- 



************************************************************
HL scan start time = 00:25:43
Dark Count =  0 


Time (GMT)  Wavelength (Ang)  Step Number  Raw Counts  Counts/Second

   26.48        3331.00           6581          46.00       200.52
   26.88        3331.25           6584          42.00       183.09
   26.91        3331.50           6588          46.00       200.52
   26.94        3331.75           6592          46.00       200.52
   26.97        3332.00           6595          47.00       204.88
   26.99        3332.25           6599          42.00       183.09
   27.02        3332.50           6603          47.00       204.88
   27.05        3332.75           6607          38.00       165.65
   27.08        3333.00           6610          40.00       174.37
   27.11        3333.25           6614          41.00       178.73
   27.13        3333.50           6618          41.00       178.73
   27.16        3333.75           6622          51.00       222.32
   27.19        3334.00           6625          47.00       204.88
   27.22        3334.25           6629          49.00       213.60
   27.24        3334.50           6633          46.00       200.52
   27.27        3334.75           6636          42.00       183.09
   27.30        3335.00           6640          44.00       191.81
   27.33        3335.25           6644          48.00       209.24
   27.35        3335.50           6648          48.00       209.24
   27.38        3335.75           6651          54.00       235.40
   27.41        3336.00           6655          59.00       257.19
   27.44        3336.25           6659         214.00       932.89
   27.46        3336.50           6663        1170.00      5101.04
   27.49        3336.75           6666        2200.00      9593.00
   27.52        3337.00           6670        3626.00     15813.95
   27.55        3337.25           6674        5216.00     22753.10
   27.58        3337.50           6677        6202.00     27057.70
   27.60        3337.75           6681        7552.00     32953.23
   27.63        3338.00           6685        8863.00     38680.43
   27.66        3338.25           6689       10454.00     45633.49
   27.69        3338.50           6692       11308.00     49366.87
   27.72        3338.75           6696       12694.00     55427.75
   27.75        3339.00           6700       13879.00     60611.42
   27.78        3339.25           6704       15190.00     66348.15
   27.80        3339.50           6707       16377.00     71543.98
   27.83        3339.75           6711       17758.00     77591.04
   27.86        3340.00           6715       19131.00     83605.25
   27.89        3340.25           6719       20472.00     89481.38
   27.91        3340.50           6722       21464.00     93829.57
   27.94        3340.75           6726       22677.00     99148.01
   27.97        3341.00           6730       23664.00    103476.80
   28.00        3341.25           6733       23888.00    104459.40
   28.03        3341.50           6737       23930.00    104643.60
   28.05        3341.75           6741       23795.00    104051.40
   28.08        3342.00           6745       22991.00    100525.00
   28.11        3342.25           6748       22029.00     96306.62
   28.14        3342.50           6752       20670.00     90349.18
   28.16        3342.75           6756       19276.00     84240.52
   28.19        3343.00           6760       17846.00     77976.45
   28.22        3343.25           6763       16791.00     73356.56
   28.25        3343.50           6767       15346.00     67030.91
   28.28        3343.75           6771       14117.00     61652.73
   28.30        3344.00           6775       12950.00     56547.46
   28.33        3344.25           6778       11918.00     52034.09
   28.36        3344.50           6782       10638.00     46437.80
   28.39        3344.75           6786        9206.00     40179.18
   28.42        3345.00           6790        7721.00     33691.40
   28.44        3345.25           6793        6661.00     29061.95
   28.47        3345.50           6797        5330.00     23250.74
   28.50        3345.75           6801        4110.00     17925.94
   28.53        3346.00           6805        2717.00     11848.15
   28.55        3346.25           6808        1716.00      7482.06
   28.58        3346.50           6812         560.00      2441.33
   28.61        3346.75           6816         128.00       557.99
   28.64        3347.00           6819          60.00       261.55
   28.66        3347.25           6823          53.00       231.04
   28.69        3347.50           6827          47.00       204.88
   28.72        3347.75           6831          46.00       200.52
   28.75        3348.00           6834          44.00       191.81
   28.78        3348.25           6838          38.00       165.65
   28.80        3348.50           6842          44.00       191.81
   28.83        3348.75           6846          48.00       209.24
   28.86        3349.00           6849          43.00       187.45
   28.89        3349.25           6853          46.00       200.52
   28.91        3349.50           6857          38.00       165.65
   28.94        3349.75           6861          42.00       183.09
   28.97        3350.00           6864          43.00       187.45
   29.00        3350.25           6868          38.00       165.65
   29.02        3350.50           6872          43.00       187.45
   29.05        3350.75           6876          41.00       178.73
   29.08        3351.00           6879          40.00       174.37
HL scan finished at 00:30:33
end
************************************************************
  HL Scan of (1) Internal mercury lamp
************************************************************
Integration time is 0.2294 seconds per sample
dh200417DelftKZ 51.997-4.386 2.214056pr1000
************************************************************
Dead Time -------------------------  3E-08 
Number of Cycles Used -------------  4 
Starting Wavelength (Angstroms) ---  3331 
Final Wavelength (Angstoms) -------  3351 
Wavelength Increment (Angstroms) --  .25 
Filter Wheel #1 Position ---------- (1) Ground quartz diffuser (ND=2.32)
Filter Wheel #2 Position ---------- 



************************************************************
HL scan start time = 02:54:33
Dark Count =  0 


Time (GMT)  Wavelength (Ang)  Step Number  Raw Counts  Counts/Second

  175.32        3331.00           6581          41.00       178.73
  175.72        3331.25           6584          36.00       156.93
  175.75        3331.50           6588          36.00       156.93
  175.78        3331.75           6592          37.00       161.29
  175.81        3332.00           6595          42.00       183.09
  175.84        3332.25           6599          34.00       148.21
  175.87        3332.50           6603          40.00       174.37
  175.90        3332.75           6607          38.00       165.65
  175.92        3333.00           6610          41.00       178.73
  175.95        3333.25           6614          33.00       143.85
  175.98        3333.50           6618          39.00       170.01
  176.01        3333.75           6622          43.00       187.45
  176.03        3334.00           6625          37.00       161.29
  176.06        3334.25           6629          40.00       174.37
  176.09        3334.50           6633          36.00       156.93
  176.12        3334.75           6636          49.00       213.60
  176.15        3335.00           6640          47.00       204.88
  176.17        3335.25           6644          40.00       174.37
  176.20        3335.50           6648          50.00       217.96
  176.23        3335.75           6651          52.00       226.68
  176.26        3336.00           6655          68.00       296.43
  176.29        3336.25           6659         340.00      1482.19
  176.32        3336.50           6663        1165.00      5079.24
  176.35        3336.75           6666        1949.00      8498.24
  176.37        3337.00           6670        3055.00     13322.67
  176.41        3337.25           6674        4008.00     17480.83
  176.44        3337.50           6677        4715.00     20566.31
  176.47        3337.75           6681        5669.00     24730.64
  176.49        3338.00           6685        6547.00     28564.14
  176.52        3338.25           6689        7642.00     33346.34
  176.55        3338.50           6692        8477.00     36993.96
  176.58        3338.75           6696        9729.00     42464.70
  176.60        3339.00           6700       10666.00     46560.20
  176.63        3339.25           6704       11525.00     50315.65
  176.66        3339.50           6707       12425.00     54251.26
  176.69        3339.75           6711       13522.00     59049.58
  176.71        3340.00           6715       14527.00     63446.72
  176.74        3340.25           6719       15603.00     68155.79
  176.77        3340.50           6722       16206.00     70795.36
  176.80        3340.75           6726       17166.00     74998.55
  176.83        3341.00           6730       18209.00     79566.34
  176.85        3341.25           6733       18332.00     80105.10
  176.88        3341.50           6737       18478.00     80744.62
  176.91        3341.75           6741       18260.00     79789.72
  176.94        3342.00           6745       17509.00     76500.56
  176.96        3342.25           6748       16853.00     73628.02
  176.99        3342.50           6752       15949.00     69670.31
  177.02        3342.75           6756       14953.00     65310.93
  177.05        3343.00           6760       13908.00     60738.30
  177.08        3343.25           6763       13120.00     57291.07
  177.10        3343.50           6767       11813.00     51574.94
  177.13        3343.75           6771       10737.00     46870.57
  177.16        3344.00           6775        9813.00     42831.82
  177.19        3344.25           6778        9086.00     39654.82
  177.21        3344.50           6782        8142.00     35530.44
  177.24        3344.75           6786        7149.00     31193.09
  177.27        3345.00           6790        6117.00     26686.57
  177.30        3345.25           6793        5350.00     23338.04
  177.33        3345.50           6797        4275.00     18646.00
  177.36        3345.75           6801        3104.00     13536.45
  177.39        3346.00           6805        1980.00      8633.45
  177.42        3346.25           6808        1174.00      5118.48
  177.44        3346.50           6812         294.00      1281.65
  177.47        3346.75           6816          88.00       383.61
  177.50        3347.00           6819          58.00       252.84
  177.53        3347.25           6823          45.00       196.17
  177.55        3347.50           6827          42.00       183.09
  177.58        3347.75           6831          39.00       170.01
  177.61        3348.00           6834          47.00       204.88
  177.64        3348.25           6838          34.00       148.21
  177.66        3348.50           6842          37.00       161.29
  177.69        3348.75           6846          40.00       174.37
  177.72        3349.00           6849          42.00       183.09
  177.75        3349.25           6853          41.00       178.73
  177.78        3349.50           6857          33.00       143.85
  177.80        3349.75           6861          37.00       161.29
  177.83        3350.00           6864          39.00       170.01
  177.87        3350.25           6868          36.00       156.93
  177.89        3350.50           6872          35.00       152.57
  177.92        3350.75           6876          37.00       161.29
  177.95        3351.00           6879          39.00       170.01
HL scan finished at 02:59:26
end
