************************************************************
  HL Scan of (1) Internal mercury lamp
************************************************************
Integration time is 0.2294 seconds per sample
dh170517Kaunas 54.88398-23.83586 2.428648pr1000
************************************************************
Dead Time -------------------------  3E-08 
Number of Cycles Used -------------  4 
Starting Wavelength (Angstroms) ---  3331 
Final Wavelength (Angstoms) -------  3351 
Wavelength Increment (Angstroms) --  .25 
Filter Wheel #1 Position ---------- (1) Ground quartz diffuser (ND=2.32)
Filter Wheel #2 Position ---------- 



************************************************************
HL scan start time = 00:34:27
Dark Count =  .2 


Time (GMT)  Wavelength (Ang)  Step Number  Raw Counts  Counts/Second

   35.21        3331.00           6581          39.00       169.14
   35.62        3331.25           6584          39.00       169.14
   35.65        3331.50           6588          40.00       173.50
   35.68        3331.75           6592          35.00       151.70
   35.70        3332.00           6595          41.00       177.86
   35.73        3332.25           6599          41.00       177.86
   35.76        3332.50           6603          43.00       186.57
   35.79        3332.75           6607          40.00       173.50
   35.82        3333.00           6610          41.00       177.86
   35.84        3333.25           6614          47.00       204.01
   35.87        3333.50           6618          43.00       186.57
   35.90        3333.75           6622          48.00       208.37
   35.93        3334.00           6625          39.00       169.14
   35.95        3334.25           6629          39.00       169.14
   35.98        3334.50           6633          42.00       182.22
   36.01        3334.75           6636          43.00       186.57
   36.04        3335.00           6640          44.00       190.93
   36.06        3335.25           6644          44.00       190.93
   36.09        3335.50           6648          52.00       225.81
   36.12        3335.75           6651          62.00       269.40
   36.15        3336.00           6655          65.00       282.48
   36.17        3336.25           6659         283.00      1232.83
   36.20        3336.50           6663        1497.00      6526.13
   36.23        3336.75           6666        2435.00     10617.16
   36.26        3337.00           6670        3765.00     16419.60
   36.29        3337.25           6674        5228.00     22804.61
   36.31        3337.50           6677        6178.00     26952.03
   36.34        3337.75           6681        7540.00     32899.94
   36.37        3338.00           6685        8858.00     38657.71
   36.40        3338.25           6689       10116.00     44155.23
   36.42        3338.50           6692       11195.00     48871.95
   36.45        3338.75           6696       12801.00     55894.87
   36.48        3339.00           6700       14294.00     62426.31
   36.51        3339.25           6704       15664.00     68421.91
   36.54        3339.50           6707       16558.00     72335.54
   36.56        3339.75           6711       17866.00     78063.16
   36.59        3340.00           6715       19476.00     85115.94
   36.62        3340.25           6719       20578.00     89945.09
   36.65        3340.50           6722       21426.00     93662.11
   36.67        3340.75           6726       22848.00     99897.02
   36.70        3341.00           6730       24251.00    106050.90
   36.73        3341.25           6733       24473.00    107024.90
   36.76        3341.50           6737       24616.00    107652.30
   36.78        3341.75           6741       24668.00    107880.40
   36.81        3342.00           6745       23620.00    103282.90
   36.84        3342.25           6748       22568.00     98669.16
   36.87        3342.50           6752       21355.00     93350.87
   36.89        3342.75           6756       19845.00     86732.80
   36.92        3343.00           6760       18771.00     82027.25
   36.95        3343.25           6763       17676.00     77231.04
   36.98        3343.50           6767       16216.00     70838.27
   37.01        3343.75           6771       14807.00     64671.13
   37.03        3344.00           6775       13472.00     58829.98
   37.06        3344.25           6778       12285.00     53638.12
   37.09        3344.50           6782       10890.00     47538.55
   37.12        3344.75           6786        9484.00     41393.13
   37.14        3345.00           6790        8080.00     35258.73
   37.17        3345.25           6793        7102.00     30986.95
   37.20        3345.50           6797        5826.00     25415.18
   37.23        3345.75           6801        4532.00     19766.73
   37.26        3346.00           6805        2982.00     13003.33
   37.28        3346.25           6808        1870.00      8152.82
   37.31        3346.50           6812         493.00      2148.35
   37.34        3346.75           6816         115.00       500.44
   37.37        3347.00           6819          60.00       260.68
   37.39        3347.25           6823          54.00       234.53
   37.42        3347.50           6827          54.00       234.53
   37.45        3347.75           6831          50.00       217.09
   37.48        3348.00           6834          48.00       208.37
   37.50        3348.25           6838          46.00       199.65
   37.53        3348.50           6842          44.00       190.93
   37.56        3348.75           6846          39.00       169.14
   37.59        3349.00           6849          45.00       195.29
   37.61        3349.25           6853          42.00       182.22
   37.64        3349.50           6857          35.00       151.70
   37.67        3349.75           6861          43.00       186.57
   37.70        3350.00           6864          45.00       195.29
   37.73        3350.25           6868          44.00       190.93
   37.76        3350.50           6872          38.00       164.78
   37.79        3350.75           6876          39.00       169.14
   37.82        3351.00           6879          48.00       208.37
HL scan finished at 00:39:18
end
************************************************************
  HL Scan of (1) Internal mercury lamp
************************************************************
Integration time is 0.2294 seconds per sample
dh170517Kaunas 54.88398-23.83586 2.428648pr1000
************************************************************
Dead Time -------------------------  3E-08 
Number of Cycles Used -------------  4 
Starting Wavelength (Angstroms) ---  3331 
Final Wavelength (Angstoms) -------  3351 
Wavelength Increment (Angstroms) --  .25 
Filter Wheel #1 Position ---------- (1) Ground quartz diffuser (ND=2.32)
Filter Wheel #2 Position ---------- 



************************************************************
HL scan start time = 01:00:48
Dark Count =  .1 


Time (GMT)  Wavelength (Ang)  Step Number  Raw Counts  Counts/Second

   61.55        3331.00           6581          39.00       169.57
   61.96        3331.25           6584          35.00       152.14
   61.99        3331.50           6588          37.00       160.86
   62.02        3331.75           6592          40.00       173.93
   62.04        3332.00           6595          41.00       178.29
   62.07        3332.25           6599          40.00       173.93
   62.10        3332.50           6603          40.00       173.93
   62.13        3332.75           6607          36.00       156.50
   62.15        3333.00           6610          36.00       156.50
   62.18        3333.25           6614          40.00       173.93
   62.21        3333.50           6618          40.00       173.93
   62.24        3333.75           6622          39.00       169.57
   62.26        3334.00           6625          42.00       182.65
   62.29        3334.25           6629          45.00       195.73
   62.32        3334.50           6633          38.00       165.21
   62.35        3334.75           6636          38.00       165.21
   62.37        3335.00           6640          48.00       208.81
   62.40        3335.25           6644          45.00       195.73
   62.43        3335.50           6648          50.00       217.53
   62.46        3335.75           6651          48.00       208.81
   62.48        3336.00           6655          59.00       256.76
   62.51        3336.25           6659         284.00      1237.62
   62.54        3336.50           6663        1247.00      5436.37
   62.57        3336.75           6666        2060.00      8981.93
   62.60        3337.00           6670        3103.00     13531.65
   62.62        3337.25           6674        4147.00     18086.97
   62.65        3337.50           6677        4965.00     21657.05
   62.68        3337.75           6681        6095.00     26590.08
   62.71        3338.00           6685        7442.00     32472.34
   62.74        3338.25           6689        8650.00     37749.35
   62.77        3338.50           6692        9631.00     42035.98
   62.79        3338.75           6696       10715.00     46773.96
   62.82        3339.00           6700       11773.00     51399.60
   62.85        3339.25           6704       13004.00     56783.23
   62.88        3339.50           6707       13821.00     60357.24
   62.91        3339.75           6711       14847.00     64846.61
   62.93        3340.00           6715       16071.00     70203.94
   62.96        3340.25           6719       17248.00     75357.19
   62.99        3340.50           6722       18222.00     79622.85
   63.02        3340.75           6726       19439.00     84954.26
   63.05        3341.00           6730       20393.00     89134.72
   63.07        3341.25           6733       20742.00     90664.31
   63.10        3341.50           6737       20765.00     90765.12
   63.13        3341.75           6741       20805.00     90940.44
   63.16        3342.00           6745       20224.00     88394.09
   63.18        3342.25           6748       19444.00     84976.16
   63.21        3342.50           6752       18368.00     80262.35
   63.24        3342.75           6756       17173.00     75028.76
   63.27        3343.00           6760       15740.00     68755.02
   63.29        3343.25           6763       14797.00     64627.80
   63.33        3343.50           6767       13772.00     60142.86
   63.36        3343.75           6771       12694.00     55427.32
   63.39        3344.00           6775       11459.00     50026.64
   63.42        3344.25           6778       10518.00     45912.81
   63.45        3344.50           6782        9383.00     40952.20
   63.47        3344.75           6786        8250.00     36001.81
   63.50        3345.00           6790        7058.00     30795.22
   63.53        3345.25           6793        6091.00     26572.61
   63.56        3345.50           6797        4898.00     21364.60
   63.58        3345.75           6801        3554.00     15499.36
   63.61        3346.00           6805        2382.00     10386.41
   63.64        3346.25           6808        1542.00      6722.80
   63.67        3346.50           6812         442.00      1926.44
   63.70        3346.75           6816         101.00       439.85
   63.72        3347.00           6819          53.00       230.60
   63.75        3347.25           6823          53.00       230.60
   63.78        3347.50           6827          45.00       195.73
   63.81        3347.75           6831          45.00       195.73
   63.83        3348.00           6834          40.00       173.93
   63.86        3348.25           6838          43.00       187.01
   63.89        3348.50           6842          32.00       139.06
   63.92        3348.75           6846          48.00       208.81
   63.94        3349.00           6849          40.00       173.93
   63.97        3349.25           6853          44.00       191.37
   64.00        3349.50           6857          44.00       191.37
   64.03        3349.75           6861          38.00       165.21
   64.05        3350.00           6864          36.00       156.50
   64.08        3350.25           6868          40.00       173.93
   64.11        3350.50           6872          45.00       195.73
   64.14        3350.75           6876          37.00       160.86
   64.17        3351.00           6879          41.00       178.29
HL scan finished at 01:05:39
end
************************************************************
  HL Scan of (1) Internal mercury lamp
************************************************************
Integration time is 0.2294 seconds per sample
dh170517Kaunas 54.88398-23.83586 2.911481pr1000
************************************************************
Dead Time -------------------------  3E-08 
Number of Cycles Used -------------  4 
Starting Wavelength (Angstroms) ---  3331 
Final Wavelength (Angstoms) -------  3351 
Wavelength Increment (Angstroms) --  .25 
Filter Wheel #1 Position ---------- (1) Ground quartz diffuser (ND=2.32)
Filter Wheel #2 Position ---------- 



************************************************************
HL scan start time = 19:39:34
Dark Count =  .1 


Time (GMT)  Wavelength (Ang)  Step Number  Raw Counts  Counts/Second

 1180.32        3331.00           6581          51.00       221.88
 1180.73        3331.25           6584          39.00       169.57
 1180.76        3331.50           6588          49.00       213.17
 1180.78        3331.75           6592          46.00       200.09
 1180.81        3332.00           6595          43.00       187.01
 1180.84        3332.25           6599          46.00       200.09
 1180.87        3332.50           6603          44.00       191.37
 1180.89        3332.75           6607          46.00       200.09
 1180.92        3333.00           6610          45.00       195.73
 1180.95        3333.25           6614          45.00       195.73
 1180.98        3333.50           6618          47.00       204.45
 1181.00        3333.75           6622          42.00       182.65
 1181.03        3334.00           6625          44.00       191.37
 1181.06        3334.25           6629          43.00       187.01
 1181.09        3334.50           6633          47.00       204.45
 1181.12        3334.75           6636          54.00       234.96
 1181.14        3335.00           6640          57.00       248.04
 1181.17        3335.25           6644          61.00       265.48
 1181.20        3335.50           6648          58.00       252.40
 1181.23        3335.75           6651          65.00       282.91
 1181.25        3336.00           6655          78.00       339.59
 1181.28        3336.25           6659         247.00      1076.32
 1181.31        3336.50           6663        1695.00      7390.04
 1181.34        3336.75           6666        3128.00     13640.72
 1181.36        3337.00           6670        4889.00     21325.32
 1181.39        3337.25           6674        6756.00     29476.36
 1181.42        3337.50           6677        8267.00     36076.08
 1181.45        3337.75           6681       10456.00     45641.80
 1181.47        3338.00           6685       12288.00     53651.68
 1181.50        3338.25           6689       14237.00     62177.34
 1181.53        3338.50           6692       15933.00     69599.84
 1181.56        3338.75           6696       17902.00     78221.27
 1181.59        3339.00           6700       20163.00     88126.76
 1181.61        3339.25           6704       22069.00     96481.56
 1181.64        3339.50           6707       23526.00    102871.00
 1181.68        3339.75           6711       25731.00    112545.50
 1181.71        3340.00           6715       27828.00    121751.20
 1181.74        3340.25           6719       29488.00    129042.20
 1181.76        3340.50           6722       30884.00    135176.10
 1181.79        3340.75           6726       32693.00    143128.10
 1181.82        3341.00           6730       34609.00    151554.60
 1181.85        3341.25           6733       35347.00    154801.40
 1181.87        3341.50           6737       35491.00    155435.00
 1181.90        3341.75           6741       35638.00    156081.80
 1181.93        3342.00           6745       34535.00    151229.00
 1181.96        3342.25           6748       33424.00    146342.50
 1181.99        3342.50           6752       31298.00    136995.60
 1182.01        3342.75           6756       29175.00    127667.20
 1182.04        3343.00           6760       27513.00    120368.10
 1182.07        3343.25           6763       26141.00    114344.90
 1182.10        3343.50           6767       24193.00    105796.90
 1182.12        3343.75           6771       22131.00     96753.41
 1182.15        3344.00           6775       20033.00     87557.06
 1182.18        3344.25           6778       18404.00     80420.04
 1182.21        3344.50           6782       16101.00     70335.27
 1182.23        3344.75           6786       14051.00     61363.52
 1182.26        3345.00           6790       11973.00     52274.16
 1182.29        3345.25           6793       10386.00     45335.82
 1182.32        3345.50           6797        8579.00     37439.15
 1182.35        3345.75           6801        6669.00     29096.44
 1182.37        3346.00           6805        4869.00     21238.02
 1182.40        3346.25           6808        3244.00     14146.81
 1182.43        3346.50           6812        1277.00      5567.19
 1182.46        3346.75           6816         247.00      1076.32
 1182.48        3347.00           6819          97.00       422.41
 1182.51        3347.25           6823          63.00       274.20
 1182.54        3347.50           6827          59.00       256.76
 1182.57        3347.75           6831          54.00       234.96
 1182.59        3348.00           6834          50.00       217.53
 1182.62        3348.25           6838          53.00       230.60
 1182.65        3348.50           6842          44.00       191.37
 1182.68        3348.75           6846          49.00       213.17
 1182.71        3349.00           6849          41.00       178.29
 1182.74        3349.25           6853          45.00       195.73
 1182.77        3349.50           6857          52.00       226.24
 1182.79        3349.75           6861          48.00       208.81
 1182.82        3350.00           6864          44.00       191.37
 1182.85        3350.25           6868          42.00       182.65
 1182.88        3350.50           6872          44.00       191.37
 1182.90        3350.75           6876          49.00       213.17
 1182.93        3351.00           6879          49.00       213.17
HL scan finished at 19:44:25
end
