************************************************************
  HL Scan of (1) Internal mercury lamp
************************************************************
Integration time is 0.2294 seconds per sample
dh200518Delft 52.017-4.35 2.589593pr1000
************************************************************
Dead Time -------------------------  2.7E-08 
Number of Cycles Used -------------  4 
Starting Wavelength (Angstroms) ---  3331 
Final Wavelength (Angstoms) -------  3351 
Wavelength Increment (Angstroms) --  .25 
Filter Wheel #1 Position ---------- (1) Ground quartz diffuser (ND=2.32)
Filter Wheel #2 Position ---------- 



************************************************************
HL scan start time = 01:40:12
Dark Count =  0 


Time (GMT)  Wavelength (Ang)  Step Number  Raw Counts  Counts/Second

  100.95        3331.00           6579          41.00       178.73
  101.36        3331.25           6582          41.00       178.73
  101.39        3331.50           6586          40.00       174.37
  101.42        3331.75           6590          42.00       183.09
  101.45        3332.00           6594          45.00       196.16
  101.48        3332.25           6597          44.00       191.81
  101.50        3332.50           6601          41.00       178.73
  101.53        3332.75           6605          35.00       152.57
  101.56        3333.00           6608          45.00       196.16
  101.59        3333.25           6612          39.00       170.01
  101.62        3333.50           6616          43.00       187.45
  101.65        3333.75           6620          41.00       178.73
  101.67        3334.00           6623          39.00       170.01
  101.70        3334.25           6627          44.00       191.81
  101.73        3334.50           6631          40.00       174.37
  101.76        3334.75           6635          46.00       200.52
  101.79        3335.00           6638          45.00       196.16
  101.82        3335.25           6642          48.00       209.24
  101.84        3335.50           6646          49.00       213.60
  101.87        3335.75           6649          54.00       235.40
  101.90        3336.00           6653          54.00       235.40
  101.93        3336.25           6657         140.00       610.30
  101.96        3336.50           6661         933.00      4067.58
  101.99        3336.75           6664        1877.00      8184.02
  102.01        3337.00           6668        3111.00     13566.43
  102.04        3337.25           6672        4569.00     19927.90
  102.07        3337.50           6676        6241.00     27225.76
  102.10        3337.75           6679        7368.00     32146.46
  102.13        3338.00           6683        8845.00     38597.31
  102.16        3338.25           6687       10496.00     45810.77
  102.18        3338.50           6690       11584.00     50565.94
  102.21        3338.75           6694       13138.00     57359.92
  102.24        3339.00           6698       14683.00     64117.01
  102.27        3339.25           6702       16047.00     70084.55
  102.30        3339.50           6705       17250.00     75349.30
  102.32        3339.75           6709       18795.00     82112.98
  102.35        3340.00           6713       20244.00     88458.62
  102.38        3340.25           6717       21847.00     95481.24
  102.41        3340.50           6720       22921.00    100187.80
  102.44        3340.75           6724       24459.00    106929.90
  102.47        3341.00           6728       25961.00    113516.50
  102.50        3341.25           6732       26591.00    116279.90
  102.52        3341.50           6735       26859.00    117455.60
  102.55        3341.75           6739       26927.00    117753.90
  102.58        3342.00           6743       26466.00    115731.60
  102.61        3342.25           6747       25460.00    111319.30
  102.64        3342.50           6750       24017.00    104992.10
  102.67        3342.75           6754       22546.00     98544.32
  102.70        3343.00           6758       21032.00     91910.46
  102.72        3343.25           6761       20106.00     87854.19
  102.75        3343.50           6765       18678.00     81600.69
  102.78        3343.75           6769       17084.00     74622.75
  102.81        3344.00           6773       15624.00     68233.71
  102.84        3344.25           6776       14379.00     62787.26
  102.87        3344.50           6780       13050.00     56975.11
  102.89        3344.75           6784       11398.00     49752.93
  102.92        3345.00           6788        9731.00     42468.03
  102.95        3345.25           6791        8404.00     36670.99
  102.98        3345.50           6795        6759.00     29487.29
  103.01        3345.75           6799        5244.00     22873.76
  103.04        3346.00           6803        3773.00     16454.56
  103.06        3346.25           6806        2501.00     10905.57
  103.09        3346.50           6810        1051.00      4582.08
  103.12        3346.75           6814         285.00      1242.41
  103.15        3347.00           6818          96.00       418.49
  103.18        3347.25           6821          64.00       278.99
  103.21        3347.50           6825          51.00       222.32
  103.23        3347.75           6829          50.00       217.96
  103.26        3348.00           6833          53.00       231.04
  103.29        3348.25           6836          46.00       200.52
  103.32        3348.50           6840          49.00       213.60
  103.35        3348.75           6844          42.00       183.09
  103.38        3349.00           6848          42.00       183.09
  103.40        3349.25           6851          39.00       170.01
  103.43        3349.50           6855          43.00       187.45
  103.46        3349.75           6859          41.00       178.73
  103.49        3350.00           6863          42.00       183.09
  103.52        3350.25           6866          39.00       170.01
  103.54        3350.50           6870          44.00       191.81
  103.57        3350.75           6874          44.00       191.81
  103.60        3351.00           6878          41.00       178.73
HL scan finished at 01:45:05
end
************************************************************
  HL Scan of (1) Internal mercury lamp
************************************************************
Integration time is 0.2294 seconds per sample
dh200518Delft 52.017-4.35 2.965129pr1000
************************************************************
Dead Time -------------------------  2.7E-08 
Number of Cycles Used -------------  4 
Starting Wavelength (Angstroms) ---  3331 
Final Wavelength (Angstoms) -------  3351 
Wavelength Increment (Angstroms) --  .25 
Filter Wheel #1 Position ---------- (1) Ground quartz diffuser (ND=2.32)
Filter Wheel #2 Position ---------- 



************************************************************
HL scan start time = 20:49:36
Dark Count =  0 


Time (GMT)  Wavelength (Ang)  Step Number  Raw Counts  Counts/Second

 1250.36        3331.00           6579          41.00       178.73
 1250.77        3331.25           6582          47.00       204.88
 1250.79        3331.50           6586          37.00       161.29
 1250.82        3331.75           6590          47.00       204.88
 1250.85        3332.00           6594          45.00       196.16
 1250.88        3332.25           6597          46.00       200.52
 1250.91        3332.50           6601          41.00       178.73
 1250.93        3332.75           6605          44.00       191.81
 1250.96        3333.00           6608          50.00       217.96
 1250.99        3333.25           6612          46.00       200.52
 1251.02        3333.50           6616          41.00       178.73
 1251.05        3333.75           6620          46.00       200.52
 1251.07        3334.00           6623          47.00       204.88
 1251.10        3334.25           6627          47.00       204.88
 1251.13        3334.50           6631          42.00       183.09
 1251.16        3334.75           6635          48.00       209.24
 1251.19        3335.00           6638          46.00       200.52
 1251.21        3335.25           6642          45.00       196.16
 1251.24        3335.50           6646          50.00       217.96
 1251.27        3335.75           6649          70.00       305.15
 1251.30        3336.00           6653          63.00       274.63
 1251.33        3336.25           6657         101.00       440.28
 1251.36        3336.50           6661         647.00      2820.62
 1251.38        3336.75           6664        1968.00      8580.89
 1251.41        3337.00           6668        3615.00     15765.21
 1251.44        3337.25           6672        5480.00     23903.83
 1251.47        3337.50           6676        7448.00     32495.81
 1251.50        3337.75           6679        8807.00     38431.31
 1251.52        3338.00           6683       11141.00     48629.63
 1251.55        3338.25           6687       13236.00     57788.44
 1251.58        3338.50           6690       14765.00     64475.71
 1251.61        3338.75           6694       16734.00     73090.93
 1251.64        3339.00           6698       18756.00     81942.21
 1251.67        3339.25           6702       20753.00     90688.22
 1251.69        3339.50           6705       22097.00     96576.69
 1251.72        3339.75           6709       23751.00    103826.00
 1251.75        3340.00           6713       25623.00    112034.10
 1251.78        3340.25           6717       27825.00    121693.90
 1251.81        3340.50           6720       29147.00    127495.70
 1251.83        3340.75           6724       31117.00    136144.70
 1251.86        3341.00           6728       32674.00    142983.40
 1251.89        3341.25           6732       33781.00    147847.10
 1251.92        3341.50           6735       34273.00    150009.10
 1251.95        3341.75           6739       34416.00    150637.60
 1251.98        3342.00           6743       33993.00    148778.70
 1252.01        3342.25           6747       32447.00    141986.20
 1252.03        3342.50           6750       31294.00    136922.00
 1252.06        3342.75           6754       29285.00    128101.40
 1252.09        3343.00           6758       27409.00    119868.60
 1252.12        3343.25           6761       25821.00    112902.50
 1252.15        3343.50           6765       23887.00    104422.20
 1252.17        3343.75           6769       21952.00     95941.32
 1252.20        3344.00           6773       19979.00     87297.94
 1252.23        3344.25           6776       18485.00     80755.66
 1252.26        3344.50           6780       16662.00     72775.82
 1252.29        3344.75           6784       14730.00     64322.60
 1252.32        3345.00           6788       12713.00     55501.60
 1252.34        3345.25           6791       11266.00     49175.98
 1252.37        3345.50           6795        9184.00     40078.22
 1252.40        3345.75           6799        7170.00     31281.86
 1252.43        3346.00           6803        5141.00     22424.21
 1252.46        3346.25           6806        3844.00     16764.34
 1252.49        3346.50           6810        2112.00      9208.92
 1252.51        3346.75           6814         624.00      2720.34
 1252.54        3347.00           6818         142.00       619.02
 1252.57        3347.25           6821          75.00       326.94
 1252.60        3347.50           6825          70.00       305.15
 1252.63        3347.75           6829          68.00       296.43
 1252.65        3348.00           6833          58.00       252.84
 1252.68        3348.25           6836          51.00       222.32
 1252.71        3348.50           6840          54.00       235.40
 1252.74        3348.75           6844          52.00       226.68
 1252.77        3349.00           6848          46.00       200.52
 1252.79        3349.25           6851          45.00       196.16
 1252.82        3349.50           6855          45.00       196.16
 1252.85        3349.75           6859          49.00       213.60
 1252.88        3350.00           6863          51.00       222.32
 1252.91        3350.25           6866          51.00       222.32
 1252.94        3350.50           6870          45.00       196.16
 1252.96        3350.75           6874          41.00       178.73
 1252.99        3351.00           6878          40.00       174.37
HL scan finished at 20:54:28
end
