************************************************************
  HL Scan of (1) Internal mercury lamp
************************************************************
Integration time is 0.2294 seconds per sample
dh010617Delft 51.997-4.386 2.643241pr1000
************************************************************
Dead Time -------------------------  3E-08 
Number of Cycles Used -------------  4 
Starting Wavelength (Angstroms) ---  3331 
Final Wavelength (Angstoms) -------  3351 
Wavelength Increment (Angstroms) --  .25 
Filter Wheel #1 Position ---------- (1) Ground quartz diffuser (ND=2.32)
Filter Wheel #2 Position ---------- 



************************************************************
HL scan start time = 00:19:36
Dark Count =  .1 


Time (GMT)  Wavelength (Ang)  Step Number  Raw Counts  Counts/Second

   20.35        3331.00           6581          44.00       191.37
   20.76        3331.25           6584          55.00       239.32
   20.79        3331.50           6588          54.00       234.96
   20.81        3331.75           6592          47.00       204.45
   20.84        3332.00           6595          58.00       252.40
   20.87        3332.25           6599          40.00       173.93
   20.91        3332.50           6603          52.00       226.24
   20.94        3332.75           6607          45.00       195.73
   20.96        3333.00           6610          43.00       187.01
   20.99        3333.25           6614          44.00       191.37
   21.02        3333.50           6618          44.00       191.37
   21.05        3333.75           6622          45.00       195.73
   21.07        3334.00           6625          47.00       204.45
   21.10        3334.25           6629          46.00       200.09
   21.13        3334.50           6633          50.00       217.53
   21.16        3334.75           6636          46.00       200.09
   21.18        3335.00           6640          51.00       221.88
   21.21        3335.25           6644          61.00       265.48
   21.25        3335.50           6648          59.00       256.76
   21.28        3335.75           6651          74.00       322.15
   21.30        3336.00           6655          76.00       330.87
   21.33        3336.25           6659         288.00      1255.06
   21.36        3336.50           6663        1670.00      7281.02
   21.39        3336.75           6666        3136.00     13675.62
   21.42        3337.00           6670        5175.00     22573.70
   21.44        3337.25           6674        7209.00     31454.69
   21.47        3337.50           6677        8622.00     37627.02
   21.51        3337.75           6681       10245.00     44719.51
   21.54        3338.00           6685       12263.00     53542.35
   21.57        3338.25           6689       14519.00     63411.28
   21.59        3338.50           6692       16223.00     70869.35
   21.63        3338.75           6696       18373.00     80284.25
   21.65        3339.00           6700       20050.00     87631.56
   21.68        3339.25           6704       22034.00     96328.11
   21.71        3339.50           6707       23496.00    102739.50
   21.74        3339.75           6711       25644.00    112163.60
   21.76        3340.00           6715       27378.00    119775.30
   21.79        3340.25           6719       29199.00    127772.60
   21.82        3340.50           6722       30538.00    133655.60
   21.85        3340.75           6726       32746.00    143361.10
   21.88        3341.00           6730       34317.00    150270.10
   21.90        3341.25           6733       35377.00    154933.40
   21.93        3341.50           6737       35378.00    154937.80
   21.96        3341.75           6741       35338.00    154761.80
   21.99        3342.00           6745       34207.00    149786.20
   22.01        3342.25           6748       32669.00    143022.60
   22.04        3342.50           6752       30886.00    135184.90
   22.07        3342.75           6756       29240.00    127952.70
   22.10        3343.00           6760       27273.00    119314.30
   22.13        3343.25           6763       25598.00    111961.80
   22.15        3343.50           6767       23470.00    102625.40
   22.18        3343.75           6771       21514.00     94048.33
   22.21        3344.00           6775       19453.00     85015.59
   22.24        3344.25           6778       18001.00     78654.88
   22.27        3344.50           6782       15987.00     69836.22
   22.30        3344.75           6786       14145.00     61774.81
   22.33        3345.00           6790       12056.00     52637.12
   22.36        3345.25           6793       10737.00     46870.14
   22.39        3345.50           6797        8830.00     38535.81
   22.42        3345.75           6801        6701.00     29236.18
   22.45        3346.00           6805        4494.00     19601.32
   22.48        3346.25           6808        2806.00     12235.97
   22.50        3346.50           6812         846.00      3687.85
   22.53        3346.75           6816         201.00       875.79
   22.56        3347.00           6819          81.00       352.66
   22.59        3347.25           6823          76.00       330.87
   22.61        3347.50           6827          63.00       274.20
   22.64        3347.75           6831          56.00       243.68
   22.67        3348.00           6834          54.00       234.96
   22.70        3348.25           6838          57.00       248.04
   22.72        3348.50           6842          48.00       208.81
   22.75        3348.75           6846          49.00       213.17
   22.78        3349.00           6849          48.00       208.81
   22.82        3349.25           6853          48.00       208.81
   22.85        3349.50           6857          43.00       187.01
   22.87        3349.75           6861          48.00       208.81
   22.90        3350.00           6864          50.00       217.53
   22.93        3350.25           6868          50.00       217.53
   22.96        3350.50           6872          47.00       204.45
   22.98        3350.75           6876          45.00       195.73
   23.01        3351.00           6879          45.00       195.73
HL scan finished at 00:24:30
end
************************************************************
  HL Scan of (1) Internal mercury lamp
************************************************************
Integration time is 0.2294 seconds per sample
dh010617Delft 51.997-4.386 2.696889pr1000
************************************************************
Dead Time -------------------------  3E-08 
Number of Cycles Used -------------  4 
Starting Wavelength (Angstroms) ---  3331 
Final Wavelength (Angstoms) -------  3351 
Wavelength Increment (Angstroms) --  .25 
Filter Wheel #1 Position ---------- (1) Ground quartz diffuser (ND=2.32)
Filter Wheel #2 Position ---------- 



************************************************************
HL scan start time = 01:20:33
Dark Count =  0 


Time (GMT)  Wavelength (Ang)  Step Number  Raw Counts  Counts/Second

   81.31        3331.00           6581          44.00       191.81
   81.72        3331.25           6584          50.00       217.96
   81.75        3331.50           6588          48.00       209.24
   81.78        3331.75           6592          43.00       187.45
   81.81        3332.00           6595          39.00       170.01
   81.83        3332.25           6599          41.00       178.73
   81.86        3332.50           6603          45.00       196.17
   81.89        3332.75           6607          43.00       187.45
   81.92        3333.00           6610          44.00       191.81
   81.94        3333.25           6614          43.00       187.45
   81.97        3333.50           6618          44.00       191.81
   82.00        3333.75           6622          47.00       204.88
   82.03        3334.00           6625          42.00       183.09
   82.06        3334.25           6629          44.00       191.81
   82.08        3334.50           6633          46.00       200.52
   82.11        3334.75           6636          48.00       209.24
   82.14        3335.00           6640          53.00       231.04
   82.17        3335.25           6644          56.00       244.12
   82.19        3335.50           6648          56.00       244.12
   82.22        3335.75           6651          61.00       265.91
   82.25        3336.00           6655          81.00       353.10
   82.28        3336.25           6659         275.00      1198.82
   82.30        3336.50           6663        1423.00      6204.29
   82.33        3336.75           6666        2508.00     10936.46
   82.36        3337.00           6670        4090.00     17838.66
   82.39        3337.25           6674        5990.00     26132.08
   82.42        3337.50           6677        7440.00     32464.04
   82.44        3337.75           6681        8993.00     39248.45
   82.47        3338.00           6685       10761.00     46975.48
   82.50        3338.25           6689       12415.00     54207.53
   82.53        3338.50           6692       13721.00     59920.17
   82.56        3338.75           6696       15681.00     68497.21
   82.58        3339.00           6700       17257.00     75397.03
   82.61        3339.25           6704       18819.00     82238.40
   82.64        3339.50           6707       20097.00     87837.96
   82.67        3339.75           6711       21855.00     95543.74
   82.69        3340.00           6715       23598.00    103187.30
   82.72        3340.25           6719       25433.00    111238.10
   82.75        3340.50           6722       26777.00    117137.20
   82.78        3340.75           6726       28356.00    124070.40
   82.81        3341.00           6730       29996.00    131274.50
   82.83        3341.25           6733       30403.00    133062.80
   82.86        3341.50           6737       30515.00    133555.00
   82.89        3341.75           6741       30410.00    133093.60
   82.92        3342.00           6745       29759.00    130233.20
   82.94        3342.25           6748       28511.00    124751.10
   82.97        3342.50           6752       26715.00    116865.00
   83.00        3342.75           6756       24975.00    109228.30
   83.03        3343.00           6760       23239.00    101612.70
   83.06        3343.25           6763       22100.00     96617.92
   83.08        3343.50           6767       20501.00     89608.49
   83.11        3343.75           6771       18841.00     82334.77
   83.14        3344.00           6775       17110.00     74753.33
   83.17        3344.25           6778       16069.00     70195.62
   83.19        3344.50           6782       14189.00     61967.75
   83.22        3344.75           6786       12286.00     53643.37
   83.25        3345.00           6790       10360.00     45222.60
   83.28        3345.25           6793        8873.00     38724.13
   83.31        3345.50           6797        7101.00     30983.45
   83.33        3345.75           6801        5508.00     24027.78
   83.36        3346.00           6805        3685.00     16071.39
   83.39        3346.25           6808        2261.00      9859.06
   83.42        3346.50           6812         812.00      3540.04
   83.44        3346.75           6816         194.00       845.71
   83.47        3347.00           6819          86.00       374.90
   83.50        3347.25           6823          68.00       296.43
   83.53        3347.50           6827          56.00       244.12
   83.55        3347.75           6831          48.00       209.24
   83.58        3348.00           6834          54.00       235.40
   83.61        3348.25           6838          46.00       200.52
   83.64        3348.50           6842          42.00       183.09
   83.67        3348.75           6846          49.00       213.60
   83.70        3349.00           6849          43.00       187.45
   83.72        3349.25           6853          40.00       174.37
   83.75        3349.50           6857          51.00       222.32
   83.79        3349.75           6861          48.00       209.24
   83.81        3350.00           6864          51.00       222.32
   83.84        3350.25           6868          41.00       178.73
   83.87        3350.50           6872          41.00       178.73
   83.90        3350.75           6876          50.00       217.96
   83.92        3351.00           6879          41.00       178.73
HL scan finished at 01:25:24
end
************************************************************
  HL Scan of (1) Internal mercury lamp
************************************************************
Integration time is 0.2294 seconds per sample
dh010617Delft 51.997-4.386 2.643241pr1000
************************************************************
Dead Time -------------------------  3E-08 
Number of Cycles Used -------------  4 
Starting Wavelength (Angstroms) ---  3331 
Final Wavelength (Angstoms) -------  3351 
Wavelength Increment (Angstroms) --  .25 
Filter Wheel #1 Position ---------- (1) Ground quartz diffuser (ND=2.32)
Filter Wheel #2 Position ---------- 



************************************************************
HL scan start time = 01:46:51
Dark Count =  .1 


Time (GMT)  Wavelength (Ang)  Step Number  Raw Counts  Counts/Second

  107.62        3331.00           6581          39.00       169.57
  108.02        3331.25           6584          49.00       213.17
  108.05        3331.50           6588          43.00       187.01
  108.08        3331.75           6592          43.00       187.01
  108.11        3332.00           6595          39.00       169.57
  108.13        3332.25           6599          40.00       173.93
  108.16        3332.50           6603          45.00       195.73
  108.19        3332.75           6607          47.00       204.45
  108.22        3333.00           6610          40.00       173.93
  108.24        3333.25           6614          41.00       178.29
  108.27        3333.50           6618          43.00       187.01
  108.30        3333.75           6622          40.00       173.93
  108.33        3334.00           6625          40.00       173.93
  108.36        3334.25           6629          49.00       213.17
  108.39        3334.50           6633          45.00       195.73
  108.42        3334.75           6636          48.00       208.81
  108.45        3335.00           6640          47.00       204.45
  108.48        3335.25           6644          47.00       204.45
  108.50        3335.50           6648          51.00       221.88
  108.53        3335.75           6651          62.00       269.84
  108.56        3336.00           6655          68.00       295.99
  108.59        3336.25           6659         189.00       823.47
  108.61        3336.50           6663        1354.00      5902.96
  108.64        3336.75           6666        2487.00     10844.42
  108.67        3337.00           6670        3909.00     17048.39
  108.70        3337.25           6674        5229.00     22809.41
  108.73        3337.50           6677        6266.00     27336.71
  108.75        3337.75           6681        7751.00     33822.01
  108.78        3338.00           6685        9298.00     40580.77
  108.81        3338.25           6689       10811.00     47193.63
  108.84        3338.50           6692       11994.00     52365.99
  108.86        3338.75           6696       13495.00     58931.04
  108.89        3339.00           6700       14971.00     65389.27
  108.92        3339.25           6704       16551.00     72305.32
  108.95        3339.50           6707       17876.00     78107.40
  108.97        3339.75           6711       19284.00     84275.14
  109.00        3340.00           6715       20836.00     91076.31
  109.03        3340.25           6719       22493.00     98340.71
  109.06        3340.50           6722       23309.00    101919.30
  109.09        3340.75           6726       24358.00    106520.80
  109.12        3341.00           6730       26018.00    113805.10
  109.15        3341.25           6733       26435.00    115635.40
  109.18        3341.50           6737       26434.00    115631.00
  109.20        3341.75           6741       26491.00    115881.20
  109.23        3342.00           6745       25603.00    111983.70
  109.26        3342.25           6748       24809.00    108499.50
  109.29        3342.50           6752       23236.00    101599.10
  109.31        3342.75           6756       21935.00     95894.05
  109.34        3343.00           6760       20413.00     89222.38
  109.37        3343.25           6763       19123.00     83569.76
  109.40        3343.50           6767       17968.00     78510.33
  109.43        3343.75           6771       16540.00     72257.16
  109.45        3344.00           6775       14801.00     64645.30
  109.48        3344.25           6778       13551.00     59176.02
  109.51        3344.50           6782       11893.00     51924.33
  109.54        3344.75           6786       10423.00     45497.55
  109.57        3345.00           6790        8916.00     38911.57
  109.60        3345.25           6793        7681.00     33516.25
  109.63        3345.50           6797        6226.00     27162.05
  109.65        3345.75           6801        4859.00     21194.38
  109.68        3346.00           6805        3521.00     15355.37
  109.71        3346.25           6808        2406.00     10491.10
  109.74        3346.50           6812         922.00      4019.23
  109.76        3346.75           6816         166.00       723.21
  109.79        3347.00           6819          73.00       317.79
  109.82        3347.25           6823          59.00       256.76
  109.85        3347.50           6827          51.00       221.88
  109.87        3347.75           6831          44.00       191.37
  109.90        3348.00           6834          49.00       213.17
  109.93        3348.25           6838          50.00       217.53
  109.96        3348.50           6842          46.00       200.09
  109.99        3348.75           6846          40.00       173.93
  110.02        3349.00           6849          41.00       178.29
  110.05        3349.25           6853          41.00       178.29
  110.07        3349.50           6857          50.00       217.53
  110.10        3349.75           6861          40.00       173.93
  110.13        3350.00           6864          46.00       200.09
  110.16        3350.25           6868          41.00       178.29
  110.18        3350.50           6872          43.00       187.01
  110.21        3350.75           6876          47.00       204.45
  110.24        3351.00           6879          43.00       187.01
HL scan finished at 01:51:43
end
