************************************************************
  HL Scan of (1) Internal mercury lamp
************************************************************
Integration time is 0.2294 seconds per sample
dh290617Delft 51.997-4.386 2.804185pr1000
************************************************************
Dead Time -------------------------  3E-08 
Number of Cycles Used -------------  4 
Starting Wavelength (Angstroms) ---  3331 
Final Wavelength (Angstoms) -------  3351 
Wavelength Increment (Angstroms) --  .25 
Filter Wheel #1 Position ---------- (1) Ground quartz diffuser (ND=2.32)
Filter Wheel #2 Position ---------- 



************************************************************
HL scan start time = 00:29:07
Dark Count =  .1 


Time (GMT)  Wavelength (Ang)  Step Number  Raw Counts  Counts/Second

   29.88        3331.00           6581          46.00       200.09
   30.29        3331.25           6584          48.00       208.81
   30.32        3331.50           6588          48.00       208.81
   30.35        3331.75           6592          54.00       234.96
   30.38        3332.00           6595          52.00       226.24
   30.40        3332.25           6599          51.00       221.88
   30.43        3332.50           6603          51.00       221.88
   30.46        3332.75           6607          56.00       243.68
   30.49        3333.00           6610          61.00       265.48
   30.51        3333.25           6614          53.00       230.60
   30.54        3333.50           6618          43.00       187.01
   30.57        3333.75           6622          47.00       204.45
   30.60        3334.00           6625          50.00       217.53
   30.62        3334.25           6629          46.00       200.09
   30.65        3334.50           6633          57.00       248.04
   30.68        3334.75           6636          55.00       239.32
   30.71        3335.00           6640          53.00       230.60
   30.74        3335.25           6644          54.00       234.96
   30.77        3335.50           6648          69.00       300.35
   30.79        3335.75           6651          71.00       309.07
   30.82        3336.00           6655          86.00       374.46
   30.85        3336.25           6659         522.00      2275.22
   30.88        3336.50           6663        2298.00     10020.01
   30.90        3336.75           6666        3784.00     16502.94
   30.93        3337.00           6670        5782.00     25223.53
   30.96        3337.25           6674        7816.00     34105.93
   30.99        3337.50           6677        9515.00     41529.05
   31.02        3337.75           6681       12166.00     53118.15
   31.04        3338.00           6685       14486.00     63266.88
   31.07        3338.25           6689       16748.00     73167.85
   31.10        3338.50           6692       18181.00     79443.26
   31.13        3338.75           6696       20408.00     89200.46
   31.15        3339.00           6700       22940.00    100300.90
   31.18        3339.25           6704       25015.00    109403.40
   31.21        3339.50           6707       26766.00    117088.40
   31.24        3339.75           6711       28882.00    126380.20
   31.26        3340.00           6715       31173.00    136446.20
   31.29        3340.25           6719       33630.00    147248.40
   31.32        3340.50           6722       35263.00    154431.80
   31.35        3340.75           6726       37384.00    163766.40
   31.38        3341.00           6730       39428.00    172767.20
   31.40        3341.25           6733       40050.00    175507.10
   31.43        3341.50           6737       39912.00    174899.20
   31.46        3341.75           6741       40088.00    175674.50
   31.49        3342.00           6745       38964.00    170723.50
   31.51        3342.25           6748       37514.00    164338.70
   31.54        3342.50           6752       35377.00    154933.40
   31.57        3342.75           6756       32736.00    143317.10
   31.60        3343.00           6760       30431.00    133185.40
   31.63        3343.25           6763       28978.00    126801.90
   31.65        3343.50           6767       26734.00    116948.00
   31.68        3343.75           6771       24659.00    107841.40
   31.71        3344.00           6775       22381.00     97849.59
   31.74        3344.25           6778       20520.00     89691.33
   31.76        3344.50           6782       18393.00     80371.86
   31.79        3344.75           6786       16178.00     70672.35
   31.82        3345.00           6790       13561.00     59219.76
   31.85        3345.25           6793       11785.00     51452.07
   31.88        3345.50           6797        9276.00     40484.63
   31.90        3345.75           6801        6866.00     29956.73
   31.93        3346.00           6805        4755.00     20740.45
   31.96        3346.25           6808        3020.00     13169.54
   31.99        3346.50           6812         907.00      3953.83
   32.01        3346.75           6816         205.00       893.22
   32.04        3347.00           6819         102.00       444.21
   32.07        3347.25           6823          77.00       335.23
   32.10        3347.50           6827          60.00       261.12
   32.12        3347.75           6831          64.00       278.56
   32.15        3348.00           6834          51.00       221.88
   32.18        3348.25           6838          53.00       230.60
   32.21        3348.50           6842          48.00       208.81
   32.23        3348.75           6846          51.00       221.88
   32.26        3349.00           6849          50.00       217.53
   32.29        3349.25           6853          52.00       226.24
   32.32        3349.50           6857          46.00       200.09
   32.34        3349.75           6861          48.00       208.81
   32.37        3350.00           6864          56.00       243.68
   32.40        3350.25           6868          48.00       208.81
   32.43        3350.50           6872          50.00       217.53
   32.45        3350.75           6876          54.00       234.96
   32.48        3351.00           6879          50.00       217.53
HL scan finished at 00:33:58
end
************************************************************
  HL Scan of (1) Internal mercury lamp
************************************************************
Integration time is 0.2294 seconds per sample
dh290617Delft 51.997-4.386 2.911481pr1000
************************************************************
Dead Time -------------------------  3E-08 
Number of Cycles Used -------------  4 
Starting Wavelength (Angstroms) ---  3331 
Final Wavelength (Angstoms) -------  3351 
Wavelength Increment (Angstroms) --  .25 
Filter Wheel #1 Position ---------- (1) Ground quartz diffuser (ND=2.32)
Filter Wheel #2 Position ---------- 



************************************************************
HL scan start time = 01:35:46
Dark Count =  .1 


Time (GMT)  Wavelength (Ang)  Step Number  Raw Counts  Counts/Second

   96.52        3331.00           6581          49.00       213.17
   96.93        3331.25           6584          47.00       204.45
   96.96        3331.50           6588          48.00       208.81
   96.98        3331.75           6592          35.00       152.14
   97.01        3332.00           6595          44.00       191.37
   97.04        3332.25           6599          47.00       204.45
   97.07        3332.50           6603          45.00       195.73
   97.09        3332.75           6607          46.00       200.09
   97.12        3333.00           6610          42.00       182.65
   97.15        3333.25           6614          44.00       191.37
   97.18        3333.50           6618          43.00       187.01
   97.20        3333.75           6622          43.00       187.01
   97.23        3334.00           6625          45.00       195.73
   97.26        3334.25           6629          45.00       195.73
   97.29        3334.50           6633          52.00       226.24
   97.32        3334.75           6636          52.00       226.24
   97.35        3335.00           6640          53.00       230.60
   97.38        3335.25           6644          53.00       230.60
   97.40        3335.50           6648          60.00       261.12
   97.43        3335.75           6651          72.00       313.43
   97.46        3336.00           6655          75.00       326.51
   97.49        3336.25           6659         202.00       880.15
   97.51        3336.50           6663        1715.00      7477.27
   97.54        3336.75           6666        3108.00     13553.46
   97.58        3337.00           6670        5020.00     21897.12
   97.61        3337.25           6674        6660.00     29057.14
   97.63        3337.50           6677        8139.00     35516.90
   97.66        3337.75           6681       10074.00     43972.10
   97.69        3338.00           6685       12077.00     52728.95
   97.72        3338.25           6689       14033.00     61284.76
   97.74        3338.50           6692       15590.00     68098.44
   97.77        3338.75           6696       17602.00     76907.41
   97.80        3339.00           6700       19634.00     85808.68
   97.83        3339.25           6704       21738.00     95030.34
   97.86        3339.50           6707       23305.00    101901.70
   97.88        3339.75           6711       25411.00    111141.10
   97.91        3340.00           6715       27300.00    119432.80
   97.94        3340.25           6719       29064.00    127179.60
   97.97        3340.50           6722       30739.00    134538.90
   97.99        3340.75           6726       32309.00    141439.80
   98.02        3341.00           6730       33816.00    148066.50
   98.05        3341.25           6733       34585.00    151449.00
   98.08        3341.50           6737       35009.00    153314.30
   98.10        3341.75           6741       34725.00    152064.90
   98.13        3342.00           6745       33894.00    148409.50
   98.16        3342.25           6748       32685.00    143092.90
   98.19        3342.50           6752       30697.00    134354.30
   98.22        3342.75           6756       28840.00    126195.70
   98.24        3343.00           6760       26927.00    117795.20
   98.27        3343.25           6763       25734.00    112558.60
   98.30        3343.50           6767       23689.00    103586.00
   98.33        3343.75           6771       21714.00     94925.14
   98.35        3344.00           6775       19716.00     86167.98
   98.38        3344.25           6778       18093.00     79057.82
   98.41        3344.50           6782       15994.00     69866.87
   98.44        3344.75           6786       14057.00     61389.77
   98.46        3345.00           6790       11812.00     51570.14
   98.49        3345.25           6793       10256.00     44767.59
   98.52        3345.50           6797        8364.00     36499.85
   98.55        3345.75           6801        6661.00     29061.51
   98.58        3346.00           6805        4821.00     21028.52
   98.60        3346.25           6808        3336.00     14548.20
   98.63        3346.50           6812        1357.00      5916.05
   98.66        3346.75           6816         217.00       945.54
   98.69        3347.00           6819          99.00       431.13
   98.71        3347.25           6823          69.00       300.35
   98.74        3347.50           6827          63.00       274.20
   98.77        3347.75           6831          61.00       265.48
   98.80        3348.00           6834          51.00       221.88
   98.82        3348.25           6838          56.00       243.68
   98.85        3348.50           6842          48.00       208.81
   98.88        3348.75           6846          52.00       226.24
   98.91        3349.00           6849          46.00       200.09
   98.93        3349.25           6853          50.00       217.53
   98.96        3349.50           6857          49.00       213.17
   98.99        3349.75           6861          52.00       226.24
   99.02        3350.00           6864          43.00       187.01
   99.04        3350.25           6868          51.00       221.88
   99.07        3350.50           6872          51.00       221.88
   99.10        3350.75           6876          51.00       221.88
   99.13        3351.00           6879          48.00       208.81
HL scan finished at 01:40:36
end
