************************************************************
  HL Scan of (1) Internal mercury lamp
************************************************************
Integration time is 0.2294 seconds per sample
dh200717Delft 51.997-4.386 3.072425pr1000
************************************************************
Dead Time -------------------------  3E-08 
Number of Cycles Used -------------  4 
Starting Wavelength (Angstroms) ---  3331 
Final Wavelength (Angstoms) -------  3351 
Wavelength Increment (Angstroms) --  .25 
Filter Wheel #1 Position ---------- (1) Ground quartz diffuser (ND=2.32)
Filter Wheel #2 Position ---------- 



************************************************************
HL scan start time = 00:25:12
Dark Count =  .1 


Time (GMT)  Wavelength (Ang)  Step Number  Raw Counts  Counts/Second

   25.95        3331.00           6581          51.00       221.88
   26.36        3331.25           6584          50.00       217.53
   26.39        3331.50           6588          53.00       230.60
   26.41        3331.75           6592          48.00       208.81
   26.44        3332.00           6595          52.00       226.24
   26.47        3332.25           6599          53.00       230.60
   26.50        3332.50           6603          55.00       239.32
   26.52        3332.75           6607          47.00       204.45
   26.55        3333.00           6610          50.00       217.53
   26.58        3333.25           6614          49.00       213.17
   26.61        3333.50           6618          48.00       208.81
   26.63        3333.75           6622          52.00       226.24
   26.66        3334.00           6625          49.00       213.17
   26.69        3334.25           6629          53.00       230.60
   26.72        3334.50           6633          57.00       248.04
   26.75        3334.75           6636          54.00       234.96
   26.77        3335.00           6640          62.00       269.84
   26.80        3335.25           6644          63.00       274.20
   26.83        3335.50           6648          61.00       265.48
   26.86        3335.75           6651          87.00       378.82
   26.88        3336.00           6655          81.00       352.66
   26.91        3336.25           6659         274.00      1194.03
   26.94        3336.50           6663        1962.00      8554.51
   26.97        3336.75           6666        3414.00     14888.52
   27.00        3337.00           6670        5682.00     24786.95
   27.03        3337.25           6674        8363.00     36495.47
   27.05        3337.50           6677       10523.00     45934.67
   27.08        3337.75           6681       12927.00     56446.42
   27.11        3338.00           6685       15493.00     67673.87
   27.14        3338.25           6689       18040.00     78825.69
   27.17        3338.50           6692       19860.00     86798.97
   27.20        3338.75           6696       22667.00     99103.71
   27.23        3339.00           6700       25128.00    109899.20
   27.26        3339.25           6704       27391.00    119832.40
   27.28        3339.50           6707       29206.00    127803.40
   27.31        3339.75           6711       31779.00    139109.90
   27.34        3340.00           6715       34469.00    150938.70
   27.37        3340.25           6719       37256.00    163202.90
   27.39        3340.50           6722       39218.00    171842.20
   27.42        3340.75           6726       41150.00    180353.80
   27.45        3341.00           6730       43842.00    192220.80
   27.48        3341.25           6733       44667.00    195859.30
   27.51        3341.50           6737       44874.00    196772.40
   27.53        3341.75           6741       44995.00    197306.10
   27.56        3342.00           6745       44251.00    194024.50
   27.59        3342.25           6748       42628.00    186868.10
   27.62        3342.50           6752       39713.00    174022.60
   27.64        3342.75           6756       37325.00    163506.70
   27.67        3343.00           6760       34781.00    152311.20
   27.70        3343.25           6763       33031.00    144614.30
   27.73        3343.50           6767       30737.00    134530.10
   27.76        3343.75           6771       28039.00    122677.80
   27.78        3344.00           6775       25617.00    112045.10
   27.81        3344.25           6778       23919.00    104594.90
   27.84        3344.50           6782       21291.00     93070.76
   27.87        3344.75           6786       18600.00     81278.59
   27.89        3345.00           6790       15689.00     68531.78
   27.93        3345.25           6793       13587.00     59333.51
   27.96        3345.50           6797       10846.00     47346.64
   28.00        3345.75           6801        8485.00     37028.47
   28.03        3346.00           6805        5823.00     25402.52
   28.05        3346.25           6808        3700.00     16136.41
   28.08        3346.50           6812        1464.00      6382.65
   28.11        3346.75           6816         331.00      1442.52
   28.14        3347.00           6819         115.00       500.88
   28.17        3347.25           6823          74.00       322.15
   28.19        3347.50           6827          73.00       317.79
   28.22        3347.75           6831          65.00       282.91
   28.25        3348.00           6834          61.00       265.48
   28.28        3348.25           6838          57.00       248.04
   28.30        3348.50           6842          62.00       269.84
   28.33        3348.75           6846          58.00       252.40
   28.36        3349.00           6849          50.00       217.53
   28.39        3349.25           6853          58.00       252.40
   28.41        3349.50           6857          48.00       208.81
   28.44        3349.75           6861          53.00       230.60
   28.47        3350.00           6864          48.00       208.81
   28.50        3350.25           6868          52.00       226.24
   28.52        3350.50           6872          51.00       221.88
   28.55        3350.75           6876          50.00       217.53
   28.58        3351.00           6879          55.00       239.32
HL scan finished at 00:30:04
end
************************************************************
  HL Scan of (1) Internal mercury lamp
************************************************************
Integration time is 0.2294 seconds per sample
dh200717Delft 51.997-4.386 3.126073pr1000
************************************************************
Dead Time -------------------------  3E-08 
Number of Cycles Used -------------  4 
Starting Wavelength (Angstroms) ---  3331 
Final Wavelength (Angstoms) -------  3351 
Wavelength Increment (Angstroms) --  .25 
Filter Wheel #1 Position ---------- (1) Ground quartz diffuser (ND=2.32)
Filter Wheel #2 Position ---------- 



************************************************************
HL scan start time = 01:31:42
Dark Count =  .2 


Time (GMT)  Wavelength (Ang)  Step Number  Raw Counts  Counts/Second

   92.46        3331.00           6581          47.00       204.01
   92.87        3331.25           6584          39.00       169.14
   92.89        3331.50           6588          46.00       199.65
   92.92        3331.75           6592          48.00       208.37
   92.95        3332.00           6595          49.00       212.73
   92.98        3332.25           6599          45.00       195.29
   93.00        3332.50           6603          49.00       212.73
   93.03        3332.75           6607          49.00       212.73
   93.06        3333.00           6610          48.00       208.37
   93.09        3333.25           6614          44.00       190.93
   93.11        3333.50           6618          54.00       234.53
   93.14        3333.75           6622          47.00       204.01
   93.17        3334.00           6625          54.00       234.53
   93.20        3334.25           6629          48.00       208.37
   93.22        3334.50           6633          52.00       225.81
   93.25        3334.75           6636          45.00       195.29
   93.28        3335.00           6640          52.00       225.81
   93.31        3335.25           6644          60.00       260.68
   93.33        3335.50           6648          68.00       295.56
   93.36        3335.75           6651          72.00       312.99
   93.39        3336.00           6655          83.00       360.95
   93.42        3336.25           6659         271.00      1180.51
   93.45        3336.50           6663        1960.00      8545.35
   93.48        3336.75           6666        3475.00     15154.23
   93.50        3337.00           6670        5581.00     24345.59
   93.53        3337.25           6674        7815.00     34101.13
   93.56        3337.50           6677        9679.00     42245.31
   93.59        3337.75           6681       11703.00     51093.08
   93.61        3338.00           6685       13903.00     60715.55
   93.64        3338.25           6689       16318.00     71284.81
   93.67        3338.50           6692       18179.00     79434.06
   93.70        3338.75           6696       20612.00     90094.11
   93.72        3339.00           6700       23164.00    101282.90
   93.75        3339.25           6704       25165.00    110061.20
   93.78        3339.50           6707       27023.00    118216.30
   93.81        3339.75           6711       29371.00    128527.80
   93.84        3340.00           6715       31594.00    138296.20
   93.86        3340.25           6719       33762.00    147828.50
   93.89        3340.50           6722       35122.00    153811.00
   93.93        3340.75           6726       37312.00    163449.00
   93.95        3341.00           6730       39536.00    173242.40
   93.98        3341.25           6733       40427.00    177167.60
   94.01        3341.50           6737       40625.00    178040.00
   94.04        3341.75           6741       40412.00    177101.50
   94.07        3342.00           6745       39624.00    173630.10
   94.10        3342.25           6748       38108.00    166953.60
   94.12        3342.50           6752       35839.00    156965.80
   94.15        3342.75           6756       33255.00    145598.90
   94.18        3343.00           6760       31558.00    138138.00
   94.21        3343.25           6763       29846.00    130614.60
   94.24        3343.50           6767       27540.00    120486.20
   94.26        3343.75           6771       25245.00    110412.20
   94.29        3344.00           6775       22821.00     99778.62
   94.32        3344.25           6778       20846.00     91119.72
   94.35        3344.50           6782       18684.00     81646.13
   94.38        3344.75           6786       16247.00     70973.97
   94.40        3345.00           6790       13639.00     59560.56
   94.44        3345.25           6793       12131.00     52964.65
   94.47        3345.50           6797        9952.00     43438.44
   94.50        3345.75           6801        7831.00     34171.02
   94.53        3346.00           6805        5503.00     24005.08
   94.56        3346.25           6808        3713.00     16192.70
   94.59        3346.50           6812        1330.00      5797.87
   94.62        3346.75           6816         273.00      1189.23
   94.65        3347.00           6819         125.00       544.04
   94.67        3347.25           6823          70.00       304.27
   94.70        3347.50           6827          67.00       291.20
   94.73        3347.75           6831          54.00       234.53
   94.76        3348.00           6834          60.00       260.68
   94.79        3348.25           6838          56.00       243.25
   94.82        3348.50           6842          48.00       208.37
   94.85        3348.75           6846          47.00       204.01
   94.87        3349.00           6849          50.00       217.09
   94.90        3349.25           6853          52.00       225.81
   94.93        3349.50           6857          49.00       212.73
   94.96        3349.75           6861          55.00       238.89
   94.98        3350.00           6864          55.00       238.89
   95.01        3350.25           6868          51.00       221.45
   95.04        3350.50           6872          55.00       238.89
   95.07        3350.75           6876          51.00       221.45
   95.09        3351.00           6879          51.00       221.45
HL scan finished at 01:36:34
end
