************************************************************
  HL Scan of (1) Internal mercury lamp
************************************************************
Integration time is 0.2294 seconds per sample
dh120818Delft 52.017-4.35 3.394313pr1000
************************************************************
Dead Time -------------------------  2.8E-08 
Number of Cycles Used -------------  4 
Starting Wavelength (Angstroms) ---  3331 
Final Wavelength (Angstoms) -------  3351 
Wavelength Increment (Angstroms) --  .25 
Filter Wheel #1 Position ---------- (1) Ground quartz diffuser (ND=2.32)
Filter Wheel #2 Position ---------- 



************************************************************
HL scan start time = 05:06:10
Dark Count =  1.1 


Time (GMT)  Wavelength (Ang)  Step Number  Raw Counts  Counts/Second

  306.93        3331.00           6582          68.00       291.63
  307.34        3331.25           6586          72.00       309.07
  307.37        3331.50           6589          61.00       261.12
  307.40        3331.75           6593          66.00       282.91
  307.43        3332.00           6597          70.00       300.35
  307.46        3332.25           6601          62.00       265.48
  307.49        3332.50           6604          72.00       309.07
  307.51        3332.75           6608          63.00       269.84
  307.54        3333.00           6612          65.00       278.55
  307.57        3333.25           6616          71.00       304.71
  307.60        3333.50           6619          72.00       309.07
  307.63        3333.75           6623          66.00       282.91
  307.66        3334.00           6627          71.00       304.71
  307.69        3334.25           6631          76.00       326.51
  307.72        3334.50           6634          70.00       300.35
  307.75        3334.75           6638          81.00       348.30
  307.78        3335.00           6642          88.00       378.82
  307.81        3335.25           6645          91.00       391.90
  307.84        3335.50           6649         101.00       435.49
  307.87        3335.75           6653         111.00       479.08
  307.90        3336.00           6657         192.00       832.19
  307.93        3336.25           6660         975.00      4245.93
  307.96        3336.50           6664        4380.00     19098.70
  307.99        3336.75           6668        7836.00     34186.59
  308.02        3337.00           6672       11313.00     49379.04
  308.05        3337.25           6675       13918.00     60769.84
  308.08        3337.50           6679       17192.00     75096.28
  308.11        3337.75           6683       21058.00     92028.03
  308.14        3338.00           6687       25504.00    111519.90
  308.17        3338.25           6690       28559.00    124925.80
  308.20        3338.50           6694       32250.00    141136.00
  308.23        3338.75           6698       35584.00    155791.00
  308.26        3339.00           6702       39570.00    173327.80
  308.29        3339.25           6705       42543.00    186419.10
  308.32        3339.50           6709       46155.00    202337.10
  308.35        3339.75           6713       49531.00    217227.90
  308.38        3340.00           6717       53198.00    233416.40
  308.41        3340.25           6720       56199.00    246675.70
  308.44        3340.50           6724       59580.00    261625.80
  308.47        3340.75           6728       63760.00    280126.30
  308.50        3341.00           6732       65854.00    289401.50
  308.53        3341.25           6735       66357.00    291630.20
  308.56        3341.50           6739       66383.00    291745.40
  308.59        3341.75           6743       65822.00    289259.70
  308.62        3342.00           6747       63074.00    277088.70
  308.65        3342.25           6750       61095.00    268328.90
  308.67        3342.50           6754       57846.00    253956.80
  308.71        3342.75           6758       53683.00    235558.60
  308.73        3343.00           6762       49195.00    215745.30
  308.76        3343.25           6765       46532.00    203999.30
  308.79        3343.50           6769       42745.00    187308.90
  308.82        3343.75           6773       39425.00    172689.60
  308.85        3344.00           6777       35696.00    156283.50
  308.88        3344.25           6780       32718.00    143192.40
  308.91        3344.50           6784       28789.00    125935.50
  308.94        3344.75           6788       25609.00    111980.50
  308.97        3345.00           6792       21665.00     94687.94
  309.00        3345.25           6795       18545.00     81020.13
  309.03        3345.50           6799       14298.00     62432.07
  309.06        3345.75           6803       10173.00     44396.48
  309.09        3346.00           6807        6340.00     27653.93
  309.12        3346.25           6810        3586.00     15634.13
  309.15        3346.50           6814         851.00      3705.27
  309.18        3346.75           6818         192.00       832.19
  309.21        3347.00           6822         122.00       527.03
  309.24        3347.25           6826         118.00       509.60
  309.27        3347.50           6829         101.00       435.49
  309.30        3347.75           6833          87.00       374.46
  309.33        3348.00           6837          80.00       343.94
  309.36        3348.25           6841          76.00       326.51
  309.39        3348.50           6844          73.00       313.43
  309.42        3348.75           6848          79.00       339.58
  309.45        3349.00           6852          63.00       269.84
  309.48        3349.25           6856          75.00       322.15
  309.51        3349.50           6859          68.00       291.63
  309.54        3349.75           6863          76.00       326.51
  309.57        3350.00           6867          67.00       287.27
  309.60        3350.25           6871          68.00       291.63
  309.63        3350.50           6874          70.00       300.35
  309.66        3350.75           6878          77.00       330.87
  309.69        3351.00           6882          69.00       295.99
HL scan finished at 05:11:11
end
************************************************************
  HL Scan of (1) Internal mercury lamp
************************************************************
Integration time is 0.2294 seconds per sample
dh120818Delft 52.017-4.35 3.394313pr1000
************************************************************
Dead Time -------------------------  2.8E-08 
Number of Cycles Used -------------  4 
Starting Wavelength (Angstroms) ---  3331 
Final Wavelength (Angstoms) -------  3351 
Wavelength Increment (Angstroms) --  .25 
Filter Wheel #1 Position ---------- (1) Ground quartz diffuser (ND=2.32)
Filter Wheel #2 Position ---------- 



************************************************************
HL scan start time = 06:53:26
Dark Count =  .8 


Time (GMT)  Wavelength (Ang)  Step Number  Raw Counts  Counts/Second

  414.19        3331.00           6582          63.00       271.14
  414.60        3331.25           6586          63.00       271.14
  414.63        3331.50           6589          64.00       275.50
  414.66        3331.75           6593          68.00       292.94
  414.69        3332.00           6597          66.00       284.22
  414.72        3332.25           6601          70.00       301.66
  414.75        3332.50           6604          62.00       266.78
  414.78        3332.75           6608          58.00       249.35
  414.81        3333.00           6612          67.00       288.58
  414.84        3333.25           6616          62.00       266.78
  414.87        3333.50           6619          69.00       297.30
  414.90        3333.75           6623          58.00       249.35
  414.93        3334.00           6627          69.00       297.30
  414.96        3334.25           6631          72.00       310.38
  414.99        3334.50           6634          69.00       297.30
  415.02        3334.75           6638          75.00       323.46
  415.05        3335.00           6642          84.00       362.69
  415.08        3335.25           6645          86.00       371.41
  415.11        3335.50           6649         103.00       445.52
  415.14        3335.75           6653         116.00       502.19
  415.17        3336.00           6657         194.00       842.22
  415.20        3336.25           6660         868.00      3780.70
  415.23        3336.50           6664        3673.00     16015.03
  415.26        3336.75           6668        6812.00     29716.09
  415.29        3337.00           6672       10758.00     46954.46
  415.32        3337.25           6675       14081.00     61484.14
  415.35        3337.50           6679       17600.00     76883.73
  415.38        3337.75           6683       21447.00     93733.91
  415.41        3338.00           6687       25074.00    109635.10
  415.44        3338.25           6690       28097.00    122899.10
  415.47        3338.50           6694       31872.00    139476.50
  415.50        3338.75           6698       35620.00    155950.60
  415.53        3339.00           6702       38973.00    170701.50
  415.56        3339.25           6705       41880.00    183500.10
  415.59        3339.50           6709       45621.00    199984.20
  415.62        3339.75           6713       49472.00    216968.90
  415.65        3340.00           6717       53770.00    235944.20
  415.67        3340.25           6720       56572.00    248325.70
  415.70        3340.50           6724       59545.00    261472.30
  415.73        3340.75           6728       63504.00    278994.00
  415.76        3341.00           6732       65839.00    289336.30
  415.79        3341.25           6735       66186.00    290873.80
  415.82        3341.50           6739       66509.00    292305.10
  415.85        3341.75           6743       66147.00    290701.00
  415.88        3342.00           6747       62907.00    276350.70
  415.91        3342.25           6750       60054.00    263724.00
  415.94        3342.50           6754       56433.00    247711.30
  415.97        3342.75           6758       52870.00    231969.10
  416.00        3343.00           6762       49541.00    217273.40
  416.03        3343.25           6765       46757.00    204992.80
  416.06        3343.50           6769       42956.00    188239.80
  416.09        3343.75           6773       39490.00    172977.00
  416.12        3344.00           6777       36083.00    157986.80
  416.15        3344.25           6780       33104.00    144890.00
  416.18        3344.50           6784       29047.00    127069.40
  416.21        3344.75           6788       24797.00    108420.20
  416.24        3345.00           6792       20641.00     90202.26
  416.27        3345.25           6795       17778.00     77663.03
  416.30        3345.50           6799       14197.00     61991.56
  416.33        3345.75           6803       10283.00     44878.51
  416.36        3346.00           6807        6233.00     27188.08
  416.39        3346.25           6810        3513.00     15316.94
  416.42        3346.50           6814        1008.00      4391.12
  416.45        3346.75           6818         252.00      1095.06
  416.48        3347.00           6822         125.00       541.42
  416.51        3347.25           6826         114.00       493.47
  416.54        3347.50           6829          95.00       410.64
  416.57        3347.75           6833          94.00       406.28
  416.60        3348.00           6837          88.00       380.13
  416.63        3348.25           6841          82.00       353.97
  416.66        3348.50           6844          65.00       279.86
  416.69        3348.75           6848          70.00       301.66
  416.72        3349.00           6852          73.00       314.74
  416.75        3349.25           6856          71.00       306.02
  416.78        3349.50           6859          75.00       323.46
  416.81        3349.75           6863          70.00       301.66
  416.83        3350.00           6867          64.00       275.50
  416.86        3350.25           6871          67.00       288.58
  416.89        3350.50           6874          70.00       301.66
  416.92        3350.75           6878          65.00       279.86
  416.95        3351.00           6882          70.00       301.66
HL scan finished at 06:58:27
end
************************************************************
  HL Scan of (1) Internal mercury lamp
************************************************************
Integration time is 0.2294 seconds per sample
dh120818Delft 52.017-4.35 3.394313pr1000
************************************************************
Dead Time -------------------------  2.8E-08 
Number of Cycles Used -------------  4 
Starting Wavelength (Angstroms) ---  3331 
Final Wavelength (Angstoms) -------  3351 
Wavelength Increment (Angstroms) --  .25 
Filter Wheel #1 Position ---------- (1) Ground quartz diffuser (ND=2.32)
Filter Wheel #2 Position ---------- 



************************************************************
HL scan start time = 08:40:43
Dark Count =  .7 


Time (GMT)  Wavelength (Ang)  Step Number  Raw Counts  Counts/Second

  521.49        3331.00           6582          62.00       267.22
  521.90        3331.25           6586          61.00       262.86
  521.93        3331.50           6589          71.00       306.45
  521.96        3331.75           6593          65.00       280.30
  521.99        3332.00           6597          63.00       271.58
  522.02        3332.25           6601          68.00       293.38
  522.05        3332.50           6604          61.00       262.86
  522.08        3332.75           6608          62.00       267.22
  522.11        3333.00           6612          69.00       297.74
  522.14        3333.25           6616          64.00       275.94
  522.17        3333.50           6619          65.00       280.30
  522.20        3333.75           6623          67.00       289.02
  522.23        3334.00           6627          69.00       297.74
  522.26        3334.25           6631          71.00       306.45
  522.29        3334.50           6634          70.00       302.10
  522.32        3334.75           6638          80.00       345.69
  522.34        3335.00           6642          89.00       384.92
  522.37        3335.25           6645          84.00       363.12
  522.40        3335.50           6649          95.00       411.08
  522.43        3335.75           6653         119.00       515.70
  522.46        3336.00           6657         167.00       724.95
  522.49        3336.25           6660         698.00      3039.93
  522.52        3336.50           6664        4164.00     18157.88
  522.55        3336.75           6668        7817.00     34105.35
  522.58        3337.00           6672       11214.00     48948.04
  522.61        3337.25           6675       13903.00     60705.98
  522.64        3337.50           6679       17457.00     76258.13
  522.67        3337.75           6683       21671.00     94716.00
  522.70        3338.00           6687       25048.00    109521.50
  522.73        3338.25           6690       27913.00    122091.90
  522.76        3338.50           6694       31920.00    139687.80
  522.79        3338.75           6698       35567.00    155718.00
  522.82        3339.00           6702       39977.00    175121.20
  522.85        3339.25           6705       42686.00    187050.80
  522.88        3339.50           6709       46403.00    203432.30
  522.91        3339.75           6713       50368.00    220923.40
  522.94        3340.00           6717       54164.00    237685.20
  522.97        3340.25           6720       56585.00    248383.60
  523.00        3340.50           6724       59939.00    263215.70
  523.03        3340.75           6728       63154.00    277444.70
  523.06        3341.00           6732       65679.00    288627.90
  523.09        3341.25           6735       66722.00    293249.40
  523.12        3341.50           6739       66557.00    292518.20
  523.15        3341.75           6743       65699.00    288716.50
  523.18        3342.00           6747       62906.00    276346.70
  523.21        3342.25           6750       60273.00    264693.40
  523.24        3342.50           6754       56898.00    249767.20
  523.27        3342.75           6758       53145.00    233184.10
  523.30        3343.00           6762       49681.00    217891.60
  523.33        3343.25           6765       47147.00    206713.10
  523.36        3343.50           6769       43360.00    190020.10
  523.39        3343.75           6773       39684.00    173831.40
  523.42        3344.00           6777       35462.00    155256.30
  523.45        3344.25           6780       32229.00    141045.50
  523.48        3344.50           6784       28483.00    124593.90
  523.51        3344.75           6788       24634.00    107705.80
  523.54        3345.00           6792       20355.00     88949.69
  523.57        3345.25           6795       17395.00     75986.71
  523.60        3345.50           6799       13985.00     61064.65
  523.63        3345.75           6803       10567.00     46120.12
  523.66        3346.00           6807        7097.00     30961.01
  523.69        3346.25           6810        4154.00     18114.24
  523.72        3346.50           6814        1046.00      4557.25
  523.75        3346.75           6818         212.00       921.12
  523.78        3347.00           6822         113.00       489.54
  523.81        3347.25           6826         102.00       441.59
  523.84        3347.50           6829         106.00       459.03
  523.86        3347.75           6833          92.00       398.00
  523.89        3348.00           6837          93.00       402.36
  523.92        3348.25           6841          88.00       380.56
  523.95        3348.50           6844          87.00       376.20
  523.98        3348.75           6848          75.00       323.89
  524.01        3349.00           6852          84.00       363.12
  524.04        3349.25           6856          66.00       284.66
  524.07        3349.50           6859          67.00       289.02
  524.10        3349.75           6863          67.00       289.02
  524.13        3350.00           6867          70.00       302.10
  524.16        3350.25           6871          76.00       328.25
  524.19        3350.50           6874          64.00       275.94
  524.22        3350.75           6878          71.00       306.45
  524.25        3351.00           6882          66.00       284.66
HL scan finished at 08:45:45
end
************************************************************
  HL Scan of (1) Internal mercury lamp
************************************************************
Integration time is 0.2294 seconds per sample
dh120818Delft 52.017-4.35 3.394313pr1000
************************************************************
Dead Time -------------------------  2.8E-08 
Number of Cycles Used -------------  4 
Starting Wavelength (Angstroms) ---  3331 
Final Wavelength (Angstoms) -------  3351 
Wavelength Increment (Angstroms) --  .25 
Filter Wheel #1 Position ---------- (1) Ground quartz diffuser (ND=2.32)
Filter Wheel #2 Position ---------- 



************************************************************
HL scan start time = 10:28:00
Dark Count =  1.1 


