************************************************************
  HL Scan of (1) Internal mercury lamp
************************************************************
Integration time is 0.2294 seconds per sample
dh110818Delft 52.017-4.35 3.340665pr1000
************************************************************
Dead Time -------------------------  2.8E-08 
Number of Cycles Used -------------  4 
Starting Wavelength (Angstroms) ---  3331 
Final Wavelength (Angstoms) -------  3351 
Wavelength Increment (Angstroms) --  .25 
Filter Wheel #1 Position ---------- (1) Ground quartz diffuser (ND=2.32)
Filter Wheel #2 Position ---------- 



************************************************************
HL scan start time = 05:04:33
Dark Count =  1 


Time (GMT)  Wavelength (Ang)  Step Number  Raw Counts  Counts/Second

  305.31        3331.00           6582          68.00       292.07
  305.72        3331.25           6586          67.00       287.71
  305.75        3331.50           6589          58.00       248.48
  305.78        3331.75           6593          62.00       265.91
  305.81        3332.00           6597          67.00       287.71
  305.84        3332.25           6601          71.00       305.15
  305.87        3332.50           6604          73.00       313.87
  305.90        3332.75           6608          69.00       296.43
  305.93        3333.00           6612          71.00       305.15
  305.96        3333.25           6616          60.00       257.19
  305.98        3333.50           6619          66.00       283.35
  306.01        3333.75           6623          68.00       292.07
  306.04        3334.00           6627          70.00       300.79
  306.07        3334.25           6631          67.00       287.71
  306.10        3334.50           6634          70.00       300.79
  306.13        3334.75           6638          71.00       305.15
  306.16        3335.00           6642          81.00       348.74
  306.19        3335.25           6645          85.00       366.18
  306.22        3335.50           6649          97.00       418.49
  306.25        3335.75           6653         104.00       449.00
  306.28        3336.00           6657         173.00       749.80
  306.31        3336.25           6660         608.00      2646.23
  306.34        3336.50           6664        3490.00     15215.72
  306.37        3336.75           6668        7312.00     31898.58
  306.40        3337.00           6672       11352.00     49549.96
  306.43        3337.25           6675       14238.00     62170.03
  306.46        3337.50           6679       17274.00     75455.68
  306.49        3337.75           6683       20775.00     90788.48
  306.52        3338.00           6687       24810.00    108476.30
  306.55        3338.25           6690       28035.00    122626.10
  306.58        3338.50           6694       31411.00    137450.40
  306.61        3338.75           6698       34905.00    152805.90
  306.64        3339.00           6702       38692.00    169463.90
  306.67        3339.25           6705       41319.00    181028.60
  306.70        3339.50           6709       45393.00    198978.20
  306.73        3339.75           6713       49459.00    216910.60
  306.76        3340.00           6717       52916.00    232171.40
  306.79        3340.25           6720       55728.00    244594.50
  306.82        3340.50           6724       59545.00    261471.40
  306.85        3340.75           6728       62907.00    276349.80
  306.88        3341.00           6732       65040.00    285795.80
  306.91        3341.25           6735       65614.00    288338.60
  306.94        3341.50           6739       65758.00    288976.50
  306.97        3341.75           6743       64970.00    285485.70
  307.00        3342.00           6747       61623.00    270666.00
  307.03        3342.25           6750       59075.00    259392.40
  307.06        3342.50           6754       56092.00    246203.20
  307.09        3342.75           6758       52501.00    230338.70
  307.12        3343.00           6762       48744.00    213756.00
  307.15        3343.25           6765       45934.00    201363.20
  307.18        3343.50           6769       42470.00    186098.00
  307.21        3343.75           6773       39163.00    171536.80
  307.24        3344.00           6777       35567.00    155716.70
  307.27        3344.25           6780       32375.00    141685.60
  307.29        3344.50           6784       28161.00    123179.10
  307.33        3344.75           6788       24162.00    105634.60
  307.35        3345.00           6792       20522.00     89680.02
  307.38        3345.25           6795       17766.00     77609.63
  307.41        3345.50           6799       13802.00     60262.90
  307.44        3345.75           6803        9724.00     42434.87
  307.47        3346.00           6807        6443.00     28104.06
  307.50        3346.25           6810        3830.00     16699.18
  307.53        3346.50           6814        1040.00      4529.78
  307.56        3346.75           6818         246.00      1068.04
  307.59        3347.00           6822         130.00       562.35
  307.62        3347.25           6826         105.00       453.36
  307.65        3347.50           6829          99.00       427.21
  307.68        3347.75           6833          86.00       370.54
  307.71        3348.00           6837          95.00       409.77
  307.74        3348.25           6841          77.00       331.30
  307.77        3348.50           6844          68.00       292.07
  307.80        3348.75           6848          69.00       296.43
  307.83        3349.00           6852          65.00       278.99
  307.86        3349.25           6856          70.00       300.79
  307.89        3349.50           6859          76.00       326.94
  307.92        3349.75           6863          76.00       326.94
  307.95        3350.00           6867          75.00       322.58
  307.98        3350.25           6871          65.00       278.99
  308.01        3350.50           6874          71.00       305.15
  308.04        3350.75           6878          74.00       318.22
  308.07        3351.00           6882          80.00       344.38
HL scan finished at 05:09:34
end
************************************************************
  HL Scan of (1) Internal mercury lamp
************************************************************
Integration time is 0.2294 seconds per sample
dh110818Delft 52.017-4.35 3.340665pr1000
************************************************************
Dead Time -------------------------  2.8E-08 
Number of Cycles Used -------------  4 
Starting Wavelength (Angstroms) ---  3331 
Final Wavelength (Angstoms) -------  3351 
Wavelength Increment (Angstroms) --  .25 
Filter Wheel #1 Position ---------- (1) Ground quartz diffuser (ND=2.32)
Filter Wheel #2 Position ---------- 



************************************************************
HL scan start time = 06:51:48
Dark Count =  1.2 


Time (GMT)  Wavelength (Ang)  Step Number  Raw Counts  Counts/Second

  412.56        3331.00           6582          62.00       265.04
  412.97        3331.25           6586          66.00       282.48
  413.00        3331.50           6589          68.00       291.20
  413.03        3331.75           6593          65.00       278.12
  413.06        3332.00           6597          63.00       269.40
  413.09        3332.25           6601          65.00       278.12
  413.12        3332.50           6604          65.00       278.12
  413.15        3332.75           6608          68.00       291.20
  413.18        3333.00           6612          56.00       238.89
  413.21        3333.25           6616          68.00       291.20
  413.24        3333.50           6619          66.00       282.48
  413.27        3333.75           6623          67.00       286.84
  413.30        3334.00           6627          65.00       278.12
  413.33        3334.25           6631          72.00       308.63
  413.36        3334.50           6634          74.00       317.35
  413.39        3334.75           6638          79.00       339.15
  413.42        3335.00           6642          84.00       360.95
  413.45        3335.25           6645          96.00       413.26
  413.48        3335.50           6649         108.00       465.57
  413.51        3335.75           6653         109.00       469.93
  413.54        3336.00           6657         159.00       687.89
  413.57        3336.25           6660         893.00      3887.96
  413.60        3336.50           6664        3979.00     17348.44
  413.63        3336.75           6668        7343.00     32033.08
  413.66        3337.00           6672       10710.00     46742.92
  413.69        3337.25           6675       13652.00     59605.94
  413.72        3337.50           6679       17473.00     76325.99
  413.75        3337.75           6683       21069.00     92075.80
  413.78        3338.00           6687       24540.00    107291.30
  413.81        3338.25           6690       27506.00    120303.40
  413.84        3338.50           6694       31074.00    135969.10
  413.87        3338.75           6698       35424.00    155087.00
  413.90        3339.00           6702       39259.00    171958.50
  413.93        3339.25           6705       41807.00    183176.90
  413.96        3339.50           6709       45615.00    199956.00
  413.99        3339.75           6713       49253.00    216000.80
  414.02        3340.00           6717       52809.00    231698.00
  414.05        3340.25           6720       55179.00    242167.50
  414.07        3340.50           6724       58516.00    256919.20
  414.10        3340.75           6728       62041.00    272515.30
  414.13        3341.00           6732       64535.00    283558.10
  414.16        3341.25           6735       64991.00    285577.90
  414.19        3341.50           6739       65351.00    287172.60
  414.22        3341.75           6743       64665.00    284133.90
  414.25        3342.00           6747       61606.00    270589.90
  414.28        3342.25           6750       59419.00    260913.10
  414.31        3342.50           6754       55727.00    244589.20
  414.34        3342.75           6758       52261.00    229278.00
  414.37        3343.00           6762       48752.00    213790.40
  414.40        3343.25           6765       46053.00    201886.90
  414.43        3343.50           6769       42228.00    185031.10
  414.46        3343.75           6773       38663.00    169335.40
  414.49        3344.00           6777       34543.00    151213.40
  414.52        3344.25           6780       31717.00    138793.80
  414.55        3344.50           6784       27726.00    121269.00
  414.58        3344.75           6788       23963.00    104761.10
  414.61        3345.00           6792       20077.00     87729.62
  414.64        3345.25           6795       17443.00     76194.65
  414.67        3345.50           6799       14237.00     62164.78
  414.70        3345.75           6803       10375.00     45278.82
  414.73        3346.00           6807        6821.00     29753.63
  414.76        3346.25           6810        3683.00     16056.91
  414.79        3346.50           6814         891.00      3879.24
  414.82        3346.75           6818         211.00       914.58
  414.85        3347.00           6822         109.00       469.93
  414.88        3347.25           6826         105.00       452.49
  414.91        3347.50           6829          96.00       413.26
  414.94        3347.75           6833          88.00       378.38
  414.97        3348.00           6837          82.00       352.23
  415.00        3348.25           6841          81.00       347.87
  415.03        3348.50           6844          74.00       317.35
  415.06        3348.75           6848          80.00       343.51
  415.09        3349.00           6852          75.00       321.71
  415.12        3349.25           6856          67.00       286.84
  415.15        3349.50           6859          70.00       299.92
  415.17        3349.75           6863          70.00       299.92
  415.20        3350.00           6867          64.00       273.76
  415.23        3350.25           6871          75.00       321.71
  415.26        3350.50           6874          70.00       299.92
  415.29        3350.75           6878          76.00       326.07
  415.32        3351.00           6882          68.00       291.20
HL scan finished at 06:56:49
end
************************************************************
  HL Scan of (1) Internal mercury lamp
************************************************************
Integration time is 0.2294 seconds per sample
dh110818Delft 52.017-4.35 3.340665pr1000
************************************************************
Dead Time -------------------------  2.8E-08 
Number of Cycles Used -------------  4 
Starting Wavelength (Angstroms) ---  3331 
Final Wavelength (Angstoms) -------  3351 
Wavelength Increment (Angstroms) --  .25 
Filter Wheel #1 Position ---------- (1) Ground quartz diffuser (ND=2.32)
Filter Wheel #2 Position ---------- 



************************************************************
HL scan start time = 08:39:04
Dark Count =  1 


Time (GMT)  Wavelength (Ang)  Step Number  Raw Counts  Counts/Second

  519.83        3331.00           6582          60.00       257.19
  520.24        3331.25           6586          65.00       278.99
  520.27        3331.50           6589          71.00       305.15
  520.30        3331.75           6593          68.00       292.07
  520.33        3332.00           6597          59.00       252.84
  520.36        3332.25           6601          71.00       305.15
  520.39        3332.50           6604          62.00       265.91
  520.42        3332.75           6608          57.00       244.12
  520.45        3333.00           6612          68.00       292.07
  520.48        3333.25           6616          70.00       300.79
  520.51        3333.50           6619          64.00       274.63
  520.54        3333.75           6623          63.00       270.27
  520.57        3334.00           6627          69.00       296.43
  520.60        3334.25           6631          65.00       278.99
  520.63        3334.50           6634          67.00       287.71
  520.66        3334.75           6638          77.00       331.30
  520.69        3335.00           6642          81.00       348.74
  520.72        3335.25           6645          87.00       374.89
  520.75        3335.50           6649          97.00       418.49
  520.78        3335.75           6653         114.00       492.60
  520.81        3336.00           6657         158.00       684.41
  520.84        3336.25           6660         568.00      2471.84
  520.87        3336.50           6664        3644.00     15887.63
  520.90        3336.75           6668        7296.00     31828.70
  520.93        3337.00           6672       10564.00     46105.69
  520.96        3337.25           6675       13233.00     57774.30
  520.99        3337.50           6679       16882.00     73739.72
  521.02        3337.75           6683       20593.00     89991.08
  521.05        3338.00           6687       24827.00    108550.90
  521.08        3338.25           6690       28008.00    122507.60
  521.11        3338.50           6694       31757.00    138970.40
  521.14        3338.75           6698       35768.00    156600.60
  521.17        3339.00           6702       39491.00    172980.50
  521.20        3339.25           6705       41856.00    183393.50
  521.23        3339.50           6709       45377.00    198907.70
  521.26        3339.75           6713       48871.00    214316.20
  521.29        3340.00           6717       52344.00    229645.40
  521.31        3340.25           6720       55869.00    245217.60
  521.35        3340.50           6724       58933.00    258764.40
  521.38        3340.75           6728       62683.00    275358.10
  521.40        3341.00           6732       64616.00    283917.70
  521.43        3341.25           6735       65038.00    285786.90
  521.46        3341.50           6739       65038.00    285786.90
  521.49        3341.75           6743       64361.00    282788.30
  521.52        3342.00           6747       61685.00    270940.50
  521.55        3342.25           6750       59400.00    260830.00
  521.58        3342.50           6754       56104.00    246256.20
  521.61        3342.75           6758       52046.00    228329.60
  521.64        3343.00           6762       48178.00    211259.10
  521.67        3343.25           6765       45066.00    197536.80
  521.70        3343.50           6769       41581.00    182182.40
  521.73        3343.75           6773       38042.00    166603.60
  521.76        3344.00           6777       34028.00    148950.40
  521.79        3344.25           6780       31116.00    136154.50
  521.82        3344.50           6784       27634.00    120866.10
  521.85        3344.75           6788       24145.00    105560.00
  521.88        3345.00           6792       20508.00     89618.68
  521.91        3345.25           6795       17883.00     78121.88
  521.94        3345.50           6799       13866.00     60542.83
  521.97        3345.75           6803        9669.00     42194.55
  522.00        3346.00           6807        6253.00     27274.53
  522.03        3346.25           6810        3662.00     15966.16
  522.06        3346.50           6814        1000.00      4355.37
  522.09        3346.75           6818         203.00       880.58
  522.12        3347.00           6822         118.00       510.03
  522.15        3347.25           6826         116.00       501.31
  522.18        3347.50           6829          99.00       427.21
  522.21        3347.75           6833         101.00       435.93
  522.24        3348.00           6837          84.00       361.82
  522.27        3348.25           6841          83.00       357.46
  522.30        3348.50           6844          72.00       309.51
  522.33        3348.75           6848          73.00       313.87
  522.36        3349.00           6852          80.00       344.38
  522.39        3349.25           6856          63.00       270.27
  522.42        3349.50           6859          64.00       274.63
  522.44        3349.75           6863          74.00       318.22
  522.47        3350.00           6867          60.00       257.19
  522.50        3350.25           6871          61.00       261.55
  522.53        3350.50           6874          60.00       257.19
  522.56        3350.75           6878          71.00       305.15
  522.59        3351.00           6882          68.00       292.07
HL scan finished at 08:44:05
end
************************************************************
  HL Scan of (1) Internal mercury lamp
************************************************************
Integration time is 0.2294 seconds per sample
dh110818Delft 52.017-4.35 3.340665pr1000
************************************************************
Dead Time -------------------------  2.8E-08 
Number of Cycles Used -------------  4 
Starting Wavelength (Angstroms) ---  3331 
Final Wavelength (Angstoms) -------  3351 
Wavelength Increment (Angstroms) --  .25 
Filter Wheel #1 Position ---------- (1) Ground quartz diffuser (ND=2.32)
Filter Wheel #2 Position ---------- 



************************************************************
HL scan start time = 10:26:20
Dark Count =  .8 


