************************************************************
  HS Scan of (1) Internal mercury lamp
************************************************************
Integration time is 0.2294 seconds per sample
dh070117DelftKZ 51.997-4.386 2.160408pr1000
************************************************************
Dead Time -------------------------  3E-08 
Number of Cycles Used -------------  4 
Starting Wavelength (Angstroms) ---  2950 
Final Wavelength (Angstoms) -------  2984 
Wavelength Increment (Angstroms) --  .25 
Filter Wheel #1 Position ---------- (1) Ground quartz diffuser (ND=2.32)
Filter Wheel #2 Position ---------- (1) Neutral Density 0.494



************************************************************
HS scan start time = 06:18:56
Dark Count =  0 


Time (GMT)  Wavelength (Ang)  Step Number  Raw Counts  Counts/Second

  379.38        2950.00           1229         134.00       584.14
  379.48        2950.25           1232         136.00       592.86
  379.50        2950.50           1236         136.00       592.86
  379.53        2950.75           1239         123.00       536.19
  379.56        2951.00           1242         123.00       536.19
  379.59        2951.25           1246         127.00       553.63
  379.62        2951.50           1249         131.00       571.06
  379.64        2951.75           1252         131.00       571.06
  379.67        2952.00           1255         132.00       575.42
  379.70        2952.25           1259         116.00       505.67
  379.73        2952.50           1262         137.00       597.22
  379.75        2952.75           1265         134.00       584.14
  379.78        2953.00           1269         128.00       557.99
  379.81        2953.25           1272         121.00       527.47
  379.84        2953.50           1275         142.00       619.02
  379.86        2953.75           1279         135.00       588.50
  379.89        2954.00           1282         128.00       557.99
  379.92        2954.25           1285         122.00       531.83
  379.95        2954.50           1289         128.00       557.99
  379.97        2954.75           1292         128.00       557.99
  380.00        2955.00           1295         129.00       562.35
  380.03        2955.25           1299         126.00       549.27
  380.06        2955.50           1302         127.00       553.63
  380.09        2955.75           1305         131.00       571.06
  380.11        2956.00           1309         120.00       523.11
  380.14        2956.25           1312         129.00       562.35
  380.17        2956.50           1315         133.00       579.78
  380.20        2956.75           1319         127.00       553.63
  380.22        2957.00           1322         138.00       601.58
  380.25        2957.25           1325         128.00       557.99
  380.28        2957.50           1329         129.00       562.35
  380.31        2957.75           1332         131.00       571.06
  380.33        2958.00           1335         119.00       518.75
  380.36        2958.25           1339         126.00       549.27
  380.39        2958.50           1342         126.00       549.27
  380.42        2958.75           1345         133.00       579.78
  380.45        2959.00           1349         121.00       527.47
  380.48        2959.25           1352         128.00       557.99
  380.51        2959.50           1355         128.00       557.99
  380.54        2959.75           1359         130.00       566.71
  380.56        2960.00           1362         130.00       566.71
  380.59        2960.25           1365         136.00       592.86
  380.62        2960.50           1369         139.00       605.94
  380.65        2960.75           1372         140.00       610.30
  380.68        2961.00           1375         145.00       632.10
  380.71        2961.25           1379         148.00       645.17
  380.74        2961.50           1382         215.00       937.25
  380.76        2961.75           1385         576.00      2511.09
  380.79        2962.00           1389        1910.00      8328.15
  380.82        2962.25           1392        3498.00     15255.46
  380.85        2962.50           1395        4910.00     21417.42
  380.87        2962.75           1399        7347.00     32057.85
  380.90        2963.00           1402        9655.00     42141.30
  380.93        2963.25           1405       11769.00     51382.55
  380.96        2963.50           1409       14486.00     63267.32
  380.99        2963.75           1412       16716.00     73028.16
  381.01        2964.00           1415       18525.00     80950.50
  381.04        2964.25           1419       21174.00     92558.31
  381.07        2964.50           1422       23275.00    101770.60
  381.10        2964.75           1425       25306.00    110680.80
  381.12        2965.00           1429       27774.00    121514.50
  381.15        2965.25           1432       29437.00    128818.60
  381.18        2965.50           1435       31048.00    135897.30
  381.21        2965.75           1439       33192.00    145322.70
  381.24        2966.00           1442       35147.00    153921.90
  381.26        2966.25           1445       37473.00    164158.70
  381.29        2966.50           1449       39885.00    174780.70
  381.32        2966.75           1452       40657.00    178181.80
  381.35        2967.00           1455       40915.00    179318.70
  381.37        2967.25           1459       41080.00    180045.70
  381.40        2967.50           1462       41099.00    180129.50
  381.43        2967.75           1465       40770.00    178679.70
  381.46        2968.00           1469       40196.00    176150.80
  381.49        2968.25           1472       39336.00    172362.40
  381.51        2968.50           1475       37880.00    165950.60
  381.54        2968.75           1479       35711.00    156403.50
  381.57        2969.00           1482       33785.00    147930.60
  381.60        2969.25           1485       31763.00    139040.00
  381.62        2969.50           1489       28930.00    126591.50
  381.65        2969.75           1492       27123.00    118656.20
  381.68        2970.00           1495       25242.00    110399.90
  381.71        2970.25           1499       22662.00     99082.22
  381.74        2970.50           1502       20482.00     89525.21
  381.77        2970.75           1505       18704.00     81734.60
  381.80        2971.00           1509       16595.00     72498.41
  381.83        2971.25           1512       14669.00     64068.10
  381.86        2971.50           1515       12872.00     56206.30
  381.89        2971.75           1519       10115.00     44151.74
  381.91        2972.00           1522        8061.00     35176.60
  381.94        2972.25           1525        6261.00     27315.32
  381.97        2972.50           1529        4080.00     17795.02
  382.00        2972.75           1532        2412.00     10517.70
  382.03        2973.00           1536         929.00      4050.19
  382.06        2973.25           1539         391.00      1704.53
  382.09        2973.50           1542         176.00       767.24
  382.11        2973.75           1546         140.00       610.30
  382.14        2974.00           1549         142.00       619.02
  382.17        2974.25           1552         130.00       566.71
  382.20        2974.50           1556         129.00       562.35
  382.22        2974.75           1559         116.00       505.67
  382.25        2975.00           1562         115.00       501.32
  382.28        2975.25           1566         113.00       492.60
  382.31        2975.50           1569         118.00       514.39
  382.33        2975.75           1572         113.00       492.60
  382.36        2976.00           1576         116.00       505.67
  382.39        2976.25           1579         116.00       505.67
  382.42        2976.50           1582         107.00       466.44
  382.44        2976.75           1586         104.00       453.36
  382.47        2977.00           1589         113.00       492.60
  382.50        2977.25           1592         100.00       435.93
  382.53        2977.50           1596         108.00       470.80
  382.55        2977.75           1599         106.00       462.08
  382.58        2978.00           1602         108.00       470.80
  382.61        2978.25           1606         109.00       475.16
  382.64        2978.50           1609         113.00       492.60
  382.67        2978.75           1612         101.00       440.28
  382.69        2979.00           1616         106.00       462.08
  382.72        2979.25           1619         116.00       505.67
  382.75        2979.50           1623         107.00       466.44
  382.78        2979.75           1626         111.00       483.88
  382.80        2980.00           1629         111.00       483.88
  382.83        2980.25           1633         120.00       523.11
  382.86        2980.50           1636         109.00       475.16
  382.89        2980.75           1639         118.00       514.39
  382.91        2981.00           1643         102.00       444.64
  382.94        2981.25           1646         103.00       449.00
  382.97        2981.50           1649         105.00       457.72
  383.00        2981.75           1653         111.00       483.88
  383.02        2982.00           1656         100.00       435.93
  383.05        2982.25           1659         105.00       457.72
  383.08        2982.50           1663         102.00       444.64
  383.11        2982.75           1666         104.00       453.36
  383.13        2983.00           1669         111.00       483.88
  383.17        2983.25           1673         110.00       479.52
  383.20        2983.50           1676         108.00       470.80
  383.23        2983.75           1679         108.00       470.80
  383.26        2984.00           1683         101.00       440.28
HS scan finished at 06:23:33
end
