************************************************************
  HS Scan of (1) Internal mercury lamp
************************************************************
Integration time is 0.2294 seconds per sample
dh090118Abu Dhabi 24.34-54.64 3.126073pr1000
************************************************************
Dead Time -------------------------  2.7E-08 
Number of Cycles Used -------------  4 
Starting Wavelength (Angstroms) ---  2950 
Final Wavelength (Angstoms) -------  2984 
Wavelength Increment (Angstroms) --  .25 
Filter Wheel #1 Position ---------- (1) Ground quartz diffuser (ND=2.32)
Filter Wheel #2 Position ---------- (1) Neutral Density 0.494



************************************************************
HS scan start time = 14:44:48
Dark Count =  .2 


Time (GMT)  Wavelength (Ang)  Step Number  Raw Counts  Counts/Second

  885.26        2950.00           1229         115.00       500.44
  885.36        2950.25           1232         113.00       491.72
  885.39        2950.50           1236         106.00       461.21
  885.42        2950.75           1239         120.00       522.24
  885.45        2951.00           1242         107.00       465.57
  885.48        2951.25           1246         112.00       487.36
  885.51        2951.50           1249         116.00       504.80
  885.54        2951.75           1252         108.00       469.93
  885.57        2952.00           1255         120.00       522.24
  885.60        2952.25           1259         108.00       469.93
  885.63        2952.50           1262         114.00       496.08
  885.66        2952.75           1265         115.00       500.44
  885.69        2953.00           1269         100.00       435.05
  885.72        2953.25           1272         109.00       474.29
  885.75        2953.50           1275          97.00       421.98
  885.78        2953.75           1279          97.00       421.98
  885.80        2954.00           1282         102.00       443.77
  885.83        2954.25           1285         107.00       465.57
  885.86        2954.50           1289         103.00       448.13
  885.89        2954.75           1292         102.00       443.77
  885.92        2955.00           1295         118.00       513.52
  885.95        2955.25           1299         104.00       452.49
  885.98        2955.50           1302         103.00       448.13
  886.01        2955.75           1305         106.00       461.21
  886.04        2956.00           1309         113.00       491.72
  886.07        2956.25           1312         112.00       487.36
  886.10        2956.50           1315         109.00       474.29
  886.13        2956.75           1319         106.00       461.21
  886.16        2957.00           1322         104.00       452.49
  886.19        2957.25           1325         106.00       461.21
  886.22        2957.50           1329         103.00       448.13
  886.25        2957.75           1332         117.00       509.16
  886.28        2958.00           1335         119.00       517.88
  886.31        2958.25           1339         105.00       456.85
  886.34        2958.50           1342         105.00       456.85
  886.37        2958.75           1345         105.00       456.85
  886.40        2959.00           1349         107.00       465.57
  886.42        2959.25           1352         110.00       478.65
  886.45        2959.50           1355         104.00       452.49
  886.48        2959.75           1359         106.00       461.21
  886.51        2960.00           1362         104.00       452.49
  886.54        2960.25           1365         106.00       461.21
  886.57        2960.50           1369         113.00       491.72
  886.60        2960.75           1372         118.00       513.52
  886.63        2961.00           1375         122.00       530.96
  886.66        2961.25           1379         140.00       609.43
  886.69        2961.50           1382         188.00       818.68
  886.72        2961.75           1385         771.00      3360.37
  886.75        2962.00           1389        2849.00     12422.65
  886.78        2962.25           1392        4705.00     20520.52
  886.81        2962.50           1395        7385.00     32219.82
  886.84        2962.75           1399       11755.00     51312.54
  886.87        2963.00           1402       14615.00     63818.68
  886.90        2963.25           1405       17995.00     78609.56
  886.93        2963.50           1409       22604.00     98797.64
  886.96        2963.75           1412       25678.00    112274.50
  886.99        2964.00           1415       29043.00    127038.30
  887.02        2964.25           1419       33248.00    145504.30
  887.05        2964.50           1422       36275.00    158808.50
  887.08        2964.75           1425       39456.00    172800.00
  887.10        2965.00           1429       43169.00    189144.80
  887.13        2965.25           1432       45940.00    201352.40
  887.17        2965.50           1435       48658.00    213334.30
  887.19        2965.75           1439       52805.00    231630.70
  887.22        2966.00           1442       55895.00    245275.50
  887.25        2966.25           1445       58750.00    257891.50
  887.28        2966.50           1449       62266.00    273440.30
  887.31        2966.75           1452       64039.00    281286.00
  887.34        2967.00           1455       65087.00    285925.10
  887.37        2967.25           1459       65150.00    286204.00
  887.40        2967.50           1462       65025.00    285650.60
  887.43        2967.75           1465       65046.00    285743.60
  887.46        2968.00           1469       64560.00    283592.10
  887.49        2968.25           1472       62788.00    275749.90
  887.52        2968.50           1475       60408.00    265222.00
  887.55        2968.75           1479       56540.00    248124.90
  887.58        2969.00           1482       53196.00    233356.70
  887.61        2969.25           1485       49989.00    219204.60
  887.64        2969.50           1489       46313.00    202996.20
  887.67        2969.75           1492       43464.00    190444.10
  887.70        2970.00           1495       40323.00    176615.30
  887.73        2970.25           1499       36058.00    157854.40
  887.76        2970.50           1502       33590.00    147006.90
  887.79        2970.75           1505       30797.00    134738.60
  887.82        2971.00           1509       26764.00    117038.00
  887.85        2971.25           1512       23615.00    103228.90
  887.88        2971.50           1515       20140.00     88002.24
  887.91        2971.75           1519       15804.00     69020.40
  887.94        2972.00           1522       12993.00     56725.00
  887.97        2972.25           1525       10138.00     44245.50
  887.99        2972.50           1529        6334.00     27630.90
  888.02        2972.75           1532        3551.00     15485.11
  888.05        2973.00           1536        1064.00      4637.90
  888.08        2973.25           1539         396.00      1725.45
  888.11        2973.50           1542         198.00       862.27
  888.14        2973.75           1546         141.00       613.79
  888.17        2974.00           1549         146.00       635.58
  888.20        2974.25           1552         141.00       613.79
  888.23        2974.50           1556         123.00       535.32
  888.26        2974.75           1559         126.00       548.40
  888.29        2975.00           1562         101.00       439.41
  888.32        2975.25           1566         107.00       465.57
  888.35        2975.50           1569          99.00       430.69
  888.38        2975.75           1572         109.00       474.29
  888.41        2976.00           1576         106.00       461.21
  888.44        2976.25           1579         105.00       456.85
  888.47        2976.50           1582         102.00       443.77
  888.50        2976.75           1586          89.00       387.10
  888.53        2977.00           1589          96.00       417.62
  888.56        2977.25           1592         101.00       439.41
  888.59        2977.50           1596         100.00       435.05
  888.62        2977.75           1599          89.00       387.10
  888.64        2978.00           1602          96.00       417.62
  888.67        2978.25           1606         107.00       465.57
  888.70        2978.50           1609          95.00       413.26
  888.73        2978.75           1612          98.00       426.33
  888.76        2979.00           1616          92.00       400.18
  888.79        2979.25           1619          97.00       421.98
  888.82        2979.50           1623         102.00       443.77
  888.85        2979.75           1626         107.00       465.57
  888.88        2980.00           1629          97.00       421.98
  888.91        2980.25           1633          96.00       417.62
  888.94        2980.50           1636          97.00       421.98
  888.97        2980.75           1639          94.00       408.90
  889.00        2981.00           1643          95.00       413.26
  889.03        2981.25           1646         100.00       435.05
  889.06        2981.50           1649          94.00       408.90
  889.09        2981.75           1653          98.00       426.33
  889.12        2982.00           1656          94.00       408.90
  889.15        2982.25           1659          99.00       430.69
  889.18        2982.50           1663          89.00       387.10
  889.21        2982.75           1666          93.00       404.54
  889.23        2983.00           1669         104.00       452.49
  889.26        2983.25           1673          98.00       426.33
  889.29        2983.50           1676          99.00       430.69
  889.32        2983.75           1679          86.00       374.02
  889.35        2984.00           1683         108.00       469.93
HS scan finished at 14:49:40
end
