************************************************************
  HS Scan of (1) Internal mercury lamp
************************************************************
Integration time is 0.2294 seconds per sample
dh050117DelftKZ 51.997-4.386 2.214056pr1000
************************************************************
Dead Time -------------------------  3E-08 
Number of Cycles Used -------------  4 
Starting Wavelength (Angstroms) ---  2950 
Final Wavelength (Angstoms) -------  2984 
Wavelength Increment (Angstroms) --  .25 
Filter Wheel #1 Position ---------- (1) Ground quartz diffuser (ND=2.32)
Filter Wheel #2 Position ---------- (1) Neutral Density 0.494



************************************************************
HS scan start time = 06:19:25
Dark Count =  .1 


Time (GMT)  Wavelength (Ang)  Step Number  Raw Counts  Counts/Second

  379.86        2950.00           1229         132.00       574.99
  379.96        2950.25           1232         126.00       548.83
  379.99        2950.50           1236         131.00       570.63
  380.02        2950.75           1239         138.00       601.14
  380.04        2951.00           1242         142.00       618.58
  380.07        2951.25           1246         126.00       548.83
  380.10        2951.50           1249         131.00       570.63
  380.13        2951.75           1252         124.00       540.11
  380.16        2952.00           1255         136.00       592.43
  380.19        2952.25           1259         134.00       583.71
  380.21        2952.50           1262         126.00       548.83
  380.24        2952.75           1265         126.00       548.83
  380.27        2953.00           1269         125.00       544.47
  380.30        2953.25           1272         135.00       588.07
  380.33        2953.50           1275         123.00       535.75
  380.35        2953.75           1279         133.00       579.35
  380.38        2954.00           1282         135.00       588.07
  380.41        2954.25           1285         131.00       570.63
  380.44        2954.50           1289         124.00       540.11
  380.46        2954.75           1292         131.00       570.63
  380.49        2955.00           1295         127.00       553.19
  380.52        2955.25           1299         128.00       557.55
  380.55        2955.50           1302         133.00       579.35
  380.57        2955.75           1305         114.00       496.52
  380.60        2956.00           1309         127.00       553.19
  380.63        2956.25           1312         128.00       557.55
  380.66        2956.50           1315         119.00       518.32
  380.68        2956.75           1319         116.00       505.24
  380.71        2957.00           1322         116.00       505.24
  380.74        2957.25           1325         134.00       583.71
  380.77        2957.50           1329         117.00       509.60
  380.80        2957.75           1332         120.00       522.68
  380.83        2958.00           1335         126.00       548.83
  380.86        2958.25           1339         121.00       527.04
  380.88        2958.50           1342         113.00       492.16
  380.91        2958.75           1345         130.00       566.27
  380.94        2959.00           1349         134.00       583.71
  380.97        2959.25           1352         122.00       531.39
  380.99        2959.50           1355         124.00       540.11
  381.02        2959.75           1359         125.00       544.47
  381.05        2960.00           1362         132.00       574.99
  381.08        2960.25           1365         132.00       574.99
  381.11        2960.50           1369         144.00       627.30
  381.13        2960.75           1372         138.00       601.14
  381.16        2961.00           1375         137.00       596.78
  381.19        2961.25           1379         153.00       666.53
  381.22        2961.50           1382         196.00       853.99
  381.24        2961.75           1385         579.00      2523.73
  381.27        2962.00           1389        1819.00      7930.83
  381.30        2962.25           1392        3259.00     14212.25
  381.33        2962.50           1395        4638.00     20229.80
  381.35        2962.75           1399        7393.00     32258.32
  381.38        2963.00           1402        9700.00     42337.53
  381.41        2963.25           1405       11469.00     50070.36
  381.44        2963.50           1409       14341.00     62632.40
  381.46        2963.75           1412       16430.00     71775.57
  381.49        2964.00           1415       18366.00     80253.58
  381.52        2964.25           1419       21023.00     91895.98
  381.55        2964.50           1422       22908.00    100160.60
  381.58        2964.75           1425       25035.00    109491.20
  381.60        2965.00           1429       27224.00    119099.20
  381.63        2965.25           1432       28704.00    125598.30
  381.66        2965.50           1435       30510.00    133532.60
  381.69        2965.75           1439       32899.00    144033.90
  381.71        2966.00           1442       34869.00    152698.40
  381.74        2966.25           1445       37117.00    162591.10
  381.77        2966.50           1449       39096.00    171304.90
  381.80        2966.75           1452       40145.00    175925.60
  381.83        2967.00           1455       40410.00    177093.10
  381.85        2967.25           1459       40573.00    177811.30
  381.88        2967.50           1462       40680.00    178282.70
  381.91        2967.75           1465       40643.00    178119.70
  381.94        2968.00           1469       40038.00    175454.20
  381.97        2968.25           1472       38989.00    170833.60
  382.00        2968.50           1475       37731.00    165294.10
  382.03        2968.75           1479       35289.00    154546.20
  382.05        2969.00           1482       33520.00    146764.70
  382.08        2969.25           1485       31291.00    136964.90
  382.11        2969.50           1489       28927.00    126577.80
  382.14        2969.75           1492       26924.00    117782.10
  382.17        2970.00           1495       24994.00    109311.20
  382.20        2970.25           1499       22236.00     97213.80
  382.23        2970.50           1502       20342.00     88911.21
  382.25        2970.75           1505       18843.00     82343.10
  382.28        2971.00           1509       16480.00     71994.48
  382.31        2971.25           1512       14617.00     63840.12
  382.34        2971.50           1515       12594.00     54989.95
  382.37        2971.75           1519        9723.00     42438.05
  382.40        2972.00           1522        7869.00     34337.45
  382.42        2972.25           1525        6240.00     27223.18
  382.45        2972.50           1529        4057.00     17694.22
  382.48        2972.75           1532        2451.00     10687.38
  382.51        2973.00           1536         939.00      4093.35
  382.53        2973.25           1539         370.00      1612.55
  382.56        2973.50           1542         185.00       806.04
  382.59        2973.75           1546         144.00       627.30
  382.62        2974.00           1549         135.00       588.07
  382.65        2974.25           1552         135.00       588.07
  382.67        2974.50           1556         132.00       574.99
  382.70        2974.75           1559         115.00       500.88
  382.73        2975.00           1562         115.00       500.88
  382.76        2975.25           1566         115.00       500.88
  382.78        2975.50           1569         106.00       461.65
  382.81        2975.75           1572         112.00       487.80
  382.84        2976.00           1576         119.00       518.32
  382.87        2976.25           1579         116.00       505.24
  382.89        2976.50           1582         110.00       479.08
  382.92        2976.75           1586         112.00       487.80
  382.95        2977.00           1589         108.00       470.36
  382.98        2977.25           1592         111.00       483.44
  383.01        2977.50           1596         109.00       474.72
  383.03        2977.75           1599         103.00       448.57
  383.06        2978.00           1602         118.00       513.96
  383.09        2978.25           1606         100.00       435.49
  383.12        2978.50           1609         104.00       452.93
  383.14        2978.75           1612         115.00       500.88
  383.17        2979.00           1616         104.00       452.93
  383.20        2979.25           1619         107.00       466.00
  383.23        2979.50           1623         109.00       474.72
  383.25        2979.75           1626         110.00       479.08
  383.28        2980.00           1629          96.00       418.05
  383.31        2980.25           1633         101.00       439.85
  383.34        2980.50           1636         117.00       509.60
  383.36        2980.75           1639         103.00       448.57
  383.39        2981.00           1643         102.00       444.21
  383.42        2981.25           1646         101.00       439.85
  383.45        2981.50           1649         111.00       483.44
  383.48        2981.75           1653         112.00       487.80
  383.50        2982.00           1656         107.00       466.00
  383.53        2982.25           1659          98.00       426.77
  383.56        2982.50           1663         106.00       461.65
  383.58        2982.75           1666         103.00       448.57
  383.62        2983.00           1669         103.00       448.57
  383.65        2983.25           1673         107.00       466.00
  383.68        2983.50           1676          99.00       431.13
  383.71        2983.75           1679          90.00       391.90
  383.73        2984.00           1683         101.00       439.85
HS scan finished at 06:24:02
end
