************************************************************
  HS Scan of (1) Internal mercury lamp
************************************************************
Integration time is 0.2294 seconds per sample
dh020117DelftKZ 51.997-4.386 2.214056pr1000
************************************************************
Dead Time -------------------------  3E-08 
Number of Cycles Used -------------  4 
Starting Wavelength (Angstroms) ---  2950 
Final Wavelength (Angstoms) -------  2984 
Wavelength Increment (Angstroms) --  .25 
Filter Wheel #1 Position ---------- (1) Ground quartz diffuser (ND=2.32)
Filter Wheel #2 Position ---------- (1) Neutral Density 0.494



************************************************************
HS scan start time = 06:19:31
Dark Count =  .1 


Time (GMT)  Wavelength (Ang)  Step Number  Raw Counts  Counts/Second

  379.96        2950.00           1229         129.00       561.91
  380.06        2950.25           1232         139.00       605.50
  380.09        2950.50           1236         137.00       596.78
  380.11        2950.75           1239         139.00       605.50
  380.14        2951.00           1242         136.00       592.43
  380.17        2951.25           1246         137.00       596.78
  380.20        2951.50           1249         130.00       566.27
  380.22        2951.75           1252         140.00       609.86
  380.25        2952.00           1255         127.00       553.19
  380.28        2952.25           1259         124.00       540.11
  380.31        2952.50           1262         126.00       548.83
  380.34        2952.75           1265         129.00       561.91
  380.37        2953.00           1269         132.00       574.99
  380.40        2953.25           1272         126.00       548.83
  380.42        2953.50           1275         135.00       588.07
  380.45        2953.75           1279         123.00       535.75
  380.48        2954.00           1282         123.00       535.75
  380.51        2954.25           1285         131.00       570.63
  380.53        2954.50           1289         128.00       557.55
  380.56        2954.75           1292         130.00       566.27
  380.59        2955.00           1295         134.00       583.71
  380.62        2955.25           1299         125.00       544.47
  380.65        2955.50           1302         138.00       601.14
  380.67        2955.75           1305         132.00       574.99
  380.70        2956.00           1309         125.00       544.47
  380.73        2956.25           1312         127.00       553.19
  380.76        2956.50           1315         129.00       561.91
  380.78        2956.75           1319         117.00       509.60
  380.81        2957.00           1322         128.00       557.55
  380.84        2957.25           1325         128.00       557.55
  380.87        2957.50           1329         131.00       570.63
  380.89        2957.75           1332         122.00       531.39
  380.92        2958.00           1335         124.00       540.11
  380.95        2958.25           1339         113.00       492.16
  380.98        2958.50           1342         146.00       636.02
  381.00        2958.75           1345         130.00       566.27
  381.03        2959.00           1349         117.00       509.60
  381.06        2959.25           1352         119.00       518.32
  381.09        2959.50           1355         121.00       527.04
  381.11        2959.75           1359         133.00       579.35
  381.14        2960.00           1362         133.00       579.35
  381.17        2960.25           1365         133.00       579.35
  381.20        2960.50           1369         139.00       605.50
  381.23        2960.75           1372         148.00       644.74
  381.26        2961.00           1375         150.00       653.46
  381.29        2961.25           1379         163.00       710.13
  381.31        2961.50           1382         231.00      1006.57
  381.34        2961.75           1385         595.00      2593.49
  381.37        2962.00           1389        1854.00      8083.48
  381.40        2962.25           1392        3394.00     14801.25
  381.42        2962.50           1395        5375.00     23446.74
  381.46        2962.75           1399        7984.00     34839.80
  381.49        2963.00           1402        9841.00     42953.75
  381.52        2963.25           1405       11989.00     52344.13
  381.54        2963.50           1409       14968.00     65376.14
  381.57        2963.75           1412       16980.00     74183.66
  381.60        2964.00           1415       19078.00     83372.62
  381.63        2964.25           1419       21339.00     93281.18
  381.66        2964.50           1422       23319.00    101963.10
  381.68        2964.75           1425       25448.00    111303.50
  381.71        2965.00           1429       28222.00    123481.40
  381.75        2965.25           1432       29914.00    130913.80
  381.77        2965.50           1435       32258.00    141215.60
  381.80        2965.75           1439       35044.00    153468.30
  381.83        2966.00           1442       36743.00    160944.80
  381.86        2966.25           1445       38764.00    169842.70
  381.88        2966.50           1449       41061.00    179961.60
  381.91        2966.75           1452       41819.00    183302.10
  381.94        2967.00           1455       42076.00    184434.90
  381.97        2967.25           1459       42137.00    184703.70
  381.99        2967.50           1462       42139.00    184712.50
  382.02        2967.75           1465       41852.00    183447.50
  382.05        2968.00           1469       40730.00    178503.00
  382.08        2968.25           1472       39322.00    172300.30
  382.11        2968.50           1475       37951.00    166262.70
  382.13        2968.75           1479       35836.00    156953.10
  382.16        2969.00           1482       33899.00    148431.50
  382.19        2969.25           1485       31966.00    139931.90
  382.22        2969.50           1489       29316.00    128286.60
  382.24        2969.75           1492       27337.00    119595.30
  382.27        2970.00           1495       25816.00    112918.50
  382.30        2970.25           1499       23310.00    101923.60
  382.33        2970.50           1502       21331.00     93246.09
  382.35        2970.75           1505       19214.00     83968.46
  382.38        2971.00           1509       16641.00     72699.36
  382.41        2971.25           1512       14637.00     63927.63
  382.44        2971.50           1515       12816.00     55960.92
  382.46        2971.75           1519       10310.00     45003.62
  382.49        2972.00           1522        8395.00     36635.27
  382.52        2972.25           1525        6486.00     28297.34
  382.55        2972.50           1529        4090.00     17838.23
  382.58        2972.75           1532        2729.00     11900.06
  382.60        2973.00           1536        1084.00      4725.60
  382.63        2973.25           1539         453.00      1974.40
  382.66        2973.50           1542         199.00       867.07
  382.69        2973.75           1546         141.00       614.22
  382.71        2974.00           1549         133.00       579.35
  382.74        2974.25           1552         129.00       561.91
  382.77        2974.50           1556         106.00       461.65
  382.80        2974.75           1559         123.00       535.75
  382.82        2975.00           1562         118.00       513.96
  382.85        2975.25           1566         114.00       496.52
  382.88        2975.50           1569         118.00       513.96
  382.91        2975.75           1572         102.00       444.21
  382.93        2976.00           1576         105.00       457.29
  382.96        2976.25           1579         100.00       435.49
  382.99        2976.50           1582         116.00       505.24
  383.02        2976.75           1586         115.00       500.88
  383.05        2977.00           1589         113.00       492.16
  383.07        2977.25           1592         112.00       487.80
  383.10        2977.50           1596         107.00       466.00
  383.13        2977.75           1599         121.00       527.04
  383.16        2978.00           1602         126.00       548.83
  383.18        2978.25           1606         114.00       496.52
  383.21        2978.50           1609         115.00       500.88
  383.24        2978.75           1612         115.00       500.88
  383.27        2979.00           1616         122.00       531.39
  383.29        2979.25           1619         100.00       435.49
  383.32        2979.50           1623         114.00       496.52
  383.35        2979.75           1626         109.00       474.72
  383.38        2980.00           1629         104.00       452.93
  383.41        2980.25           1633         105.00       457.29
  383.44        2980.50           1636         102.00       444.21
  383.47        2980.75           1639         102.00       444.21
  383.50        2981.00           1643         106.00       461.65
  383.53        2981.25           1646         113.00       492.16
  383.56        2981.50           1649         102.00       444.21
  383.59        2981.75           1653         114.00       496.52
  383.61        2982.00           1656         103.00       448.57
  383.64        2982.25           1659         116.00       505.24
  383.68        2982.50           1663         107.00       466.00
  383.71        2982.75           1666         104.00       452.93
  383.73        2983.00           1669         104.00       452.93
  383.76        2983.25           1673         107.00       466.00
  383.79        2983.50           1676         103.00       448.57
  383.82        2983.75           1679         106.00       461.65
  383.84        2984.00           1683         102.00       444.21
HS scan finished at 06:24:09
end
