************************************************************
  HS Scan of (1) Internal mercury lamp
************************************************************
Integration time is 0.2294 seconds per sample
dh110117DelftKZ 51.997-4.386 2.321352pr1000
************************************************************
Dead Time -------------------------  3E-08 
Number of Cycles Used -------------  4 
Starting Wavelength (Angstroms) ---  2950 
Final Wavelength (Angstoms) -------  2984 
Wavelength Increment (Angstroms) --  .25 
Filter Wheel #1 Position ---------- (1) Ground quartz diffuser (ND=2.32)
Filter Wheel #2 Position ---------- (1) Neutral Density 0.494



************************************************************
HS scan start time = 06:17:39
Dark Count =  0 


Time (GMT)  Wavelength (Ang)  Step Number  Raw Counts  Counts/Second

  378.09        2950.00           1229         133.00       579.78
  378.19        2950.25           1232         138.00       601.58
  378.22        2950.50           1236         138.00       601.58
  378.25        2950.75           1239         146.00       636.46
  378.27        2951.00           1242         133.00       579.78
  378.30        2951.25           1246         128.00       557.99
  378.33        2951.50           1249         129.00       562.35
  378.36        2951.75           1252         133.00       579.78
  378.38        2952.00           1255         142.00       619.02
  378.41        2952.25           1259         129.00       562.35
  378.44        2952.50           1262         138.00       601.58
  378.47        2952.75           1265         135.00       588.50
  378.50        2953.00           1269         129.00       562.35
  378.53        2953.25           1272         133.00       579.78
  378.56        2953.50           1275         137.00       597.22
  378.58        2953.75           1279         129.00       562.35
  378.61        2954.00           1282         128.00       557.99
  378.64        2954.25           1285         129.00       562.35
  378.67        2954.50           1289         128.00       557.99
  378.70        2954.75           1292         139.00       605.94
  378.72        2955.00           1295         122.00       531.83
  378.75        2955.25           1299         139.00       605.94
  378.78        2955.50           1302         125.00       544.91
  378.81        2955.75           1305         132.00       575.42
  378.83        2956.00           1309         126.00       549.27
  378.86        2956.25           1312         125.00       544.91
  378.89        2956.50           1315         130.00       566.71
  378.92        2956.75           1319         132.00       575.42
  378.95        2957.00           1322         134.00       584.14
  378.97        2957.25           1325         129.00       562.35
  379.00        2957.50           1329         130.00       566.71
  379.03        2957.75           1332         135.00       588.50
  379.06        2958.00           1335         136.00       592.86
  379.08        2958.25           1339         132.00       575.42
  379.11        2958.50           1342         126.00       549.27
  379.14        2958.75           1345         125.00       544.91
  379.17        2959.00           1349         114.00       496.96
  379.19        2959.25           1352         130.00       566.71
  379.22        2959.50           1355         133.00       579.78
  379.25        2959.75           1359         130.00       566.71
  379.28        2960.00           1362         133.00       579.78
  379.31        2960.25           1365         140.00       610.30
  379.34        2960.50           1369         136.00       592.86
  379.37        2960.75           1372         153.00       666.97
  379.39        2961.00           1375         142.00       619.02
  379.42        2961.25           1379         154.00       671.33
  379.45        2961.50           1382         244.00      1063.68
  379.48        2961.75           1385         696.00      3034.28
  379.50        2962.00           1389        2375.00     10356.31
  379.53        2962.25           1392        4335.00     18907.85
  379.56        2962.50           1395        6297.00     27472.51
  379.59        2962.75           1399        8893.00     38811.51
  379.62        2963.00           1402       11250.00     49113.29
  379.64        2963.25           1405       13599.00     59386.44
  379.67        2963.50           1409       16647.00     72726.07
  379.70        2963.75           1412       19240.00     84082.80
  379.73        2964.00           1415       21257.00     92922.14
  379.76        2964.25           1419       24136.00    105547.30
  379.79        2964.50           1422       26584.00    116289.90
  379.82        2964.75           1425       28906.00    126486.00
  379.85        2965.00           1429       32055.00    140323.60
  379.88        2965.25           1432       34124.00    149421.60
  379.90        2965.50           1435       36011.00    157723.60
  379.93        2965.75           1439       38952.00    170671.10
  379.96        2966.00           1442       41046.00    179895.90
  379.99        2966.25           1445       43183.00    189315.40
  380.02        2966.50           1449       46051.00    201965.40
  380.05        2966.75           1452       47398.00    207910.00
  380.08        2967.00           1455       47874.00    210011.20
  380.10        2967.25           1459       47760.00    209508.00
  380.13        2967.50           1462       47849.00    209900.90
  380.16        2967.75           1465       47476.00    208254.30
  380.19        2968.00           1469       46316.00    203134.80
  380.21        2968.25           1472       45249.00    198427.00
  380.24        2968.50           1475       43736.00    191753.80
  380.27        2968.75           1479       41158.00    180389.50
  380.30        2969.00           1482       39027.00    171001.40
  380.33        2969.25           1485       36666.00    160606.30
  380.35        2969.50           1489       33429.00    146364.90
  380.38        2969.75           1492       31436.00    137602.60
  380.41        2970.00           1495       29338.00    128383.70
  380.44        2970.25           1499       26123.00    114266.40
  380.47        2970.50           1502       24007.00    104981.40
  380.49        2970.75           1505       21495.00     93965.48
  380.52        2971.00           1509       18973.00     82913.05
  380.55        2971.25           1512       16857.00     73645.53
  380.58        2971.50           1515       14927.00     65197.14
  380.60        2971.75           1519       12248.00     53477.19
  380.63        2972.00           1522        9650.00     42119.45
  380.66        2972.25           1525        7509.00     32765.41
  380.69        2972.50           1529        4647.00     20269.52
  380.72        2972.75           1532        2663.00     11612.59
  380.74        2973.00           1536         901.00      3928.10
  380.77        2973.25           1539         374.00      1630.42
  380.80        2973.50           1542         182.00       793.39
  380.83        2973.75           1546         161.00       701.85
  380.85        2974.00           1549         142.00       619.02
  380.88        2974.25           1552         131.00       571.06
  380.91        2974.50           1556         120.00       523.11
  380.94        2974.75           1559         114.00       496.96
  380.97        2975.00           1562         117.00       510.03
  380.99        2975.25           1566         100.00       435.93
  381.02        2975.50           1569         121.00       527.47
  381.05        2975.75           1572         119.00       518.75
  381.08        2976.00           1576         108.00       470.80
  381.10        2976.25           1579         125.00       544.91
  381.13        2976.50           1582          96.00       418.49
  381.16        2976.75           1586         120.00       523.11
  381.19        2977.00           1589         115.00       501.32
  381.21        2977.25           1592         115.00       501.32
  381.24        2977.50           1596         104.00       453.36
  381.27        2977.75           1599         115.00       501.32
  381.30        2978.00           1602         114.00       496.96
  381.33        2978.25           1606         114.00       496.96
  381.36        2978.50           1609         104.00       453.36
  381.39        2978.75           1612         109.00       475.16
  381.41        2979.00           1616         106.00       462.08
  381.44        2979.25           1619         115.00       501.32
  381.47        2979.50           1623          97.00       422.85
  381.50        2979.75           1626         108.00       470.80
  381.53        2980.00           1629         104.00       453.36
  381.55        2980.25           1633         109.00       475.16
  381.58        2980.50           1636         111.00       483.88
  381.61        2980.75           1639         107.00       466.44
  381.64        2981.00           1643         101.00       440.28
  381.66        2981.25           1646          98.00       427.21
  381.69        2981.50           1649         115.00       501.32
  381.72        2981.75           1653         118.00       514.39
  381.75        2982.00           1656         102.00       444.64
  381.78        2982.25           1659         117.00       510.03
  381.80        2982.50           1663         101.00       440.28
  381.83        2982.75           1666         101.00       440.28
  381.86        2983.00           1669         111.00       483.88
  381.89        2983.25           1673         112.00       488.24
  381.91        2983.50           1676         107.00       466.44
  381.94        2983.75           1679         105.00       457.72
  381.97        2984.00           1683          98.00       427.21
HS scan finished at 06:22:16
end
