************************************************************
  HS Scan of (1) Internal mercury lamp
************************************************************
Integration time is 0.2294 seconds per sample
dh120117DelftKZ 51.997-4.386 2.321352pr1000
************************************************************
Dead Time -------------------------  3E-08 
Number of Cycles Used -------------  4 
Starting Wavelength (Angstroms) ---  2950 
Final Wavelength (Angstoms) -------  2984 
Wavelength Increment (Angstroms) --  .25 
Filter Wheel #1 Position ---------- (1) Ground quartz diffuser (ND=2.32)
Filter Wheel #2 Position ---------- (1) Neutral Density 0.494



************************************************************
HS scan start time = 06:17:24
Dark Count =  0 


Time (GMT)  Wavelength (Ang)  Step Number  Raw Counts  Counts/Second

  377.85        2950.00           1229         134.00       584.14
  377.95        2950.25           1232         133.00       579.78
  377.98        2950.50           1236         134.00       584.14
  378.01        2950.75           1239         126.00       549.27
  378.04        2951.00           1242         141.00       614.66
  378.07        2951.25           1246         131.00       571.06
  378.09        2951.50           1249         133.00       579.78
  378.12        2951.75           1252         130.00       566.71
  378.15        2952.00           1255         127.00       553.63
  378.18        2952.25           1259         132.00       575.42
  378.20        2952.50           1262         130.00       566.71
  378.23        2952.75           1265         132.00       575.42
  378.26        2953.00           1269         126.00       549.27
  378.29        2953.25           1272         128.00       557.99
  378.32        2953.50           1275         141.00       614.66
  378.35        2953.75           1279         136.00       592.86
  378.38        2954.00           1282         134.00       584.14
  378.40        2954.25           1285         135.00       588.50
  378.43        2954.50           1289         127.00       553.63
  378.46        2954.75           1292         137.00       597.22
  378.49        2955.00           1295         136.00       592.86
  378.51        2955.25           1299         129.00       562.35
  378.54        2955.50           1302         127.00       553.63
  378.57        2955.75           1305         134.00       584.14
  378.60        2956.00           1309         122.00       531.83
  378.62        2956.25           1312         131.00       571.06
  378.65        2956.50           1315         125.00       544.91
  378.68        2956.75           1319         131.00       571.06
  378.71        2957.00           1322         131.00       571.06
  378.74        2957.25           1325         140.00       610.30
  378.76        2957.50           1329         142.00       619.02
  378.79        2957.75           1332         131.00       571.06
  378.82        2958.00           1335         125.00       544.91
  378.85        2958.25           1339         124.00       540.55
  378.88        2958.50           1342         119.00       518.75
  378.91        2958.75           1345         125.00       544.91
  378.93        2959.00           1349         128.00       557.99
  378.96        2959.25           1352         132.00       575.42
  378.99        2959.50           1355         135.00       588.50
  379.02        2959.75           1359         128.00       557.99
  379.04        2960.00           1362         124.00       540.55
  379.07        2960.25           1365         138.00       601.58
  379.10        2960.50           1369         128.00       557.99
  379.13        2960.75           1372         139.00       605.94
  379.16        2961.00           1375         156.00       680.05
  379.18        2961.25           1379         153.00       666.97
  379.21        2961.50           1382         244.00      1063.68
  379.24        2961.75           1385         633.00      2759.60
  379.27        2962.00           1389        1953.00      8515.69
  379.29        2962.25           1392        3518.00     15342.72
  379.32        2962.50           1395        5567.00     24285.35
  379.35        2962.75           1399        8924.00     38946.97
  379.38        2963.00           1402       10998.00     48011.57
  379.40        2963.25           1405       13043.00     56954.25
  379.43        2963.50           1409       16087.00     70274.43
  379.46        2963.75           1412       18311.00     80013.10
  379.49        2964.00           1415       20594.00     90016.08
  379.52        2964.25           1419       23469.00    102621.50
  379.54        2964.50           1422       25643.00    112159.70
  379.57        2964.75           1425       27654.00    120987.60
  379.60        2965.00           1429       30818.00    134886.50
  379.63        2965.25           1432       33060.00    144742.30
  379.66        2965.50           1435       34996.00    153257.50
  379.68        2965.75           1439       38335.00    167954.00
  379.71        2966.00           1442       40202.00    176177.20
  379.74        2966.25           1445       42410.00    185907.60
  379.77        2966.50           1449       44908.00    196922.80
  379.80        2966.75           1452       45733.00    200562.30
  379.83        2967.00           1455       46158.00    202437.60
  379.86        2967.25           1459       46230.00    202755.30
  379.89        2967.50           1462       45974.00    201625.70
  379.92        2967.75           1465       45945.00    201497.70
  379.95        2968.00           1469       44953.00    197121.30
  379.97        2968.25           1472       43712.00    191648.00
  380.00        2968.50           1475       41754.00    183016.10
  380.03        2968.75           1479       39140.00    171499.10
  380.06        2969.00           1482       37378.00    163740.50
  380.09        2969.25           1485       35055.00    153517.10
  380.11        2969.50           1489       32328.00    141523.80
  380.14        2969.75           1492       30267.00    132465.20
  380.17        2970.00           1495       28476.00    124597.40
  380.20        2970.25           1499       25505.00    111554.10
  380.23        2970.50           1502       23339.00    102051.30
  380.25        2970.75           1505       21234.00     92821.33
  380.28        2971.00           1509       18309.00     80004.35
  380.32        2971.25           1512       16170.00     70637.77
  380.35        2971.50           1515       14094.00     61552.09
  380.37        2971.75           1519       11168.00     48754.79
  380.40        2972.00           1522        9288.00     40537.50
  380.43        2972.25           1525        7281.00     31769.59
  380.46        2972.50           1529        4473.00     19510.11
  380.48        2972.75           1532        2812.00     12262.58
  380.51        2973.00           1536        1218.00      5310.35
  380.54        2973.25           1539         520.00      2266.94
  380.57        2973.50           1542         210.00       915.46
  380.60        2973.75           1546         146.00       636.46
  380.62        2974.00           1549         147.00       640.81
  380.65        2974.25           1552         139.00       605.94
  380.68        2974.50           1556         132.00       575.42
  380.71        2974.75           1559         114.00       496.96
  380.73        2975.00           1562         112.00       488.24
  380.76        2975.25           1566         120.00       523.11
  380.79        2975.50           1569         127.00       553.63
  380.82        2975.75           1572         115.00       501.32
  380.84        2976.00           1576         106.00       462.08
  380.87        2976.25           1579         115.00       501.32
  380.90        2976.50           1582         112.00       488.24
  380.93        2976.75           1586         108.00       470.80
  380.96        2977.00           1589         109.00       475.16
  380.98        2977.25           1592         105.00       457.72
  381.01        2977.50           1596         113.00       492.60
  381.04        2977.75           1599         107.00       466.44
  381.07        2978.00           1602         113.00       492.60
  381.09        2978.25           1606         110.00       479.52
  381.12        2978.50           1609         117.00       510.03
  381.15        2978.75           1612         108.00       470.80
  381.18        2979.00           1616         112.00       488.24
  381.20        2979.25           1619         106.00       462.08
  381.23        2979.50           1623         114.00       496.96
  381.26        2979.75           1626         110.00       479.52
  381.29        2980.00           1629         110.00       479.52
  381.31        2980.25           1633         102.00       444.64
  381.34        2980.50           1636         116.00       505.67
  381.37        2980.75           1639         116.00       505.67
  381.40        2981.00           1643         113.00       492.60
  381.43        2981.25           1646         105.00       457.72
  381.45        2981.50           1649         107.00       466.44
  381.48        2981.75           1653         106.00       462.08
  381.51        2982.00           1656         106.00       462.08
  381.54        2982.25           1659         103.00       449.00
  381.56        2982.50           1663         115.00       501.32
  381.59        2982.75           1666         107.00       466.44
  381.62        2983.00           1669         114.00       496.96
  381.65        2983.25           1673         108.00       470.80
  381.67        2983.50           1676         110.00       479.52
  381.70        2983.75           1679         108.00       470.80
  381.73        2984.00           1683         107.00       466.44
HS scan finished at 06:22:02
end
