************************************************************
  HS Scan of (1) Internal mercury lamp
************************************************************
Integration time is 0.2294 seconds per sample
dh260117DelftKZ 51.997-4.386 2.10676pr1000
************************************************************
Dead Time -------------------------  3E-08 
Number of Cycles Used -------------  4 
Starting Wavelength (Angstroms) ---  2950 
Final Wavelength (Angstoms) -------  2984 
Wavelength Increment (Angstroms) --  .25 
Filter Wheel #1 Position ---------- (1) Ground quartz diffuser (ND=2.32)
Filter Wheel #2 Position ---------- (1) Neutral Density 0.494



************************************************************
HS scan start time = 06:06:14
Dark Count =  .1 


Time (GMT)  Wavelength (Ang)  Step Number  Raw Counts  Counts/Second

  366.68        2950.00           1229         140.00       609.86
  366.78        2950.25           1232         123.00       535.75
  366.81        2950.50           1236         137.00       596.78
  366.84        2950.75           1239         129.00       561.91
  366.86        2951.00           1242         142.00       618.58
  366.89        2951.25           1246         125.00       544.47
  366.92        2951.50           1249         132.00       574.99
  366.95        2951.75           1252         139.00       605.50
  366.97        2952.00           1255         136.00       592.43
  367.00        2952.25           1259         128.00       557.55
  367.03        2952.50           1262         124.00       540.11
  367.06        2952.75           1265         130.00       566.27
  367.08        2953.00           1269         137.00       596.78
  367.11        2953.25           1272         121.00       527.04
  367.14        2953.50           1275         130.00       566.27
  367.17        2953.75           1279         136.00       592.43
  367.20        2954.00           1282         124.00       540.11
  367.22        2954.25           1285         128.00       557.55
  367.25        2954.50           1289         134.00       583.71
  367.28        2954.75           1292         142.00       618.58
  367.31        2955.00           1295         132.00       574.99
  367.33        2955.25           1299         128.00       557.55
  367.37        2955.50           1302         132.00       574.99
  367.40        2955.75           1305         140.00       609.86
  367.43        2956.00           1309         130.00       566.27
  367.45        2956.25           1312         113.00       492.16
  367.48        2956.50           1315         127.00       553.19
  367.51        2956.75           1319         131.00       570.63
  367.54        2957.00           1322         130.00       566.27
  367.56        2957.25           1325         122.00       531.39
  367.59        2957.50           1329         132.00       574.99
  367.62        2957.75           1332         128.00       557.55
  367.65        2958.00           1335         128.00       557.55
  367.67        2958.25           1339         125.00       544.47
  367.70        2958.50           1342         126.00       548.83
  367.73        2958.75           1345         122.00       531.39
  367.76        2959.00           1349         127.00       553.19
  367.78        2959.25           1352         127.00       553.19
  367.81        2959.50           1355         122.00       531.39
  367.85        2959.75           1359         131.00       570.63
  367.88        2960.00           1362         129.00       561.91
  367.91        2960.25           1365         125.00       544.47
  367.93        2960.50           1369         143.00       622.94
  367.96        2960.75           1372         138.00       601.14
  367.99        2961.00           1375         157.00       683.97
  368.02        2961.25           1379         155.00       675.25
  368.04        2961.50           1382         256.00      1115.56
  368.07        2961.75           1385         743.00      3238.76
  368.10        2962.00           1389        2046.00      8920.87
  368.13        2962.25           1392        3772.00     16450.58
  368.15        2962.50           1395        5645.00     24625.42
  368.18        2962.75           1399        7953.00     34704.38
  368.21        2963.00           1402        9910.00     43255.32
  368.24        2963.25           1405       12203.00     53279.96
  368.26        2963.50           1409       14686.00     64142.05
  368.29        2963.75           1412       16898.00     73824.62
  368.32        2964.00           1415       19216.00     83977.21
  368.35        2964.25           1419       21784.00     95232.02
  368.38        2964.50           1422       23694.00    103607.90
  368.40        2964.75           1425       25673.00    112290.90
  368.43        2965.00           1429       28344.00    124017.20
  368.46        2965.25           1432       30117.00    131805.70
  368.49        2965.50           1435       31654.00    138560.40
  368.51        2965.75           1439       33997.00    148862.50
  368.54        2966.00           1442       35667.00    156209.40
  368.57        2966.25           1445       37856.00    165844.40
  368.60        2966.50           1449       40182.00    176088.60
  368.63        2966.75           1452       41027.00    179811.70
  368.66        2967.00           1455       41270.00    180882.60
  368.69        2967.25           1459       41342.00    181199.90
  368.72        2967.50           1462       41497.00    181882.90
  368.75        2967.75           1465       41123.00    180234.80
  368.77        2968.00           1469       40243.00    176357.40
  368.80        2968.25           1472       39168.00    171622.00
  368.83        2968.50           1475       37957.00    166289.10
  368.86        2968.75           1479       35629.00    156042.20
  368.88        2969.00           1482       33776.00    147890.50
  368.91        2969.25           1485       31981.00    139997.80
  368.94        2969.50           1489       28963.00    126736.00
  368.97        2969.75           1492       26940.00    117852.30
  368.99        2970.00           1495       24933.00    109043.60
  369.02        2970.25           1499       22511.00     98419.63
  369.05        2970.50           1502       20357.00     88976.96
  369.08        2970.75           1505       18340.00     80139.70
  369.11        2971.00           1509       16242.00     70952.53
  369.13        2971.25           1512       14599.00     63761.34
  369.16        2971.50           1515       12752.00     55680.99
  369.19        2971.75           1519       10278.00     44863.75
  369.22        2972.00           1522        8038.00     35075.69
  369.24        2972.25           1525        5879.00     25647.02
  369.27        2972.50           1529        3550.00     15481.91
  369.30        2972.75           1532        2181.00      9509.69
  369.33        2973.00           1536         806.00      3513.45
  369.35        2973.25           1539         286.00      1246.34
  369.38        2973.50           1542         173.00       753.72
  369.41        2973.75           1546         138.00       601.14
  369.44        2974.00           1549         141.00       614.22
  369.46        2974.25           1552         118.00       513.96
  369.49        2974.50           1556         121.00       527.04
  369.52        2974.75           1559         120.00       522.68
  369.55        2975.00           1562         117.00       509.60
  369.58        2975.25           1566         113.00       492.16
  369.60        2975.50           1569         114.00       496.52
  369.63        2975.75           1572         112.00       487.80
  369.66        2976.00           1576         101.00       439.85
  369.69        2976.25           1579         108.00       470.36
  369.71        2976.50           1582         107.00       466.00
  369.74        2976.75           1586         108.00       470.36
  369.77        2977.00           1589         107.00       466.00
  369.80        2977.25           1592         112.00       487.80
  369.82        2977.50           1596         115.00       500.88
  369.85        2977.75           1599         108.00       470.36
  369.88        2978.00           1602         110.00       479.08
  369.91        2978.25           1606         109.00       474.72
  369.93        2978.50           1609         113.00       492.16
  369.96        2978.75           1612         103.00       448.57
  369.99        2979.00           1616         109.00       474.72
  370.02        2979.25           1619         112.00       487.80
  370.04        2979.50           1623         107.00       466.00
  370.07        2979.75           1626         110.00       479.08
  370.10        2980.00           1629         119.00       518.32
  370.13        2980.25           1633         103.00       448.57
  370.15        2980.50           1636         114.00       496.52
  370.18        2980.75           1639         109.00       474.72
  370.21        2981.00           1643          96.00       418.05
  370.24        2981.25           1646         102.00       444.21
  370.26        2981.50           1649          98.00       426.77
  370.29        2981.75           1653         114.00       496.52
  370.32        2982.00           1656         119.00       518.32
  370.35        2982.25           1659          98.00       426.77
  370.37        2982.50           1663         103.00       448.57
  370.40        2982.75           1666         102.00       444.21
  370.43        2983.00           1669         108.00       470.36
  370.46        2983.25           1673         101.00       439.85
  370.49        2983.50           1676         114.00       496.52
  370.51        2983.75           1679         105.00       457.29
  370.54        2984.00           1683         104.00       452.93
HS scan finished at 06:10:50
end
