************************************************************
  HS Scan of (1) Internal mercury lamp
************************************************************
Integration time is 0.2294 seconds per sample
dh280117DelftKZ 51.997-4.386 2.375pr1000
************************************************************
Dead Time -------------------------  3E-08 
Number of Cycles Used -------------  4 
Starting Wavelength (Angstroms) ---  2950 
Final Wavelength (Angstoms) -------  2984 
Wavelength Increment (Angstroms) --  .25 
Filter Wheel #1 Position ---------- (1) Ground quartz diffuser (ND=2.32)
Filter Wheel #2 Position ---------- (1) Neutral Density 0.494



************************************************************
HS scan start time = 06:03:34
Dark Count =  0 


Time (GMT)  Wavelength (Ang)  Step Number  Raw Counts  Counts/Second

  364.03        2950.00           1229         135.00       588.50
  364.12        2950.25           1232         130.00       566.71
  364.15        2950.50           1236         128.00       557.99
  364.18        2950.75           1239         127.00       553.63
  364.21        2951.00           1242         134.00       584.14
  364.23        2951.25           1246         133.00       579.78
  364.26        2951.50           1249         129.00       562.35
  364.29        2951.75           1252         128.00       557.99
  364.32        2952.00           1255         128.00       557.99
  364.34        2952.25           1259         134.00       584.14
  364.37        2952.50           1262         132.00       575.42
  364.40        2952.75           1265         129.00       562.35
  364.43        2953.00           1269         125.00       544.91
  364.45        2953.25           1272         128.00       557.99
  364.48        2953.50           1275         124.00       540.55
  364.51        2953.75           1279         150.00       653.89
  364.53        2954.00           1282         132.00       575.42
  364.57        2954.25           1285         125.00       544.91
  364.59        2954.50           1289         136.00       592.86
  364.62        2954.75           1292         125.00       544.91
  364.65        2955.00           1295         131.00       571.06
  364.68        2955.25           1299         122.00       531.83
  364.70        2955.50           1302         139.00       605.94
  364.73        2955.75           1305         132.00       575.42
  364.76        2956.00           1309         120.00       523.11
  364.79        2956.25           1312         132.00       575.42
  364.81        2956.50           1315         134.00       584.14
  364.84        2956.75           1319         126.00       549.27
  364.88        2957.00           1322         141.00       614.66
  364.91        2957.25           1325         128.00       557.99
  364.93        2957.50           1329         129.00       562.35
  364.96        2957.75           1332         127.00       553.63
  364.99        2958.00           1335         119.00       518.75
  365.02        2958.25           1339         130.00       566.71
  365.04        2958.50           1342         134.00       584.14
  365.07        2958.75           1345         126.00       549.27
  365.10        2959.00           1349         132.00       575.42
  365.13        2959.25           1352         125.00       544.91
  365.15        2959.50           1355         124.00       540.55
  365.18        2959.75           1359         131.00       571.06
  365.21        2960.00           1362         123.00       536.19
  365.24        2960.25           1365         142.00       619.02
  365.26        2960.50           1369         132.00       575.42
  365.29        2960.75           1372         147.00       640.81
  365.32        2961.00           1375         151.00       658.25
  365.35        2961.25           1379         164.00       714.92
  365.37        2961.50           1382         253.00      1102.91
  365.40        2961.75           1385         579.00      2524.17
  365.43        2962.00           1389        1912.00      8336.87
  365.45        2962.25           1392        3850.00     16791.37
  365.48        2962.50           1395        5769.00     25167.21
  365.51        2962.75           1399        8950.00     39060.57
  365.54        2963.00           1402       11663.00     50919.05
  365.56        2963.25           1405       13880.00     60615.80
  365.59        2963.50           1409       17381.00     75940.03
  365.62        2963.75           1412       19674.00     85984.38
  365.65        2964.00           1415       21911.00     95789.27
  365.68        2964.25           1419       24793.00    108429.70
  365.70        2964.50           1422       26844.00    117431.30
  365.73        2964.75           1425       28804.00    126038.00
  365.76        2965.00           1429       31704.00    138780.60
  365.79        2965.25           1432       33915.00    148502.30
  365.81        2965.50           1435       36010.00    157719.20
  365.84        2965.75           1439       39191.00    171723.70
  365.87        2966.00           1442       41209.00    180614.20
  365.90        2966.25           1445       43394.00    190245.80
  365.92        2966.50           1449       46296.00    203046.50
  365.95        2966.75           1452       47398.00    207910.00
  365.98        2967.00           1455       48175.00    211340.10
  366.01        2967.25           1459       48197.00    211437.20
  366.03        2967.50           1462       48096.00    210991.30
  366.06        2967.75           1465       48005.00    210589.50
  366.09        2968.00           1469       47262.00    207309.80
  366.12        2968.25           1472       46019.00    201824.20
  366.14        2968.50           1475       44017.00    192993.00
  366.17        2968.75           1479       41301.00    181019.60
  366.20        2969.00           1482       39269.00    172067.30
  366.23        2969.25           1485       37104.00    162534.30
  366.25        2969.50           1489       34017.00    148951.00
  366.28        2969.75           1492       31767.00    139057.60
  366.31        2970.00           1495       29792.00    130378.20
  366.34        2970.25           1499       26992.00    118081.00
  366.36        2970.50           1502       24602.00    107591.70
  366.39        2970.75           1505       22356.00     97740.41
  366.42        2971.00           1509       19107.00     83500.10
  366.45        2971.25           1512       16694.00     72931.85
  366.47        2971.50           1515       14642.00     63949.95
  366.50        2971.75           1519       11735.00     51233.87
  366.53        2972.00           1522        9583.00     41826.65
  366.56        2972.25           1525        7547.00     32931.39
  366.59        2972.50           1529        4627.00     20182.23
  366.61        2972.75           1532        2735.00     11926.67
  366.64        2973.00           1536        1040.00      4534.18
  366.67        2973.25           1539         472.00      2057.67
  366.69        2973.50           1542         204.00       889.30
  366.72        2973.75           1546         137.00       597.22
  366.75        2974.00           1549         126.00       549.27
  366.78        2974.25           1552         131.00       571.06
  366.80        2974.50           1556         121.00       527.47
  366.83        2974.75           1559         111.00       483.88
  366.86        2975.00           1562         113.00       492.60
  366.89        2975.25           1566         113.00       492.60
  366.91        2975.50           1569         125.00       544.91
  366.94        2975.75           1572         122.00       531.83
  366.97        2976.00           1576         111.00       483.88
  367.00        2976.25           1579         122.00       531.83
  367.02        2976.50           1582         107.00       466.44
  367.05        2976.75           1586         118.00       514.39
  367.08        2977.00           1589         112.00       488.24
  367.11        2977.25           1592         113.00       492.60
  367.13        2977.50           1596         112.00       488.24
  367.16        2977.75           1599         115.00       501.32
  367.19        2978.00           1602         115.00       501.32
  367.22        2978.25           1606         113.00       492.60
  367.24        2978.50           1609         114.00       496.96
  367.27        2978.75           1612         116.00       505.67
  367.30        2979.00           1616         109.00       475.16
  367.33        2979.25           1619         124.00       540.55
  367.35        2979.50           1623          99.00       431.57
  367.38        2979.75           1626         104.00       453.36
  367.41        2980.00           1629         117.00       510.03
  367.43        2980.25           1633         108.00       470.80
  367.46        2980.50           1636         114.00       496.96
  367.49        2980.75           1639          98.00       427.21
  367.52        2981.00           1643         109.00       475.16
  367.54        2981.25           1646         104.00       453.36
  367.57        2981.50           1649         110.00       479.52
  367.60        2981.75           1653         102.00       444.64
  367.63        2982.00           1656         113.00       492.60
  367.65        2982.25           1659         112.00       488.24
  367.68        2982.50           1663         108.00       470.80
  367.71        2982.75           1666         105.00       457.72
  367.74        2983.00           1669         103.00       449.00
  367.76        2983.25           1673         111.00       483.88
  367.79        2983.50           1676         104.00       453.36
  367.82        2983.75           1679         103.00       449.00
  367.85        2984.00           1683         102.00       444.64
HS scan finished at 06:08:09
end
