************************************************************
  HS Scan of (1) Internal mercury lamp
************************************************************
Integration time is 0.2294 seconds per sample
dh160217DelftKZ 51.997-4.386 2.321352pr1000
************************************************************
Dead Time -------------------------  3E-08 
Number of Cycles Used -------------  4 
Starting Wavelength (Angstroms) ---  2950 
Final Wavelength (Angstoms) -------  2984 
Wavelength Increment (Angstroms) --  .25 
Filter Wheel #1 Position ---------- (1) Ground quartz diffuser (ND=2.32)
Filter Wheel #2 Position ---------- (1) Neutral Density 0.494



************************************************************
HS scan start time = 05:35:29
Dark Count =  .1 


Time (GMT)  Wavelength (Ang)  Step Number  Raw Counts  Counts/Second

  335.93        2950.00           1229         139.00       605.50
  336.03        2950.25           1232         131.00       570.63
  336.06        2950.50           1236         126.00       548.83
  336.09        2950.75           1239         122.00       531.39
  336.12        2951.00           1242         133.00       579.35
  336.14        2951.25           1246         126.00       548.83
  336.17        2951.50           1249         123.00       535.75
  336.20        2951.75           1252         128.00       557.55
  336.23        2952.00           1255         130.00       566.27
  336.26        2952.25           1259         131.00       570.63
  336.29        2952.50           1262         128.00       557.55
  336.32        2952.75           1265         129.00       561.91
  336.34        2953.00           1269         123.00       535.75
  336.37        2953.25           1272         119.00       518.32
  336.40        2953.50           1275         123.00       535.75
  336.43        2953.75           1279         132.00       574.99
  336.46        2954.00           1282         127.00       553.19
  336.48        2954.25           1285         130.00       566.27
  336.51        2954.50           1289         128.00       557.55
  336.54        2954.75           1292         132.00       574.99
  336.57        2955.00           1295         121.00       527.04
  336.59        2955.25           1299         129.00       561.91
  336.62        2955.50           1302         119.00       518.32
  336.65        2955.75           1305         120.00       522.68
  336.68        2956.00           1309         135.00       588.07
  336.70        2956.25           1312         135.00       588.07
  336.73        2956.50           1315         126.00       548.83
  336.76        2956.75           1319         124.00       540.11
  336.79        2957.00           1322         129.00       561.91
  336.82        2957.25           1325         126.00       548.83
  336.85        2957.50           1329         124.00       540.11
  336.88        2957.75           1332         114.00       496.52
  336.91        2958.00           1335         125.00       544.47
  336.94        2958.25           1339         112.00       487.80
  336.97        2958.50           1342         125.00       544.47
  336.99        2958.75           1345         123.00       535.75
  337.02        2959.00           1349         121.00       527.04
  337.05        2959.25           1352         132.00       574.99
  337.08        2959.50           1355         124.00       540.11
  337.10        2959.75           1359         117.00       509.60
  337.13        2960.00           1362         121.00       527.04
  337.16        2960.25           1365         112.00       487.80
  337.19        2960.50           1369         125.00       544.47
  337.21        2960.75           1372         133.00       579.35
  337.24        2961.00           1375         149.00       649.10
  337.27        2961.25           1379         148.00       644.74
  337.30        2961.50           1382         218.00       949.90
  337.33        2961.75           1385         754.00      3286.72
  337.35        2962.00           1389        2507.00     10931.66
  337.38        2962.25           1392        4402.00     19199.81
  337.41        2962.50           1395        6415.00     27987.31
  337.44        2962.75           1399        9306.00     40615.72
  337.46        2963.00           1402       11179.00     48802.44
  337.49        2963.25           1405       13475.00     58843.55
  337.52        2963.50           1409       16393.00     71613.60
  337.55        2963.75           1412       18100.00     79088.48
  337.58        2964.00           1415       19953.00     87206.49
  337.61        2964.25           1419       22935.00    100279.00
  337.64        2964.50           1422       24793.00    108429.30
  337.66        2964.75           1425       27376.00    119766.50
  337.69        2965.00           1429       30305.00    132631.80
  337.72        2965.25           1432       32026.00    140195.60
  337.75        2965.50           1435       34349.00    150410.90
  337.78        2965.75           1439       37137.00    162679.10
  337.80        2966.00           1442       39122.00    171419.40
  337.84        2966.25           1445       41254.00    180812.00
  337.87        2966.50           1449       43195.00    189367.90
  337.90        2966.75           1452       44157.00    193610.00
  337.93        2967.00           1455       44651.00    195788.70
  337.96        2967.25           1459       44902.00    196895.90
  337.98        2967.50           1462       44857.00    196697.40
  338.01        2967.75           1465       44724.00    196110.70
  338.04        2968.00           1469       43785.00    191969.40
  338.07        2968.25           1472       42340.00    185598.50
  338.09        2968.50           1475       40607.00    177961.10
  338.12        2968.75           1479       37963.00    166315.60
  338.15        2969.00           1482       35577.00    155813.40
  338.18        2969.25           1485       33857.00    148246.80
  338.21        2969.50           1489       31367.00    137298.90
  338.23        2969.75           1492       29352.00    128444.80
  338.26        2970.00           1495       27089.00    118506.50
  338.29        2970.25           1499       24345.00    106463.70
  338.32        2970.50           1502       22125.00     96727.10
  338.35        2970.75           1505       20235.00     88442.29
  338.37        2971.00           1509       17755.00     77577.47
  338.40        2971.25           1512       15964.00     69735.55
  338.43        2971.50           1515       13806.00     60291.61
  338.47        2971.75           1519       10893.00     47552.10
  338.50        2972.00           1522        8926.00     38955.27
  338.52        2972.25           1525        7070.00     30847.63
  338.55        2972.50           1529        4320.00     18841.95
  338.58        2972.75           1532        2500.00     10901.12
  338.61        2973.00           1536         792.00      3452.41
  338.63        2973.25           1539         269.00      1172.23
  338.66        2973.50           1542         174.00       758.08
  338.69        2973.75           1546         146.00       636.02
  338.72        2974.00           1549         138.00       601.14
  338.74        2974.25           1552         126.00       548.83
  338.77        2974.50           1556         134.00       583.71
  338.80        2974.75           1559         112.00       487.80
  338.83        2975.00           1562         120.00       522.68
  338.86        2975.25           1566         115.00       500.88
  338.88        2975.50           1569         116.00       505.24
  338.91        2975.75           1572         108.00       470.36
  338.94        2976.00           1576         115.00       500.88
  338.97        2976.25           1579         110.00       479.08
  339.00        2976.50           1582         102.00       444.21
  339.03        2976.75           1586         111.00       483.44
  339.05        2977.00           1589         104.00       452.93
  339.08        2977.25           1592         109.00       474.72
  339.11        2977.50           1596         106.00       461.65
  339.14        2977.75           1599         113.00       492.16
  339.17        2978.00           1602         117.00       509.60
  339.19        2978.25           1606         101.00       439.85
  339.22        2978.50           1609         107.00       466.00
  339.25        2978.75           1612         107.00       466.00
  339.28        2979.00           1616         109.00       474.72
  339.30        2979.25           1619         111.00       483.44
  339.33        2979.50           1623         108.00       470.36
  339.36        2979.75           1626         107.00       466.00
  339.39        2980.00           1629         107.00       466.00
  339.41        2980.25           1633         104.00       452.93
  339.44        2980.50           1636         105.00       457.29
  339.47        2980.75           1639          95.00       413.69
  339.50        2981.00           1643         116.00       505.24
  339.52        2981.25           1646         110.00       479.08
  339.55        2981.50           1649         101.00       439.85
  339.58        2981.75           1653         108.00       470.36
  339.61        2982.00           1656         101.00       439.85
  339.63        2982.25           1659         110.00       479.08
  339.66        2982.50           1663         104.00       452.93
  339.69        2982.75           1666         110.00       479.08
  339.72        2983.00           1669         105.00       457.29
  339.75        2983.25           1673         107.00       466.00
  339.77        2983.50           1676         100.00       435.49
  339.81        2983.75           1679         110.00       479.08
  339.84        2984.00           1683         103.00       448.57
HS scan finished at 05:40:08
end
