************************************************************
  HS Scan of (1) Internal mercury lamp
************************************************************
Integration time is 0.2294 seconds per sample
dh080317DelftKZ 51.997-4.386 2.321352pr1000
************************************************************
Dead Time -------------------------  3E-08 
Number of Cycles Used -------------  4 
Starting Wavelength (Angstroms) ---  2950 
Final Wavelength (Angstoms) -------  2984 
Wavelength Increment (Angstroms) --  .25 
Filter Wheel #1 Position ---------- (1) Ground quartz diffuser (ND=2.32)
Filter Wheel #2 Position ---------- (1) Neutral Density 0.494



************************************************************
HS scan start time = 04:52:54
Dark Count =  .1 


Time (GMT)  Wavelength (Ang)  Step Number  Raw Counts  Counts/Second

  293.34        2950.00           1229         126.00       548.83
  293.44        2950.25           1232         133.00       579.35
  293.47        2950.50           1236         133.00       579.35
  293.50        2950.75           1239         131.00       570.63
  293.53        2951.00           1242         131.00       570.63
  293.55        2951.25           1246         122.00       531.39
  293.58        2951.50           1249         137.00       596.78
  293.61        2951.75           1252         125.00       544.47
  293.64        2952.00           1255         135.00       588.07
  293.66        2952.25           1259         131.00       570.63
  293.69        2952.50           1262         126.00       548.83
  293.72        2952.75           1265         139.00       605.50
  293.75        2953.00           1269         114.00       496.52
  293.77        2953.25           1272         128.00       557.55
  293.80        2953.50           1275         125.00       544.47
  293.83        2953.75           1279         129.00       561.91
  293.86        2954.00           1282         122.00       531.39
  293.89        2954.25           1285         137.00       596.78
  293.91        2954.50           1289         132.00       574.99
  293.94        2954.75           1292         126.00       548.83
  293.97        2955.00           1295         120.00       522.68
  294.00        2955.25           1299         126.00       548.83
  294.02        2955.50           1302         142.00       618.58
  294.05        2955.75           1305         126.00       548.83
  294.08        2956.00           1309         131.00       570.63
  294.11        2956.25           1312         127.00       553.19
  294.13        2956.50           1315         129.00       561.91
  294.16        2956.75           1319         115.00       500.88
  294.19        2957.00           1322         123.00       535.75
  294.22        2957.25           1325         115.00       500.88
  294.25        2957.50           1329         125.00       544.47
  294.27        2957.75           1332         124.00       540.11
  294.30        2958.00           1335         126.00       548.83
  294.33        2958.25           1339         133.00       579.35
  294.36        2958.50           1342         112.00       487.80
  294.38        2958.75           1345         122.00       531.39
  294.41        2959.00           1349         117.00       509.60
  294.44        2959.25           1352         126.00       548.83
  294.47        2959.50           1355         122.00       531.39
  294.49        2959.75           1359         122.00       531.39
  294.52        2960.00           1362         130.00       566.27
  294.55        2960.25           1365         127.00       553.19
  294.58        2960.50           1369         121.00       527.04
  294.61        2960.75           1372         132.00       574.99
  294.63        2961.00           1375         141.00       614.22
  294.66        2961.25           1379         144.00       627.30
  294.69        2961.50           1382         258.00      1124.28
  294.72        2961.75           1385         920.00      4010.51
  294.75        2962.00           1389        2316.00     10098.53
  294.78        2962.25           1392        3872.00     16886.93
  294.81        2962.50           1395        5747.00     25070.73
  294.83        2962.75           1399        8484.00     37024.10
  294.86        2963.00           1402       10762.00     46979.42
  294.89        2963.25           1405       12739.00     55624.14
  294.92        2963.50           1409       15200.00     66391.49
  294.94        2963.75           1412       17184.00     75076.93
  294.97        2964.00           1415       19813.00     86593.02
  295.00        2964.25           1419       22717.00     99322.99
  295.03        2964.50           1422       25031.00    109473.60
  295.06        2964.75           1425       27496.00    120293.40
  295.09        2965.00           1429       30140.00    131906.80
  295.12        2965.25           1432       32288.00    141347.50
  295.15        2965.50           1435       34504.00    151092.60
  295.17        2965.75           1439       37179.00    162864.00
  295.20        2966.00           1442       39249.00    171978.70
  295.23        2966.25           1445       41074.00    180018.90
  295.26        2966.50           1449       42833.00    187771.90
  295.28        2966.75           1452       43909.00    192516.20
  295.31        2967.00           1455       44601.00    195568.20
  295.34        2967.25           1459       44454.00    194919.80
  295.37        2967.50           1462       44342.00    194425.90
  295.40        2967.75           1465       44351.00    194465.60
  295.42        2968.00           1469       43234.00    189539.80
  295.45        2968.25           1472       41831.00    183355.00
  295.48        2968.50           1475       40089.00    175678.90
  295.51        2968.75           1479       37678.00    165060.80
  295.54        2969.00           1482       35824.00    156900.30
  295.56        2969.25           1485       33945.00    148633.80
  295.59        2969.50           1489       31467.00    137738.40
  295.62        2969.75           1492       29133.00    127482.70
  295.65        2970.00           1495       26949.00    117891.80
  295.67        2970.25           1499       24558.00    107398.20
  295.70        2970.50           1502       22259.00     97314.64
  295.73        2970.75           1505       20358.00     88981.33
  295.76        2971.00           1509       17730.00     77467.98
  295.79        2971.25           1512       15435.00     67420.02
  295.81        2971.50           1515       13178.00     57544.33
  295.84        2971.75           1519       10852.00     47372.86
  295.87        2972.00           1522        8969.00     39143.15
  295.90        2972.25           1525        6911.00     30153.25
  295.93        2972.50           1529        4141.00     18060.79
  295.95        2972.75           1532        2097.00      9143.31
  295.98        2973.00           1536         591.00      2576.05
  296.01        2973.25           1539         258.00      1124.28
  296.04        2973.50           1542         165.00       718.85
  296.07        2973.75           1546         148.00       644.74
  296.10        2974.00           1549         137.00       596.78
  296.13        2974.25           1552         133.00       579.35
  296.16        2974.50           1556         123.00       535.75
  296.18        2974.75           1559         128.00       557.55
  296.21        2975.00           1562         118.00       513.96
  296.24        2975.25           1566         115.00       500.88
  296.27        2975.50           1569         114.00       496.52
  296.30        2975.75           1572         113.00       492.16
  296.33        2976.00           1576         115.00       500.88
  296.35        2976.25           1579         114.00       496.52
  296.38        2976.50           1582         115.00       500.88
  296.41        2976.75           1586         114.00       496.52
  296.44        2977.00           1589         116.00       505.24
  296.47        2977.25           1592         105.00       457.29
  296.49        2977.50           1596         108.00       470.36
  296.52        2977.75           1599         102.00       444.21
  296.55        2978.00           1602         105.00       457.29
  296.58        2978.25           1606         103.00       448.57
  296.60        2978.50           1609         113.00       492.16
  296.63        2978.75           1612         101.00       439.85
  296.66        2979.00           1616         111.00       483.44
  296.69        2979.25           1619         114.00       496.52
  296.72        2979.50           1623         107.00       466.00
  296.75        2979.75           1626         105.00       457.29
  296.78        2980.00           1629         104.00       452.93
  296.80        2980.25           1633         104.00       452.93
  296.83        2980.50           1636         106.00       461.65
  296.86        2980.75           1639         115.00       500.88
  296.89        2981.00           1643         105.00       457.29
  296.91        2981.25           1646         113.00       492.16
  296.94        2981.50           1649         101.00       439.85
  296.97        2981.75           1653         104.00       452.93
  297.00        2982.00           1656         108.00       470.36
  297.02        2982.25           1659          93.00       404.97
  297.05        2982.50           1663         100.00       435.49
  297.08        2982.75           1666         109.00       474.72
  297.11        2983.00           1669         100.00       435.49
  297.13        2983.25           1673         100.00       435.49
  297.16        2983.50           1676         102.00       444.21
  297.19        2983.75           1679          99.00       431.13
  297.22        2984.00           1683         101.00       439.85
HS scan finished at 04:57:31
end
