************************************************************
  HS Scan of (1) Internal mercury lamp
************************************************************
Integration time is 0.2294 seconds per sample
dh060317DelftKZ 51.997-4.386 2.321352pr1000
************************************************************
Dead Time -------------------------  3E-08 
Number of Cycles Used -------------  4 
Starting Wavelength (Angstroms) ---  2950 
Final Wavelength (Angstoms) -------  2984 
Wavelength Increment (Angstroms) --  .25 
Filter Wheel #1 Position ---------- (1) Ground quartz diffuser (ND=2.32)
Filter Wheel #2 Position ---------- (1) Neutral Density 0.494



************************************************************
HS scan start time = 04:57:35
Dark Count =  0 


Time (GMT)  Wavelength (Ang)  Step Number  Raw Counts  Counts/Second

  298.03        2950.00           1229         131.00       571.06
  298.13        2950.25           1232         131.00       571.06
  298.16        2950.50           1236         133.00       579.78
  298.19        2950.75           1239         128.00       557.99
  298.22        2951.00           1242         128.00       557.99
  298.24        2951.25           1246         125.00       544.91
  298.27        2951.50           1249         127.00       553.63
  298.30        2951.75           1252         123.00       536.19
  298.33        2952.00           1255         125.00       544.91
  298.35        2952.25           1259         122.00       531.83
  298.38        2952.50           1262         129.00       562.35
  298.41        2952.75           1265         132.00       575.42
  298.44        2953.00           1269         138.00       601.58
  298.47        2953.25           1272         131.00       571.06
  298.49        2953.50           1275         136.00       592.86
  298.52        2953.75           1279         121.00       527.47
  298.55        2954.00           1282         135.00       588.50
  298.58        2954.25           1285         124.00       540.55
  298.60        2954.50           1289         131.00       571.06
  298.63        2954.75           1292         127.00       553.63
  298.66        2955.00           1295         134.00       584.14
  298.69        2955.25           1299         131.00       571.06
  298.71        2955.50           1302         122.00       531.83
  298.74        2955.75           1305         132.00       575.42
  298.77        2956.00           1309         129.00       562.35
  298.80        2956.25           1312         123.00       536.19
  298.82        2956.50           1315         119.00       518.75
  298.85        2956.75           1319         137.00       597.22
  298.88        2957.00           1322         123.00       536.19
  298.91        2957.25           1325         119.00       518.75
  298.94        2957.50           1329         127.00       553.63
  298.96        2957.75           1332         122.00       531.83
  298.99        2958.00           1335         132.00       575.42
  299.02        2958.25           1339         122.00       531.83
  299.05        2958.50           1342         118.00       514.39
  299.07        2958.75           1345         126.00       549.27
  299.10        2959.00           1349         114.00       496.96
  299.13        2959.25           1352         119.00       518.75
  299.16        2959.50           1355         124.00       540.55
  299.19        2959.75           1359         116.00       505.67
  299.22        2960.00           1362         119.00       518.75
  299.25        2960.25           1365         122.00       531.83
  299.28        2960.50           1369         122.00       531.83
  299.31        2960.75           1372         133.00       579.78
  299.33        2961.00           1375         140.00       610.30
  299.36        2961.25           1379         152.00       662.61
  299.39        2961.50           1382         248.00      1081.12
  299.42        2961.75           1385         727.00      3169.44
  299.45        2962.00           1389        2230.00      9723.85
  299.47        2962.25           1392        3959.00     17267.01
  299.50        2962.50           1395        5879.00     25647.45
  299.53        2962.75           1399        8652.00     37758.53
  299.56        2963.00           1402       10473.00     45716.54
  299.59        2963.25           1405       12368.00     54001.98
  299.62        2963.50           1409       15436.00     67424.82
  299.65        2963.75           1412       17689.00     77288.85
  299.68        2964.00           1415       19973.00     87294.58
  299.70        2964.25           1419       23584.00    103125.90
  299.73        2964.50           1422       25272.00    110531.60
  299.76        2964.75           1425       27848.00    121839.50
  299.79        2965.00           1429       30748.00    134578.90
  299.81        2965.25           1432       32854.00    143836.40
  299.84        2965.50           1435       35121.00    153807.50
  299.87        2965.75           1439       37687.00    165100.80
  299.90        2966.00           1442       39533.00    173230.10
  299.93        2966.25           1445       41591.00    182297.70
  299.95        2966.50           1449       43490.00    190669.10
  299.98        2966.75           1452       44912.00    196940.40
  300.01        2967.00           1455       45300.00    198652.00
  300.04        2967.25           1459       45412.00    199146.10
  300.07        2967.50           1462       45342.00    198837.30
  300.09        2967.75           1465       45242.00    198396.20
  300.12        2968.00           1469       44562.00    195396.60
  300.15        2968.25           1472       42991.00    188468.90
  300.18        2968.50           1475       41640.00    182513.60
  300.20        2968.75           1479       39338.00    172371.20
  300.23        2969.00           1482       37076.00    162411.00
  300.26        2969.25           1485       34833.00    152540.40
  300.29        2969.50           1489       32047.00    140288.40
  300.32        2969.75           1492       29829.00    130540.70
  300.34        2970.00           1495       27476.00    120206.00
  300.37        2970.25           1499       25053.00    109570.60
  300.40        2970.50           1502       23047.00    100770.60
  300.43        2970.75           1505       20908.00     91392.34
  300.45        2971.00           1509       18175.00     79417.41
  300.48        2971.25           1512       15854.00     69254.47
  300.51        2971.50           1515       14211.00     62064.01
  300.54        2971.75           1519       11608.00     50678.56
  300.57        2972.00           1522        9357.00     40839.02
  300.59        2972.25           1525        7093.00     30948.51
  300.62        2972.50           1529        3999.00     17441.56
  300.65        2972.75           1532        2148.00      9366.19
  300.68        2973.00           1536         748.00      3261.00
  300.70        2973.25           1539         309.00      1347.05
  300.73        2973.50           1542         173.00       754.16
  300.76        2973.75           1546         156.00       680.05
  300.79        2974.00           1549         141.00       614.66
  300.82        2974.25           1552         134.00       584.14
  300.84        2974.50           1556         129.00       562.35
  300.87        2974.75           1559         124.00       540.55
  300.90        2975.00           1562         121.00       527.47
  300.93        2975.25           1566         105.00       457.72
  300.95        2975.50           1569         116.00       505.67
  300.98        2975.75           1572         108.00       470.80
  301.01        2976.00           1576         124.00       540.55
  301.04        2976.25           1579         115.00       501.32
  301.06        2976.50           1582         112.00       488.24
  301.09        2976.75           1586         112.00       488.24
  301.12        2977.00           1589         112.00       488.24
  301.15        2977.25           1592         123.00       536.19
  301.18        2977.50           1596         108.00       470.80
  301.20        2977.75           1599         108.00       470.80
  301.23        2978.00           1602         111.00       483.88
  301.26        2978.25           1606         107.00       466.44
  301.29        2978.50           1609         106.00       462.08
  301.31        2978.75           1612         107.00       466.44
  301.34        2979.00           1616          94.00       409.77
  301.37        2979.25           1619          99.00       431.57
  301.41        2979.50           1623         112.00       488.24
  301.44        2979.75           1626         104.00       453.36
  301.46        2980.00           1629         109.00       475.16
  301.49        2980.25           1633         111.00       483.88
  301.52        2980.50           1636         107.00       466.44
  301.55        2980.75           1639         103.00       449.00
  301.57        2981.00           1643         111.00       483.88
  301.60        2981.25           1646         107.00       466.44
  301.64        2981.50           1649          97.00       422.85
  301.67        2981.75           1653         104.00       453.36
  301.70        2982.00           1656         104.00       453.36
  301.72        2982.25           1659         102.00       444.64
  301.75        2982.50           1663          97.00       422.85
  301.78        2982.75           1666         105.00       457.72
  301.81        2983.00           1669         105.00       457.72
  301.83        2983.25           1673         103.00       449.00
  301.86        2983.50           1676          98.00       427.21
  301.89        2983.75           1679         108.00       470.80
  301.92        2984.00           1683          96.00       418.49
HS scan finished at 05:02:13
end
