************************************************************
  HS Scan of (1) Internal mercury lamp
************************************************************
Integration time is 0.2294 seconds per sample
dh050317DelftKZ 51.997-4.386 2.321352pr1000
************************************************************
Dead Time -------------------------  3E-08 
Number of Cycles Used -------------  4 
Starting Wavelength (Angstroms) ---  2950 
Final Wavelength (Angstoms) -------  2984 
Wavelength Increment (Angstroms) --  .25 
Filter Wheel #1 Position ---------- (1) Ground quartz diffuser (ND=2.32)
Filter Wheel #2 Position ---------- (1) Neutral Density 0.494



************************************************************
HS scan start time = 05:00:05
Dark Count =  0 


Time (GMT)  Wavelength (Ang)  Step Number  Raw Counts  Counts/Second

  300.53        2950.00           1229         139.00       605.94
  300.63        2950.25           1232         134.00       584.14
  300.65        2950.50           1236         131.00       571.06
  300.68        2950.75           1239         132.00       575.42
  300.71        2951.00           1242         122.00       531.83
  300.74        2951.25           1246         113.00       492.60
  300.77        2951.50           1249         134.00       584.14
  300.79        2951.75           1252         136.00       592.86
  300.82        2952.00           1255         135.00       588.50
  300.85        2952.25           1259         127.00       553.63
  300.88        2952.50           1262         128.00       557.99
  300.90        2952.75           1265         132.00       575.42
  300.93        2953.00           1269         129.00       562.35
  300.96        2953.25           1272         132.00       575.42
  300.99        2953.50           1275         123.00       536.19
  301.01        2953.75           1279         122.00       531.83
  301.04        2954.00           1282         132.00       575.42
  301.07        2954.25           1285         137.00       597.22
  301.10        2954.50           1289         124.00       540.55
  301.13        2954.75           1292         120.00       523.11
  301.15        2955.00           1295         134.00       584.14
  301.19        2955.25           1299         125.00       544.91
  301.22        2955.50           1302         119.00       518.75
  301.25        2955.75           1305         121.00       527.47
  301.28        2956.00           1309         123.00       536.19
  301.30        2956.25           1312         127.00       553.63
  301.33        2956.50           1315         126.00       549.27
  301.36        2956.75           1319         115.00       501.32
  301.39        2957.00           1322         128.00       557.99
  301.42        2957.25           1325         119.00       518.75
  301.45        2957.50           1329         134.00       584.14
  301.48        2957.75           1332         125.00       544.91
  301.51        2958.00           1335         121.00       527.47
  301.53        2958.25           1339         130.00       566.71
  301.56        2958.50           1342         136.00       592.86
  301.59        2958.75           1345         120.00       523.11
  301.62        2959.00           1349         118.00       514.39
  301.64        2959.25           1352         124.00       540.55
  301.67        2959.50           1355         118.00       514.39
  301.70        2959.75           1359         123.00       536.19
  301.73        2960.00           1362         113.00       492.60
  301.76        2960.25           1365         132.00       575.42
  301.79        2960.50           1369         125.00       544.91
  301.82        2960.75           1372         125.00       544.91
  301.84        2961.00           1375         138.00       601.58
  301.88        2961.25           1379         141.00       614.66
  301.91        2961.50           1382         243.00      1059.32
  301.94        2961.75           1385         718.00      3130.20
  301.96        2962.00           1389        2239.00      9763.10
  301.99        2962.25           1392        4006.00     17472.10
  302.02        2962.50           1395        6100.00     26612.35
  302.05        2962.75           1399        8350.00     36439.12
  302.08        2963.00           1402       10025.00     43758.37
  302.10        2963.25           1405       12410.00     54185.66
  302.13        2963.50           1409       15438.00     67433.58
  302.16        2963.75           1412       17374.00     75909.38
  302.19        2964.00           1415       19876.00     86869.52
  302.21        2964.25           1419       22912.00    100178.60
  302.24        2964.50           1422       25012.00    109390.70
  302.27        2964.75           1425       27461.00    120140.20
  302.30        2965.00           1429       30377.00    132948.60
  302.33        2965.25           1432       32517.00    142354.70
  302.35        2965.50           1435       34460.00    150899.60
  302.38        2965.75           1439       36841.00    161376.60
  302.41        2966.00           1442       38737.00    169724.20
  302.44        2966.25           1445       40777.00    178710.60
  302.46        2966.50           1449       43263.00    189668.20
  302.49        2966.75           1452       44195.00    193778.00
  302.52        2967.00           1455       44545.00    195321.60
  302.55        2967.25           1459       44855.00    196689.00
  302.58        2967.50           1462       44816.00    196517.00
  302.60        2967.75           1465       44647.00    195771.50
  302.63        2968.00           1469       43732.00    191736.20
  302.66        2968.25           1472       42719.00    187269.70
  302.69        2968.50           1475       41124.00    180239.60
  302.72        2968.75           1479       38793.00    169970.90
  302.74        2969.00           1482       36776.00    161090.50
  302.77        2969.25           1485       34403.00    150648.80
  302.80        2969.50           1489       31607.00    138354.20
  302.83        2969.75           1492       29047.00    127105.40
  302.86        2970.00           1495       27290.00    119389.40
  302.89        2970.25           1499       24878.00    108802.70
  302.92        2970.50           1502       22809.00     99726.87
  302.95        2970.75           1505       20468.00     89463.86
  302.98        2971.00           1509       17901.00     78217.32
  303.01        2971.25           1512       16028.00     70016.15
  303.03        2971.50           1515       14001.00     61145.20
  303.06        2971.75           1519       11219.00     48977.76
  303.09        2972.00           1522        9025.00     39388.28
  303.12        2972.25           1525        6643.00     28983.34
  303.15        2972.50           1529        3926.00     17123.00
  303.17        2972.75           1532        2246.00      9793.64
  303.20        2973.00           1536         754.00      3287.16
  303.23        2973.25           1539         297.00      1294.73
  303.26        2973.50           1542         174.00       758.52
  303.28        2973.75           1546         133.00       579.78
  303.31        2974.00           1549         132.00       575.42
  303.34        2974.25           1552         124.00       540.55
  303.37        2974.50           1556         121.00       527.47
  303.39        2974.75           1559         114.00       496.96
  303.42        2975.00           1562         108.00       470.80
  303.45        2975.25           1566         104.00       453.36
  303.48        2975.50           1569         105.00       457.72
  303.50        2975.75           1572         111.00       483.88
  303.53        2976.00           1576         106.00       462.08
  303.56        2976.25           1579         108.00       470.80
  303.59        2976.50           1582         119.00       518.75
  303.62        2976.75           1586         103.00       449.00
  303.65        2977.00           1589         107.00       466.44
  303.68        2977.25           1592         109.00       475.16
  303.71        2977.50           1596         108.00       470.80
  303.73        2977.75           1599         108.00       470.80
  303.76        2978.00           1602          99.00       431.57
  303.79        2978.25           1606         112.00       488.24
  303.82        2978.50           1609         105.00       457.72
  303.84        2978.75           1612         107.00       466.44
  303.87        2979.00           1616         108.00       470.80
  303.90        2979.25           1619         102.00       444.64
  303.93        2979.50           1623         117.00       510.03
  303.95        2979.75           1626         104.00       453.36
  303.98        2980.00           1629         114.00       496.96
  304.01        2980.25           1633         109.00       475.16
  304.04        2980.50           1636         104.00       453.36
  304.07        2980.75           1639         103.00       449.00
  304.10        2981.00           1643         106.00       462.08
  304.13        2981.25           1646         107.00       466.44
  304.15        2981.50           1649         104.00       453.36
  304.18        2981.75           1653         103.00       449.00
  304.21        2982.00           1656          98.00       427.21
  304.24        2982.25           1659         100.00       435.93
  304.26        2982.50           1663         108.00       470.80
  304.29        2982.75           1666         102.00       444.64
  304.32        2983.00           1669         107.00       466.44
  304.35        2983.25           1673          98.00       427.21
  304.38        2983.50           1676         104.00       453.36
  304.40        2983.75           1679         103.00       449.00
  304.43        2984.00           1683         111.00       483.88
HS scan finished at 05:04:44
end
