************************************************************
  HS Scan of (1) Internal mercury lamp
************************************************************
Integration time is 0.2294 seconds per sample
dh250318Delft 51.9969-4.3863 3.287017pr1000
************************************************************
Dead Time -------------------------  2.7E-08 
Number of Cycles Used -------------  4 
Starting Wavelength (Angstroms) ---  2950 
Final Wavelength (Angstoms) -------  2984 
Wavelength Increment (Angstroms) --  .25 
Filter Wheel #1 Position ---------- (1) Ground quartz diffuser (ND=2.32)
Filter Wheel #2 Position ---------- (1) Neutral Density 0.494



************************************************************
HS scan start time = 06:07:42
Dark Count =  .3 


Time (GMT)  Wavelength (Ang)  Step Number  Raw Counts  Counts/Second

  368.15        2950.00           1229         104.00       452.05
  368.25        2950.25           1232         101.00       438.98
  368.28        2950.50           1236         106.00       460.77
  368.31        2950.75           1239         102.00       443.34
  368.34        2951.00           1242          97.00       421.54
  368.37        2951.25           1246         107.00       465.13
  368.40        2951.50           1249         100.00       434.62
  368.43        2951.75           1252         101.00       438.98
  368.46        2952.00           1256          99.00       430.26
  368.49        2952.25           1259          97.00       421.54
  368.52        2952.50           1262          99.00       430.26
  368.55        2952.75           1266         107.00       465.13
  368.57        2953.00           1269         102.00       443.34
  368.60        2953.25           1272         101.00       438.98
  368.63        2953.50           1276          98.00       425.90
  368.66        2953.75           1279         106.00       460.77
  368.69        2954.00           1282         106.00       460.77
  368.72        2954.25           1286          92.00       399.74
  368.75        2954.50           1289         105.00       456.41
  368.78        2954.75           1292         102.00       443.34
  368.81        2955.00           1296          96.00       417.18
  368.84        2955.25           1299         103.00       447.70
  368.87        2955.50           1302         106.00       460.77
  368.90        2955.75           1306          99.00       430.26
  368.93        2956.00           1309         111.00       482.57
  368.96        2956.25           1312          96.00       417.18
  368.99        2956.50           1316         106.00       460.77
  369.02        2956.75           1319          97.00       421.54
  369.05        2957.00           1322         100.00       434.62
  369.08        2957.25           1326         109.00       473.85
  369.11        2957.50           1329         100.00       434.62
  369.14        2957.75           1332         103.00       447.70
  369.17        2958.00           1336         102.00       443.34
  369.20        2958.25           1339          99.00       430.26
  369.23        2958.50           1342          92.00       399.74
  369.26        2958.75           1345         112.00       486.93
  369.29        2959.00           1349         101.00       438.98
  369.32        2959.25           1352         100.00       434.62
  369.35        2959.50           1355          92.00       399.74
  369.37        2959.75           1359          95.00       412.82
  369.40        2960.00           1362         100.00       434.62
  369.43        2960.25           1365         104.00       452.05
  369.46        2960.50           1369         110.00       478.21
  369.49        2960.75           1372         112.00       486.93
  369.52        2961.00           1375         116.00       504.37
  369.55        2961.25           1379         129.00       561.04
  369.58        2961.50           1382         176.00       765.93
  369.61        2961.75           1385         549.00      2392.05
  369.64        2962.00           1389        2669.00     11637.05
  369.67        2962.25           1392        5285.00     23051.40
  369.70        2962.50           1395        7979.00     34813.45
  369.73        2962.75           1399       11366.00     49611.75
  369.76        2963.00           1402       14661.00     64019.46
  369.79        2963.25           1405       18204.00     79524.10
  369.82        2963.50           1409       23084.00    100900.90
  369.85        2963.75           1412       26571.00    116190.90
  369.88        2964.00           1415       29373.00    128486.40
  369.91        2964.25           1419       33175.00    145183.10
  369.94        2964.50           1422       36838.00    161283.60
  369.97        2964.75           1425       40104.00    175651.00
  370.00        2965.00           1429       44439.00    194738.30
  370.03        2965.25           1432       48212.00    211367.20
  370.06        2965.50           1435       51159.00    224366.00
  370.09        2965.75           1439       55605.00    243994.00
  370.12        2966.00           1442       58922.00    258651.40
  370.15        2966.25           1445       61859.00    271639.30
  370.17        2966.50           1449       65412.00    287363.50
  370.20        2966.75           1452       67111.00    294887.40
  370.23        2967.00           1455       67723.00    297598.40
  370.26        2967.25           1459       67969.00    298688.10
  370.29        2967.50           1462       67875.00    298271.70
  370.32        2967.75           1465       67755.00    297740.10
  370.35        2968.00           1469       66285.00    291229.20
  370.38        2968.25           1472       64805.00    284676.20
  370.41        2968.50           1475       62312.00    273643.40
  370.44        2968.75           1479       58417.00    256419.10
  370.47        2969.00           1482       55278.00    242549.70
  370.50        2969.25           1485       51848.00    227406.40
  370.53        2969.50           1489       48581.00    212994.30
  370.56        2969.75           1492       45929.00    201303.50
  370.59        2970.00           1495       42799.00    187515.00
  370.62        2970.25           1499       38604.00    169051.00
  370.65        2970.50           1502       35086.00    153581.10
  370.68        2970.75           1505       31907.00    139612.90
  370.71        2971.00           1509       27087.00    118454.50
  370.74        2971.25           1512       24188.00    105740.40
  370.77        2971.50           1515       21540.00     94134.77
  370.80        2971.75           1519       17335.00     75720.03
  370.83        2972.00           1522       13872.00     60568.46
  370.86        2972.25           1525       10696.00     46683.48
  370.89        2972.50           1529        7516.00     32791.45
  370.92        2972.75           1532        4632.00     20201.51
  370.95        2973.00           1535        2159.00      9412.59
  370.98        2973.25           1539         508.00      2213.30
  371.01        2973.50           1542         198.00       861.83
  371.04        2973.75           1546         159.00       691.82
  371.07        2974.00           1549         147.00       639.51
  371.10        2974.25           1552         138.00       600.27
  371.13        2974.50           1556         123.00       534.88
  371.15        2974.75           1559         111.00       482.57
  371.18        2975.00           1562         103.00       447.70
  371.21        2975.25           1566         108.00       469.49
  371.24        2975.50           1569         101.00       438.98
  371.27        2975.75           1572          94.00       408.46
  371.30        2976.00           1576          90.00       391.02
  371.33        2976.25           1579          98.00       425.90
  371.36        2976.50           1582          98.00       425.90
  371.39        2976.75           1586          95.00       412.82
  371.42        2977.00           1589          91.00       395.38
  371.45        2977.25           1592          92.00       399.74
  371.48        2977.50           1596          92.00       399.74
  371.51        2977.75           1599          95.00       412.82
  371.54        2978.00           1602          92.00       399.74
  371.57        2978.25           1606          97.00       421.54
  371.60        2978.50           1609          95.00       412.82
  371.63        2978.75           1612          96.00       417.18
  371.66        2979.00           1616          97.00       421.54
  371.69        2979.25           1619         108.00       469.49
  371.72        2979.50           1622          97.00       421.54
  371.75        2979.75           1626          86.00       373.59
  371.78        2980.00           1629          90.00       391.02
  371.80        2980.25           1632          92.00       399.74
  371.84        2980.50           1636          96.00       417.18
  371.87        2980.75           1639          91.00       395.38
  371.90        2981.00           1642          94.00       408.46
  371.92        2981.25           1646          86.00       373.59
  371.95        2981.50           1649          89.00       386.66
  371.98        2981.75           1653          98.00       425.90
  372.01        2982.00           1656          85.00       369.23
  372.04        2982.25           1659          85.00       369.23
  372.07        2982.50           1663          90.00       391.02
  372.10        2982.75           1666          88.00       382.31
  372.13        2983.00           1669          74.00       321.28
  372.16        2983.25           1673          90.00       391.02
  372.19        2983.50           1676          90.00       391.02
  372.22        2983.75           1679          88.00       382.31
  372.25        2984.00           1683          89.00       386.66
HS scan finished at 06:12:33
end
************************************************************
  HS Scan of (1) Internal mercury lamp
************************************************************
Integration time is 0.2294 seconds per sample
dh250318Delft 51.9969-4.3863 3.233369pr1000
************************************************************
Dead Time -------------------------  2.7E-08 
Number of Cycles Used -------------  4 
Starting Wavelength (Angstroms) ---  2950 
Final Wavelength (Angstoms) -------  2984 
Wavelength Increment (Angstroms) --  .25 
Filter Wheel #1 Position ---------- (1) Ground quartz diffuser (ND=2.32)
Filter Wheel #2 Position ---------- (1) Neutral Density 0.494



************************************************************
HS scan start time = 07:54:55
Dark Count =  .3 


Time (GMT)  Wavelength (Ang)  Step Number  Raw Counts  Counts/Second

  475.37        2950.00           1229          98.00       425.90
  475.47        2950.25           1232          99.00       430.26
  475.50        2950.50           1236         100.00       434.62
  475.52        2950.75           1239         105.00       456.41
  475.56        2951.00           1242          98.00       425.90
  475.58        2951.25           1246         101.00       438.98
  475.61        2951.50           1249         111.00       482.57
  475.64        2951.75           1252         110.00       478.21
  475.67        2952.00           1256         102.00       443.34
  475.70        2952.25           1259         109.00       473.85
  475.73        2952.50           1262          96.00       417.18
  475.76        2952.75           1266         107.00       465.13
  475.79        2953.00           1269         102.00       443.34
  475.82        2953.25           1272          98.00       425.90
  475.85        2953.50           1276         101.00       438.98
  475.88        2953.75           1279          97.00       421.54
  475.91        2954.00           1282         108.00       469.49
  475.94        2954.25           1286          97.00       421.54
  475.97        2954.50           1289          97.00       421.54
  476.00        2954.75           1292         101.00       438.98
  476.03        2955.00           1296         103.00       447.70
  476.06        2955.25           1299          99.00       430.26
  476.09        2955.50           1302          97.00       421.54
  476.12        2955.75           1306         109.00       473.85
  476.15        2956.00           1309         106.00       460.77
  476.18        2956.25           1312          94.00       408.46
  476.21        2956.50           1316         100.00       434.62
  476.24        2956.75           1319         103.00       447.70
  476.26        2957.00           1322         104.00       452.05
  476.29        2957.25           1326         113.00       491.29
  476.32        2957.50           1329         102.00       443.34
  476.35        2957.75           1332          97.00       421.54
  476.38        2958.00           1336         104.00       452.05
  476.41        2958.25           1339          94.00       408.46
  476.44        2958.50           1342         105.00       456.41
  476.47        2958.75           1345          96.00       417.18
  476.50        2959.00           1349         101.00       438.98
  476.53        2959.25           1352         109.00       473.85
  476.56        2959.50           1355          99.00       430.26
  476.59        2959.75           1359         104.00       452.05
  476.62        2960.00           1362          98.00       425.90
  476.65        2960.25           1365         103.00       447.70
  476.68        2960.50           1369         107.00       465.13
  476.71        2960.75           1372         107.00       465.13
  476.74        2961.00           1375         124.00       539.24
  476.77        2961.25           1379         145.00       630.79
  476.80        2961.50           1382         220.00       957.74
  476.83        2961.75           1385         843.00      3673.86
  476.86        2962.00           1389        3065.00     13364.45
  476.89        2962.25           1392        5609.00     24465.59
  476.92        2962.50           1395        8681.00     37879.61
  476.95        2962.75           1399       12930.00     56449.10
  476.98        2963.00           1402       15884.00     69370.01
  477.01        2963.25           1405       18710.00     81739.48
  477.04        2963.50           1409       23523.00    102825.20
  477.07        2963.75           1412       26992.00    118037.80
  477.09        2964.00           1415       30190.00    132073.00
  477.12        2964.25           1419       34932.00    152904.10
  477.15        2964.50           1422       38056.00    166640.40
  477.18        2964.75           1425       41400.00    181355.30
  477.21        2965.00           1429       45956.00    201422.40
  477.25        2965.25           1432       48903.00    214414.30
  477.27        2965.50           1435       52349.00    229617.50
  477.30        2965.75           1439       55543.00    243720.20
  477.33        2966.00           1442       58397.00    256330.70
  477.36        2966.25           1445       61805.00    271400.50
  477.39        2966.50           1449       65389.00    287261.70
  477.42        2966.75           1452       67023.00    294497.60
  477.45        2967.00           1455       67666.00    297345.90
  477.48        2967.25           1459       67540.00    296787.70
  477.51        2967.50           1462       67797.00    297926.20
  477.54        2967.75           1465       67712.00    297549.60
  477.57        2968.00           1469       66235.00    291007.80
  477.60        2968.25           1472       64239.00    282170.80
  477.63        2968.50           1475       62116.00    272776.30
  477.66        2968.75           1479       58479.00    256693.20
  477.69        2969.00           1482       55742.00    244599.20
  477.72        2969.25           1485       52225.00    229070.20
  477.75        2969.50           1489       48103.00    210886.50
  477.78        2969.75           1492       44836.00    196487.30
  477.81        2970.00           1495       41011.00    179643.00
  477.84        2970.25           1499       37345.00    163513.20
  477.87        2970.50           1502       34208.00    149722.20
  477.90        2970.75           1505       30634.00    134022.50
  477.93        2971.00           1509       26150.00    114344.20
  477.96        2971.25           1512       23314.00    101909.10
  477.99        2971.50           1515       20749.00     90669.38
  478.02        2971.75           1519       16640.00     72678.22
  478.05        2972.00           1522       13432.00     58644.23
  478.08        2972.25           1525       10132.00     44218.85
  478.11        2972.50           1529        5587.00     24369.56
  478.14        2972.75           1532        3072.00     13394.99
  478.17        2973.00           1535        1344.00      5858.38
  478.19        2973.25           1539         347.00      1511.40
  478.22        2973.50           1542         197.00       857.47
  478.26        2973.75           1546         149.00       648.22
  478.28        2974.00           1549         149.00       648.22
  478.31        2974.25           1552         125.00       543.60
  478.34        2974.50           1556         121.00       526.16
  478.37        2974.75           1559         125.00       543.60
  478.40        2975.00           1562         113.00       491.29
  478.43        2975.25           1566         106.00       460.77
  478.46        2975.50           1569          97.00       421.54
  478.49        2975.75           1572          98.00       425.90
  478.52        2976.00           1576          99.00       430.26
  478.55        2976.25           1579          99.00       430.26
  478.58        2976.50           1582          96.00       417.18
  478.61        2976.75           1586          98.00       425.90
  478.64        2977.00           1589          94.00       408.46
  478.67        2977.25           1592          91.00       395.38
  478.70        2977.50           1596          86.00       373.59
  478.73        2977.75           1599          98.00       425.90
  478.76        2978.00           1602          92.00       399.74
  478.79        2978.25           1606          95.00       412.82
  478.82        2978.50           1609          95.00       412.82
  478.85        2978.75           1612          91.00       395.38
  478.88        2979.00           1616          88.00       382.31
  478.91        2979.25           1619          88.00       382.31
  478.93        2979.50           1622          94.00       408.46
  478.96        2979.75           1626          94.00       408.46
  478.99        2980.00           1629          94.00       408.46
  479.02        2980.25           1632          92.00       399.74
  479.05        2980.50           1636          94.00       408.46
  479.08        2980.75           1639          92.00       399.74
  479.11        2981.00           1642          98.00       425.90
  479.14        2981.25           1646          87.00       377.95
  479.17        2981.50           1649          98.00       425.90
  479.20        2981.75           1653          92.00       399.74
  479.23        2982.00           1656          82.00       356.15
  479.26        2982.25           1659          94.00       408.46
