************************************************************
  HS Scan of (1) Internal mercury lamp
************************************************************
Integration time is 0.2294 seconds per sample
dh230318Delft 51.9969-4.3863 3.072425pr1000
************************************************************
Dead Time -------------------------  2.7E-08 
Number of Cycles Used -------------  4 
Starting Wavelength (Angstroms) ---  2950 
Final Wavelength (Angstoms) -------  2984 
Wavelength Increment (Angstroms) --  .25 
Filter Wheel #1 Position ---------- (1) Ground quartz diffuser (ND=2.32)
Filter Wheel #2 Position ---------- (1) Neutral Density 0.494



************************************************************
HS scan start time = 08:59:57
Dark Count =  .2 


Time (GMT)  Wavelength (Ang)  Step Number  Raw Counts  Counts/Second

  540.41        2950.00           1229         111.00       483.01
  540.51        2950.25           1232         109.00       474.29
  540.54        2950.50           1236         110.00       478.65
  540.57        2950.75           1239         116.00       504.80
  540.60        2951.00           1242         107.00       465.57
  540.63        2951.25           1246         111.00       483.01
  540.66        2951.50           1249         116.00       504.80
  540.69        2951.75           1252         101.00       439.41
  540.71        2952.00           1255         111.00       483.01
  540.74        2952.25           1259         114.00       496.08
  540.77        2952.50           1262         113.00       491.72
  540.80        2952.75           1265          95.00       413.26
  540.83        2953.00           1269          99.00       430.69
  540.86        2953.25           1272         107.00       465.57
  540.89        2953.50           1275         109.00       474.29
  540.92        2953.75           1279         104.00       452.49
  540.95        2954.00           1282         107.00       465.57
  540.98        2954.25           1285         105.00       456.85
  541.01        2954.50           1289         103.00       448.13
  541.04        2954.75           1292         103.00       448.13
  541.07        2955.00           1295         108.00       469.93
  541.10        2955.25           1299          93.00       404.54
  541.13        2955.50           1302         117.00       509.16
  541.16        2955.75           1305         107.00       465.57
  541.19        2956.00           1309          98.00       426.33
  541.22        2956.25           1312         108.00       469.93
  541.25        2956.50           1315         113.00       491.72
  541.28        2956.75           1319         107.00       465.57
  541.31        2957.00           1322          92.00       400.18
  541.34        2957.25           1325         102.00       443.77
  541.37        2957.50           1329         101.00       439.41
  541.40        2957.75           1332         102.00       443.77
  541.42        2958.00           1335         108.00       469.93
  541.45        2958.25           1339         101.00       439.41
  541.48        2958.50           1342         106.00       461.21
  541.51        2958.75           1345          99.00       430.69
  541.54        2959.00           1349         111.00       483.01
  541.57        2959.25           1352         109.00       474.29
  541.60        2959.50           1355         109.00       474.29
  541.63        2959.75           1359          97.00       421.98
  541.66        2960.00           1362         105.00       456.85
  541.69        2960.25           1365         100.00       435.05
  541.72        2960.50           1369         108.00       469.93
  541.75        2960.75           1372         127.00       552.75
  541.78        2961.00           1375         133.00       578.91
  541.81        2961.25           1379         138.00       600.71
  541.84        2961.50           1382         191.00       831.75
  541.87        2961.75           1385         892.00      3887.94
  541.90        2962.00           1389        3155.00     13757.51
  541.93        2962.25           1392        5255.00     22920.89
  541.95        2962.50           1395        7777.00     33931.68
  541.98        2962.75           1399       12164.00     53100.49
  542.01        2963.00           1402       15730.00     68696.62
  542.04        2963.25           1405       18895.00     82549.97
  542.07        2963.50           1409       23124.00    101076.70
  542.10        2963.75           1412       25981.00    113603.40
  542.13        2964.00           1415       29201.00    127731.80
  542.16        2964.25           1419       34084.00    149177.70
  542.19        2964.50           1422       37209.00    162915.60
  542.22        2964.75           1425       40572.00    177711.20
  542.25        2965.00           1429       45246.00    198294.20
  542.28        2965.25           1432       48223.00    211416.10
  542.31        2965.50           1435       51203.00    224560.60
  542.34        2965.75           1439       55315.00    242713.50
  542.37        2966.00           1442       58706.00    257697.00
  542.40        2966.25           1445       61827.00    271498.20
  542.43        2966.50           1449       64576.00    283663.00
  542.46        2966.75           1452       66244.00    291048.00
  542.49        2967.00           1455       66981.00    294312.00
  542.52        2967.25           1459       67026.00    294511.30
  542.55        2967.50           1462       67442.00    296354.00
  542.58        2967.75           1465       67142.00    295025.10
  542.61        2968.00           1469       65681.00    288555.00
  542.64        2968.25           1472       63924.00    280777.00
  542.67        2968.50           1475       61380.00    269520.90
  542.70        2968.75           1479       57314.00    251544.90
  542.73        2969.00           1482       54538.00    239282.00
  542.75        2969.25           1485       52041.00    228258.60
  542.78        2969.50           1489       47996.00    210415.20
  542.81        2969.75           1492       45101.00    197655.40
  542.84        2970.00           1495       41876.00    183451.30
  542.87        2970.25           1499       37572.00    164512.10
  542.90        2970.50           1502       33993.00    148777.80
  542.93        2970.75           1505       30572.00    133750.70
  542.96        2971.00           1509       26808.00    117231.00
  542.99        2971.25           1512       23542.00    102908.90
  543.02        2971.50           1515       20124.00     87932.16
  543.05        2971.75           1519       16137.00     70477.50
  543.08        2972.00           1522       13583.00     59305.00
  543.11        2972.25           1525       10758.00     46954.87
  543.14        2972.50           1529        6669.00     29093.46
  543.17        2972.75           1532        3682.00     16056.65
  543.20        2973.00           1536         956.00      4166.99
  543.23        2973.25           1539         368.00      1603.38
  543.26        2973.50           1542         193.00       840.47
  543.29        2973.75           1546         159.00       692.25
  543.32        2974.00           1549         143.00       622.50
  543.35        2974.25           1552         140.00       609.43
  543.38        2974.50           1556         129.00       561.47
  543.40        2974.75           1559         121.00       526.60
  543.44        2975.00           1562         113.00       491.72
  543.46        2975.25           1566         101.00       439.41
  543.49        2975.50           1569          97.00       421.98
  543.52        2975.75           1572          98.00       426.33
  543.55        2976.00           1576          97.00       421.98
  543.58        2976.25           1579          97.00       421.98
  543.61        2976.50           1582          97.00       421.98
  543.64        2976.75           1586          92.00       400.18
  543.67        2977.00           1589          94.00       408.90
  543.70        2977.25           1592         105.00       456.85
  543.73        2977.50           1596         103.00       448.13
  543.76        2977.75           1599          99.00       430.69
  543.79        2978.00           1602         105.00       456.85
  543.82        2978.25           1606          99.00       430.69
  543.85        2978.50           1609          97.00       421.98
  543.88        2978.75           1612         107.00       465.57
  543.90        2979.00           1616         100.00       435.05
  543.93        2979.25           1619         100.00       435.05
  543.96        2979.50           1623          97.00       421.98
  543.99        2979.75           1626          94.00       408.90
  544.02        2980.00           1629          97.00       421.98
  544.05        2980.25           1633          94.00       408.90
  544.08        2980.50           1636          98.00       426.33
  544.11        2980.75           1639          97.00       421.98
  544.14        2981.00           1643          92.00       400.18
  544.17        2981.25           1646         103.00       448.13
  544.20        2981.50           1649          95.00       413.26
  544.23        2981.75           1653          95.00       413.26
  544.26        2982.00           1656          89.00       387.10
  544.29        2982.25           1659         108.00       469.93
  544.32        2982.50           1663          83.00       360.95
  544.35        2982.75           1666          94.00       408.90
  544.38        2983.00           1669          86.00       374.02
  544.41        2983.25           1673          93.00       404.54
  544.44        2983.50           1676          98.00       426.33
  544.46        2983.75           1679          87.00       378.38
  544.49        2984.00           1683          88.00       382.74
HS scan finished at 09:04:48
end
************************************************************
  HS Scan of (1) Internal mercury lamp
************************************************************
Integration time is 0.2294 seconds per sample
dh230318Delft 51.9969-4.3863 3.233369pr1000
************************************************************
Dead Time -------------------------  2.7E-08 
Number of Cycles Used -------------  4 
Starting Wavelength (Angstroms) ---  2950 
Final Wavelength (Angstoms) -------  2984 
Wavelength Increment (Angstroms) --  .25 
Filter Wheel #1 Position ---------- (1) Ground quartz diffuser (ND=2.32)
Filter Wheel #2 Position ---------- (1) Neutral Density 0.494



************************************************************
HS scan start time = 10:47:06
Dark Count =  .3 


Time (GMT)  Wavelength (Ang)  Step Number  Raw Counts  Counts/Second

  647.55        2950.00           1229         107.00       465.13
  647.65        2950.25           1232         108.00       469.49
  647.68        2950.50           1236         101.00       438.98
  647.71        2950.75           1239         114.00       495.65
  647.74        2951.00           1242         100.00       434.62
  647.77        2951.25           1246         108.00       469.49
  647.80        2951.50           1249         107.00       465.13
  647.83        2951.75           1252         101.00       438.98
  647.86        2952.00           1255         110.00       478.21
  647.89        2952.25           1259         101.00       438.98
  647.92        2952.50           1262          97.00       421.54
  647.95        2952.75           1265         107.00       465.13
  647.98        2953.00           1269         107.00       465.13
  648.00        2953.25           1272          95.00       412.82
  648.03        2953.50           1275          99.00       430.26
  648.06        2953.75           1279         100.00       434.62
  648.09        2954.00           1282         101.00       438.98
  648.12        2954.25           1285         104.00       452.05
  648.15        2954.50           1289         100.00       434.62
  648.18        2954.75           1292         105.00       456.41
  648.21        2955.00           1295          95.00       412.82
  648.24        2955.25           1299         105.00       456.41
  648.27        2955.50           1302          90.00       391.02
  648.30        2955.75           1305         100.00       434.62
  648.33        2956.00           1309          94.00       408.46
  648.36        2956.25           1312          97.00       421.54
  648.39        2956.50           1315          96.00       417.18
  648.42        2956.75           1319          91.00       395.38
  648.45        2957.00           1322          90.00       391.02
  648.48        2957.25           1325          94.00       408.46
  648.51        2957.50           1329          97.00       421.54
  648.54        2957.75           1332         103.00       447.70
  648.57        2958.00           1335          96.00       417.18
  648.60        2958.25           1339          90.00       391.02
  648.63        2958.50           1342         114.00       495.65
  648.66        2958.75           1345          98.00       425.90
  648.69        2959.00           1349          99.00       430.26
  648.71        2959.25           1352          96.00       417.18
  648.74        2959.50           1355          91.00       395.38
  648.77        2959.75           1359         106.00       460.77
  648.80        2960.00           1362          87.00       377.95
  648.83        2960.25           1365         103.00       447.70
  648.86        2960.50           1369         100.00       434.62
  648.89        2960.75           1372         112.00       486.93
  648.92        2961.00           1375         124.00       539.24
  648.95        2961.25           1379         135.00       587.19
  648.98        2961.50           1382         226.00       983.90
  649.01        2961.75           1385         934.00      4070.63
  649.04        2962.00           1389        3349.00     14603.40
  649.07        2962.25           1392        5910.00     25779.49
  649.10        2962.50           1395        8802.00     38408.17
  649.13        2962.75           1399       12484.00     54499.06
  649.16        2963.00           1402       15911.00     69488.15
  649.19        2963.25           1405       19371.00     84633.89
  649.22        2963.50           1409       23927.00    104596.20
  649.25        2963.75           1412       27677.00    121043.20
  649.28        2964.00           1415       31243.00    136696.70
  649.31        2964.25           1419       35484.00    155330.60
  649.34        2964.50           1422       38550.00    168813.50
  649.37        2964.75           1425       41660.00    182499.90
  649.40        2965.00           1429       46203.00    202511.00
  649.43        2965.25           1432       49371.00    216478.30
  649.46        2965.50           1435       51978.00    227980.10
  649.49        2965.75           1439       55569.00    243835.00
  649.52        2966.00           1442       58629.00    257356.20
  649.55        2966.25           1445       62028.00    272387.00
  649.58        2966.50           1449       65790.00    289037.20
  649.61        2966.75           1452       67344.00    295919.50
  649.64        2967.00           1455       67866.00    298231.80
  649.67        2967.25           1459       67778.00    297842.00
  649.70        2967.50           1462       67835.00    298094.50
  649.73        2967.75           1465       67931.00    298519.80
  649.76        2968.00           1469       66769.00    293372.70
  649.79        2968.25           1472       64981.00    285455.40
  649.82        2968.50           1475       62472.00    274351.30
  649.85        2968.75           1479       58717.00    257745.20
  649.88        2969.00           1482       55870.00    245164.60
  649.91        2969.25           1485       52499.00    230279.60
  649.94        2969.50           1489       47661.00    208937.80
  649.97        2969.75           1492       44335.00    194280.20
  650.00        2970.00           1495       41464.00    181637.10
  650.03        2970.25           1499       37522.00    164291.70
  650.06        2970.50           1502       33773.00    147810.60
  650.09        2970.75           1505       30491.00    133394.60
  650.12        2971.00           1509       26883.00    117559.60
  650.15        2971.25           1512       23748.00    103811.50
  650.18        2971.50           1515       20646.00     90218.19
  650.20        2971.75           1519       16390.00     71584.18
  650.23        2972.00           1522       12558.00     54822.59
  650.26        2972.25           1525        9369.00     40885.13
  650.29        2972.50           1529        5578.00     24330.28
  650.32        2972.75           1532        2878.00     12548.72
  650.35        2973.00           1536         934.00      4070.63
  650.38        2973.25           1539         315.00      1371.89
  650.41        2973.50           1542         174.00       757.21
  650.44        2973.75           1546         157.00       683.10
  650.47        2974.00           1549         151.00       656.94
  650.50        2974.25           1552         121.00       526.16
  650.53        2974.50           1556         115.00       500.01
  650.56        2974.75           1559         111.00       482.57
  650.59        2975.00           1562          97.00       421.54
  650.62        2975.25           1566          98.00       425.90
  650.65        2975.50           1569          97.00       421.54
  650.68        2975.75           1572          92.00       399.74
  650.71        2976.00           1576          99.00       430.26
  650.74        2976.25           1579          97.00       421.54
  650.77        2976.50           1582          95.00       412.82
  650.80        2976.75           1586          98.00       425.90
  650.82        2977.00           1589          94.00       408.46
  650.85        2977.25           1592          93.00       404.10
  650.88        2977.50           1596          97.00       421.54
  650.91        2977.75           1599          93.00       404.10
  650.94        2978.00           1602          94.00       408.46
  650.97        2978.25           1606          90.00       391.02
  651.00        2978.50           1609          95.00       412.82
  651.03        2978.75           1612          86.00       373.59
  651.06        2979.00           1616          95.00       412.82
  651.09        2979.25           1619          99.00       430.26
  651.12        2979.50           1623         104.00       452.05
  651.15        2979.75           1626          93.00       404.10
  651.18        2980.00           1629          88.00       382.31
  651.21        2980.25           1633          86.00       373.59
  651.24        2980.50           1636          95.00       412.82
  651.27        2980.75           1639          91.00       395.38
  651.30        2981.00           1643          97.00       421.54
  651.33        2981.25           1646          93.00       404.10
  651.36        2981.50           1649          94.00       408.46
  651.39        2981.75           1653          95.00       412.82
  651.41        2982.00           1656          90.00       391.02
  651.44        2982.25           1659          96.00       417.18
