************************************************************
  HS Scan of (1) Internal mercury lamp
************************************************************
Integration time is 0.2294 seconds per sample
dh280318Delft 51.9969-4.3863 3.340665pr1000
************************************************************
Dead Time -------------------------  2.7E-08 
Number of Cycles Used -------------  4 
Starting Wavelength (Angstroms) ---  2950 
Final Wavelength (Angstoms) -------  2984 
Wavelength Increment (Angstroms) --  .25 
Filter Wheel #1 Position ---------- (1) Ground quartz diffuser (ND=2.32)
Filter Wheel #2 Position ---------- (1) Neutral Density 0.494



************************************************************
HS scan start time = 06:00:45
Dark Count =  .3 


Time (GMT)  Wavelength (Ang)  Step Number  Raw Counts  Counts/Second

  361.21        2950.00           1229          96.00       417.18
  361.31        2950.25           1232         103.00       447.70
  361.34        2950.50           1236         100.00       434.62
  361.37        2950.75           1239          87.00       377.95
  361.40        2951.00           1242          95.00       412.82
  361.43        2951.25           1246          94.00       408.46
  361.46        2951.50           1249         100.00       434.62
  361.49        2951.75           1252          97.00       421.54
  361.52        2952.00           1256          97.00       421.54
  361.54        2952.25           1259         108.00       469.49
  361.57        2952.50           1262         100.00       434.62
  361.60        2952.75           1266          90.00       391.02
  361.63        2953.00           1269          92.00       399.74
  361.66        2953.25           1272         112.00       486.93
  361.69        2953.50           1276          98.00       425.90
  361.72        2953.75           1279         102.00       443.34
  361.75        2954.00           1282         106.00       460.77
  361.78        2954.25           1286          97.00       421.54
  361.81        2954.50           1289         106.00       460.77
  361.84        2954.75           1292          93.00       404.10
  361.87        2955.00           1296         104.00       452.05
  361.90        2955.25           1299          97.00       421.54
  361.93        2955.50           1302          94.00       408.46
  361.96        2955.75           1306          92.00       399.74
  361.99        2956.00           1309          94.00       408.46
  362.02        2956.25           1312          99.00       430.26
  362.05        2956.50           1316         107.00       465.13
  362.08        2956.75           1319         100.00       434.62
  362.11        2957.00           1322          92.00       399.74
  362.14        2957.25           1326         100.00       434.62
  362.17        2957.50           1329          92.00       399.74
  362.20        2957.75           1332          92.00       399.74
  362.23        2958.00           1336          93.00       404.10
  362.26        2958.25           1339         100.00       434.62
  362.29        2958.50           1342          97.00       421.54
  362.32        2958.75           1345          98.00       425.90
  362.34        2959.00           1349          97.00       421.54
  362.37        2959.25           1352          99.00       430.26
  362.40        2959.50           1355          88.00       382.31
  362.43        2959.75           1359         102.00       443.34
  362.46        2960.00           1362          91.00       395.38
  362.49        2960.25           1365         104.00       452.05
  362.52        2960.50           1369         105.00       456.41
  362.55        2960.75           1372         110.00       478.21
  362.58        2961.00           1375         120.00       521.80
  362.61        2961.25           1379         125.00       543.60
  362.64        2961.50           1382         175.00       761.57
  362.67        2961.75           1385         552.00      2405.13
  362.70        2962.00           1389        2530.00     11030.75
  362.73        2962.25           1392        4879.00     21279.44
  362.76        2962.50           1395        7804.00     34049.16
  362.79        2962.75           1399       11454.00     49996.39
  362.82        2963.00           1402       14254.00     62239.21
  362.85        2963.25           1405       17850.00     77974.36
  362.88        2963.50           1409       22546.00     98543.01
  362.91        2963.75           1412       25582.00    111853.00
  362.94        2964.00           1415       29114.00    127349.50
  362.97        2964.25           1419       33723.00    147590.90
  363.00        2964.50           1422       36946.00    161758.60
  363.03        2964.75           1425       40113.00    175690.60
  363.06        2965.00           1429       44447.00    194773.60
  363.09        2965.25           1432       47665.00    208955.40
  363.12        2965.50           1435       50154.00    219932.00
  363.15        2965.75           1439       54041.00    237087.00
  363.18        2966.00           1442       57043.00    250346.90
  363.20        2966.25           1445       59929.00    263103.50
  363.23        2966.50           1449       64093.00    281524.60
  363.26        2966.75           1452       65962.00    289798.90
  363.30        2967.00           1455       66812.00    293563.10
  363.32        2967.25           1459       67078.00    294741.30
  363.35        2967.50           1462       67159.00    295100.00
  363.38        2967.75           1465       67133.00    294984.90
  363.41        2968.00           1469       66128.00    290533.90
  363.44        2968.25           1472       64499.00    283321.60
  363.47        2968.50           1475       62726.00    275475.10
  363.50        2968.75           1479       58976.00    258890.10
  363.53        2969.00           1482       56255.00    246865.40
  363.56        2969.25           1485       53108.00    232967.80
  363.59        2969.50           1489       48641.00    213258.90
  363.62        2969.75           1492       45055.00    197452.20
  363.65        2970.00           1495       42105.00    184459.10
  363.68        2970.25           1499       37907.00    165985.00
  363.71        2970.50           1502       34801.00    152328.40
  363.74        2970.75           1505       31132.00    136209.20
  363.77        2971.00           1509       27027.00    118191.30
  363.80        2971.25           1512       24608.00    107581.90
  363.83        2971.50           1515       21597.00     94384.52
  363.86        2971.75           1519       17569.00     76744.30
  363.89        2972.00           1522       14384.00     62807.82
  363.92        2972.25           1525       10556.00     46071.66
  363.95        2972.50           1529        6384.00     27848.75
  363.98        2972.75           1532        3769.00     16435.80
  364.01        2973.00           1535        1745.00      7607.05
  364.04        2973.25           1539         466.00      2030.19
  364.07        2973.50           1542         206.00       896.71
  364.10        2973.75           1546         144.00       626.43
  364.13        2974.00           1549         129.00       561.04
  364.16        2974.25           1552         128.00       556.68
  364.19        2974.50           1556         124.00       539.24
  364.22        2974.75           1559         118.00       513.08
  364.25        2975.00           1562          96.00       417.18
  364.28        2975.25           1566         101.00       438.98
  364.31        2975.50           1569          95.00       412.82
  364.34        2975.75           1572          93.00       404.10
  364.36        2976.00           1576          90.00       391.02
  364.39        2976.25           1579          86.00       373.59
  364.42        2976.50           1582          90.00       391.02
  364.45        2976.75           1586         100.00       434.62
  364.48        2977.00           1589          93.00       404.10
  364.51        2977.25           1592          91.00       395.38
  364.54        2977.50           1596          91.00       395.38
  364.57        2977.75           1599         104.00       452.05
  364.60        2978.00           1602          91.00       395.38
  364.63        2978.25           1606         101.00       438.98
  364.66        2978.50           1609          95.00       412.82
  364.69        2978.75           1612          90.00       391.02
  364.72        2979.00           1616          97.00       421.54
  364.75        2979.25           1619          97.00       421.54
  364.78        2979.50           1622          90.00       391.02
  364.81        2979.75           1626          89.00       386.66
  364.84        2980.00           1629          83.00       360.51
  364.87        2980.25           1632          90.00       391.02
  364.90        2980.50           1636          92.00       399.74
  364.93        2980.75           1639          87.00       377.95
  364.96        2981.00           1642          95.00       412.82
  364.99        2981.25           1646          91.00       395.38
  365.02        2981.50           1649          82.00       356.15
  365.04        2981.75           1653          79.00       343.07
  365.07        2982.00           1656          80.00       347.43
  365.10        2982.25           1659          97.00       421.54
  365.13        2982.50           1663          84.00       364.87
  365.16        2982.75           1666          91.00       395.38
  365.19        2983.00           1669          85.00       369.23
  365.22        2983.25           1673          88.00       382.31
  365.25        2983.50           1676          93.00       404.10
  365.28        2983.75           1679          90.00       391.02
  365.31        2984.00           1683          88.00       382.31
HS scan finished at 06:05:37
end
************************************************************
  HS Scan of (1) Internal mercury lamp
************************************************************
Integration time is 0.2294 seconds per sample
dh280318Delft 51.9969-4.3863 3.287017pr1000
************************************************************
Dead Time -------------------------  2.7E-08 
Number of Cycles Used -------------  4 
Starting Wavelength (Angstroms) ---  2950 
Final Wavelength (Angstoms) -------  2984 
Wavelength Increment (Angstroms) --  .25 
Filter Wheel #1 Position ---------- (1) Ground quartz diffuser (ND=2.32)
Filter Wheel #2 Position ---------- (1) Neutral Density 0.494



************************************************************
HS scan start time = 07:47:57
Dark Count =  .3 


Time (GMT)  Wavelength (Ang)  Step Number  Raw Counts  Counts/Second

  468.40        2950.00           1229          95.00       412.82
  468.50        2950.25           1232          98.00       425.90
  468.53        2950.50           1236         103.00       447.70
  468.56        2950.75           1239          98.00       425.90
  468.59        2951.00           1242          97.00       421.54
  468.62        2951.25           1246          96.00       417.18
  468.65        2951.50           1249         111.00       482.57
  468.68        2951.75           1252          97.00       421.54
  468.71        2952.00           1256         104.00       452.05
  468.74        2952.25           1259         102.00       443.34
  468.77        2952.50           1262         105.00       456.41
  468.80        2952.75           1266         110.00       478.21
  468.83        2953.00           1269         100.00       434.62
  468.86        2953.25           1272         101.00       438.98
  468.89        2953.50           1276         105.00       456.41
  468.92        2953.75           1279         101.00       438.98
  468.95        2954.00           1282          94.00       408.46
  468.98        2954.25           1286          99.00       430.26
  469.01        2954.50           1289          96.00       417.18
  469.04        2954.75           1292          99.00       430.26
  469.07        2955.00           1296         106.00       460.77
  469.10        2955.25           1299          92.00       399.74
  469.13        2955.50           1302         104.00       452.05
  469.16        2955.75           1306          87.00       377.95
  469.19        2956.00           1309         101.00       438.98
  469.22        2956.25           1312         108.00       469.49
  469.25        2956.50           1316          96.00       417.18
  469.28        2956.75           1319         102.00       443.34
  469.31        2957.00           1322          99.00       430.26
  469.34        2957.25           1326          96.00       417.18
  469.37        2957.50           1329          96.00       417.18
  469.40        2957.75           1332         114.00       495.65
  469.43        2958.00           1336          96.00       417.18
  469.46        2958.25           1339          94.00       408.46
  469.49        2958.50           1342         103.00       447.70
  469.52        2958.75           1345          92.00       399.74
  469.55        2959.00           1349          98.00       425.90
  469.57        2959.25           1352         105.00       456.41
  469.60        2959.50           1355         106.00       460.77
  469.63        2959.75           1359          91.00       395.38
  469.66        2960.00           1362          99.00       430.26
  469.69        2960.25           1365         100.00       434.62
  469.72        2960.50           1369          99.00       430.26
  469.75        2960.75           1372         111.00       482.57
  469.78        2961.00           1375         116.00       504.37
  469.81        2961.25           1379         136.00       591.55
  469.84        2961.50           1382         174.00       757.21
  469.87        2961.75           1385         521.00      2269.97
  469.90        2962.00           1389        2194.00      9565.24
  469.93        2962.25           1392        4636.00     20218.97
  469.96        2962.50           1395        7496.00     32704.11
  469.99        2962.75           1399       11558.00     50450.99
  470.02        2963.00           1402       15240.00     66552.35
  470.05        2963.25           1405       18584.00     81187.81
  470.08        2963.50           1409       23212.00    101462.00
  470.11        2963.75           1412       26404.00    115458.30
  470.14        2964.00           1415       29704.00    129939.40
  470.17        2964.25           1419       34040.00    148983.90
  470.20        2964.50           1422       36875.00    161446.30
  470.23        2964.75           1425       39206.00    171699.60
  470.26        2965.00           1429       43681.00    191399.40
  470.29        2965.25           1432       46774.00    205027.70
  470.32        2965.50           1435       49928.00    218935.10
  470.35        2965.75           1439       54298.00    238221.70
  470.38        2966.00           1442       57113.00    250656.20
  470.41        2966.25           1445       59909.00    263015.10
  470.44        2966.50           1449       63839.00    280400.40
  470.47        2966.75           1452       66251.00    291078.60
  470.50        2967.00           1455       67099.00    294834.30
  470.53        2967.25           1459       67166.00    295131.00
  470.56        2967.50           1462       67275.00    295613.80
  470.59        2967.75           1465       67249.00    295498.70
  470.62        2968.00           1469       66852.00    293740.20
  470.65        2968.25           1472       64923.00    285198.60
  470.68        2968.50           1475       62359.00    273851.30
  470.71        2968.75           1479       58351.00    256127.40
  470.74        2969.00           1482       55422.00    243185.70
  470.77        2969.25           1485       52309.00    229441.00
  470.80        2969.50           1489       48079.00    210780.70
  470.82        2969.75           1492       44929.00    196897.10
  470.85        2970.00           1495       42361.00    185586.30
  470.88        2970.25           1499       38540.00    168769.50
  470.91        2970.50           1502       35343.00    154710.70
  470.94        2970.75           1505       31922.00    139678.80
  470.97        2971.00           1509       27342.00    119573.30
  471.00        2971.25           1512       23966.00    104767.20
  471.03        2971.50           1515       21027.00     91887.24
  471.06        2971.75           1519       17176.00     75024.10
  471.09        2972.00           1522       14389.00     62829.69
  471.12        2972.25           1525       11259.00     49144.07
  471.15        2972.50           1529        6974.00     30424.72
  471.18        2972.75           1532        4050.00     17661.86
  471.21        2973.00           1535        1887.00      8226.33
  471.24        2973.25           1539         583.00      2540.28
  471.27        2973.50           1542         229.00       996.98
  471.30        2973.75           1546         173.00       752.85
  471.33        2974.00           1549         146.00       635.15
  471.36        2974.25           1552         139.00       604.63
  471.39        2974.50           1556         115.00       500.01
  471.42        2974.75           1559         120.00       521.80
  471.45        2975.00           1562         111.00       482.57
  471.48        2975.25           1566          92.00       399.74
  471.51        2975.50           1569          95.00       412.82
  471.54        2975.75           1572          93.00       404.10
  471.57        2976.00           1576          92.00       399.74
  471.60        2976.25           1579          96.00       417.18
  471.63        2976.50           1582          85.00       369.23
  471.66        2976.75           1586          98.00       425.90
  471.68        2977.00           1589          84.00       364.87
  471.71        2977.25           1592         107.00       465.13
  471.74        2977.50           1596          97.00       421.54
  471.77        2977.75           1599          92.00       399.74
  471.80        2978.00           1602          90.00       391.02
  471.83        2978.25           1606          96.00       417.18
  471.86        2978.50           1609          88.00       382.31
  471.89        2978.75           1612          99.00       430.26
  471.92        2979.00           1616          89.00       386.66
  471.95        2979.25           1619          93.00       404.10
  471.98        2979.50           1622          87.00       377.95
  472.01        2979.75           1626          93.00       404.10
  472.04        2980.00           1629          93.00       404.10
  472.07        2980.25           1632         100.00       434.62
  472.10        2980.50           1636          91.00       395.38
  472.13        2980.75           1639          83.00       360.51
  472.16        2981.00           1642          97.00       421.54
  472.19        2981.25           1646          91.00       395.38
  472.22        2981.50           1649          88.00       382.31
  472.25        2981.75           1653          96.00       417.18
  472.28        2982.00           1656          94.00       408.46
  472.31        2982.25           1659          85.00       369.23
