************************************************************
  HS Scan of (1) Internal mercury lamp
************************************************************
Integration time is 0.2294 seconds per sample
dh240318Delft 51.9969-4.3863 3.287017pr1000
************************************************************
Dead Time -------------------------  2.7E-08 
Number of Cycles Used -------------  4 
Starting Wavelength (Angstroms) ---  2950 
Final Wavelength (Angstoms) -------  2984 
Wavelength Increment (Angstroms) --  .25 
Filter Wheel #1 Position ---------- (1) Ground quartz diffuser (ND=2.32)
Filter Wheel #2 Position ---------- (1) Neutral Density 0.494



************************************************************
HS scan start time = 00:31:33
Dark Count =  .2 


Time (GMT)  Wavelength (Ang)  Step Number  Raw Counts  Counts/Second

   32.00        2950.00           1229          99.00       430.69
   32.10        2950.25           1232         106.00       461.21
   32.13        2950.50           1236         109.00       474.29
   32.16        2950.75           1239         101.00       439.41
   32.19        2951.00           1242         100.00       435.05
   32.22        2951.25           1246         106.00       461.21
   32.25        2951.50           1249         104.00       452.49
   32.28        2951.75           1252          94.00       408.90
   32.31        2952.00           1256         102.00       443.77
   32.34        2952.25           1259         104.00       452.49
   32.37        2952.50           1262         106.00       461.21
   32.40        2952.75           1266         101.00       439.41
   32.43        2953.00           1269         104.00       452.49
   32.46        2953.25           1272         111.00       483.01
   32.49        2953.50           1276         109.00       474.29
   32.52        2953.75           1279          99.00       430.69
   32.54        2954.00           1282         103.00       448.13
   32.57        2954.25           1286          97.00       421.98
   32.61        2954.50           1289         103.00       448.13
   32.63        2954.75           1292          99.00       430.69
   32.66        2955.00           1296          97.00       421.98
   32.69        2955.25           1299         100.00       435.05
   32.72        2955.50           1302         103.00       448.13
   32.75        2955.75           1306          93.00       404.54
   32.78        2956.00           1309          98.00       426.33
   32.81        2956.25           1312         114.00       496.08
   32.84        2956.50           1316          91.00       395.82
   32.87        2956.75           1319         109.00       474.29
   32.90        2957.00           1322          99.00       430.69
   32.93        2957.25           1326          98.00       426.33
   32.96        2957.50           1329         104.00       452.49
   32.99        2957.75           1332         103.00       448.13
   33.02        2958.00           1336          92.00       400.18
   33.05        2958.25           1339          94.00       408.90
   33.08        2958.50           1342          85.00       369.66
   33.11        2958.75           1345          91.00       395.82
   33.14        2959.00           1349          99.00       430.69
   33.17        2959.25           1352         103.00       448.13
   33.20        2959.50           1355          95.00       413.26
   33.23        2959.75           1359          94.00       408.90
   33.26        2960.00           1362         100.00       435.05
   33.29        2960.25           1365          97.00       421.98
   33.31        2960.50           1369          98.00       426.33
   33.34        2960.75           1372         106.00       461.21
   33.37        2961.00           1375         121.00       526.60
   33.40        2961.25           1379         142.00       618.14
   33.43        2961.50           1382         176.00       766.36
   33.46        2961.75           1385         745.00      3247.02
   33.49        2962.00           1389        2655.00     11576.42
   33.52        2962.25           1392        4746.00     20699.45
   33.55        2962.50           1395        7930.00     34599.88
   33.58        2962.75           1399       12096.00     52803.22
   33.61        2963.00           1402       15103.00     65953.43
   33.64        2963.25           1405       19052.00     83237.43
   33.67        2963.50           1409       23672.00    103478.80
   33.70        2963.75           1412       27028.00    118196.10
   33.73        2964.00           1415       30243.00    132306.20
   33.76        2964.25           1419       34634.00    151594.80
   33.79        2964.50           1422       37913.00    166011.90
   33.82        2964.75           1425       41169.00    180338.90
   33.85        2965.00           1429       44808.00    196364.40
   33.88        2965.25           1432       47934.00    210141.90
   33.91        2965.50           1435       50665.00    222186.80
   33.94        2965.75           1439       55236.00    242364.60
   33.97        2966.00           1442       58237.00    255624.00
   34.00        2966.25           1445       61011.00    267888.80
   34.03        2966.50           1449       65404.00    287328.60
   34.06        2966.75           1452       66951.00    294179.20
   34.09        2967.00           1455       67957.00    298635.40
   34.12        2967.25           1459       68184.00    299641.10
   34.15        2967.50           1462       67956.00    298631.00
   34.18        2967.75           1465       68285.00    300088.60
   34.21        2968.00           1469       67084.00    294768.20
   34.24        2968.25           1472       65493.00    287722.60
   34.27        2968.50           1475       63349.00    278232.30
   34.30        2968.75           1479       58861.00    258382.20
   34.33        2969.00           1482       55651.00    244197.70
   34.36        2969.25           1485       52333.00    229547.30
   34.39        2969.50           1489       48681.00    213435.70
   34.41        2969.75           1492       45448.00    199184.30
   34.44        2970.00           1495       41959.00    183816.80
   34.48        2970.25           1499       37962.00    166227.40
   34.51        2970.50           1502       35604.00    155858.50
   34.53        2970.75           1505       32418.00    141857.90
   34.56        2971.00           1509       27842.00    121767.60
   34.59        2971.25           1512       24315.00    106297.70
   34.62        2971.50           1515       20959.00     91589.78
   34.65        2971.75           1519       16737.00     73103.18
   34.68        2972.00           1522       13710.00     59860.40
   34.71        2972.25           1525       10602.00     46273.12
   34.74        2972.50           1529        6847.00     29870.64
   34.77        2972.75           1532        3738.00     16300.98
   34.80        2973.00           1535        1543.00      6726.59
   34.83        2973.25           1539         436.00      1899.84
   34.86        2973.50           1542         195.00       849.19
   34.89        2973.75           1546         161.00       700.97
   34.92        2974.00           1549         134.00       583.27
   34.95        2974.25           1552         132.00       574.55
   34.98        2974.50           1556         135.00       587.63
   35.01        2974.75           1559         123.00       535.32
   35.04        2975.00           1562         117.00       509.16
   35.07        2975.25           1566         107.00       465.57
   35.10        2975.50           1569         103.00       448.13
   35.13        2975.75           1572          89.00       387.10
   35.16        2976.00           1576         104.00       452.49
   35.19        2976.25           1579         101.00       439.41
   35.22        2976.50           1582          95.00       413.26
   35.25        2976.75           1586          91.00       395.82
   35.27        2977.00           1589          93.00       404.54
   35.30        2977.25           1592          89.00       387.10
   35.33        2977.50           1596         101.00       439.41
   35.36        2977.75           1599          93.00       404.54
   35.39        2978.00           1602          92.00       400.18
   35.42        2978.25           1606          94.00       408.90
   35.45        2978.50           1609          89.00       387.10
   35.48        2978.75           1612          85.00       369.66
   35.51        2979.00           1616          91.00       395.82
   35.54        2979.25           1619          99.00       430.69
   35.57        2979.50           1622          93.00       404.54
   35.60        2979.75           1626          93.00       404.54
   35.63        2980.00           1629          93.00       404.54
   35.66        2980.25           1632          89.00       387.10
   35.69        2980.50           1636          91.00       395.82
   35.72        2980.75           1639          99.00       430.69
   35.75        2981.00           1642          94.00       408.90
   35.78        2981.25           1646          94.00       408.90
   35.81        2981.50           1649          88.00       382.74
   35.84        2981.75           1653          93.00       404.54
   35.87        2982.00           1656          84.00       365.30
   35.90        2982.25           1659          85.00       369.66
   35.93        2982.50           1663          88.00       382.74
   35.96        2982.75           1666          90.00       391.46
   35.99        2983.00           1669          92.00       400.18
   36.01        2983.25           1673          92.00       400.18
   36.04        2983.50           1676          90.00       391.46
   36.07        2983.75           1679          87.00       378.38
   36.10        2984.00           1683          81.00       352.23
HS scan finished at 00:36:25
end
************************************************************
  HS Scan of (1) Internal mercury lamp
************************************************************
Integration time is 0.2294 seconds per sample
dh240318Delft 51.9969-4.3863 3.287017pr1000
************************************************************
Dead Time -------------------------  2.7E-08 
Number of Cycles Used -------------  4 
Starting Wavelength (Angstroms) ---  2950 
Final Wavelength (Angstoms) -------  2984 
Wavelength Increment (Angstroms) --  .25 
Filter Wheel #1 Position ---------- (1) Ground quartz diffuser (ND=2.32)
Filter Wheel #2 Position ---------- (1) Neutral Density 0.494



************************************************************
HS scan start time = 06:10:01
Dark Count =  .3 


Time (GMT)  Wavelength (Ang)  Step Number  Raw Counts  Counts/Second

  370.47        2950.00           1229         102.00       443.34
  370.57        2950.25           1232         107.00       465.13
  370.60        2950.50           1236         109.00       473.85
  370.63        2950.75           1239         112.00       486.93
  370.66        2951.00           1242         103.00       447.70
  370.69        2951.25           1246         100.00       434.62
  370.72        2951.50           1249         105.00       456.41
  370.75        2951.75           1252         102.00       443.34
  370.78        2952.00           1256          90.00       391.02
  370.81        2952.25           1259          98.00       425.90
  370.84        2952.50           1262         106.00       460.77
  370.87        2952.75           1266         104.00       452.05
  370.90        2953.00           1269         104.00       452.05
  370.93        2953.25           1272          99.00       430.26
  370.96        2953.50           1276         102.00       443.34
  370.99        2953.75           1279          96.00       417.18
  371.02        2954.00           1282         100.00       434.62
  371.05        2954.25           1286         101.00       438.98
  371.08        2954.50           1289          98.00       425.90
  371.11        2954.75           1292         102.00       443.34
  371.14        2955.00           1296          99.00       430.26
  371.17        2955.25           1299         110.00       478.21
  371.20        2955.50           1302         102.00       443.34
  371.23        2955.75           1306         111.00       482.57
  371.26        2956.00           1309          99.00       430.26
  371.29        2956.25           1312          99.00       430.26
  371.32        2956.50           1316          94.00       408.46
  371.34        2956.75           1319          96.00       417.18
  371.37        2957.00           1322         101.00       438.98
  371.40        2957.25           1326         103.00       447.70
  371.43        2957.50           1329          99.00       430.26
  371.46        2957.75           1332         106.00       460.77
  371.49        2958.00           1336         102.00       443.34
  371.52        2958.25           1339          98.00       425.90
  371.55        2958.50           1342         102.00       443.34
  371.58        2958.75           1345         105.00       456.41
  371.61        2959.00           1349          99.00       430.26
  371.64        2959.25           1352          95.00       412.82
  371.67        2959.50           1355         101.00       438.98
  371.70        2959.75           1359          99.00       430.26
  371.73        2960.00           1362          96.00       417.18
  371.76        2960.25           1365         105.00       456.41
  371.79        2960.50           1369         111.00       482.57
  371.82        2960.75           1372         112.00       486.93
  371.85        2961.00           1375         114.00       495.65
  371.88        2961.25           1379         133.00       578.47
  371.91        2961.50           1382         152.00       661.30
  371.94        2961.75           1385         536.00      2335.37
  371.97        2962.00           1389        2503.00     10912.98
  371.99        2962.25           1392        5033.00     21951.54
  372.02        2962.50           1395        8059.00     35162.84
  372.05        2962.75           1399       12502.00     54577.76
  372.08        2963.00           1402       15686.00     68503.66
  372.11        2963.25           1405       19373.00     84642.65
  372.14        2963.50           1409       24066.00    105205.60
  372.17        2963.75           1412       26876.00    117528.90
  372.20        2964.00           1415       29844.00    130554.00
  372.23        2964.25           1419       33853.00    148162.20
  372.26        2964.50           1422       37156.00    162682.10
  372.29        2964.75           1425       40465.00    177239.80
  372.32        2965.00           1429       44931.00    196905.90
  372.35        2965.25           1432       47818.00    209630.00
  372.38        2965.50           1435       50915.00    223289.40
  372.41        2965.75           1439       55074.00    241648.70
  372.44        2966.00           1442       58246.00    255663.30
  372.47        2966.25           1445       61355.00    269409.90
  372.50        2966.50           1449       64915.00    285163.20
  372.53        2966.75           1452       66670.00    292934.20
  372.56        2967.00           1455       67909.00    298422.30
  372.59        2967.25           1459       67877.00    298280.60
  372.62        2967.50           1462       68055.00    299069.20
  372.65        2967.75           1465       68089.00    299219.80
  372.68        2968.00           1469       66606.00    292650.80
  372.71        2968.25           1472       64643.00    283959.10
  372.74        2968.50           1475       62303.00    273603.60
  372.77        2968.75           1479       58277.00    255800.30
  372.80        2969.00           1482       55248.00    242417.20
  372.83        2969.25           1485       52280.00    229313.00
  372.86        2969.50           1489       48864.00    214242.30
  372.89        2969.75           1492       46092.00    202021.80
  372.92        2970.00           1495       42791.00    187479.70
  372.95        2970.25           1499       38426.00    168268.00
  372.97        2970.50           1502       34891.00    152723.90
  373.00        2970.75           1505       31529.00    137952.70
  373.03        2971.00           1509       27572.00    120582.50
  373.06        2971.25           1512       24430.00    106801.40
  373.09        2971.50           1515       21330.00     93214.69
  373.12        2971.75           1519       16849.00     73592.90
  373.16        2972.00           1522       13740.00     59991.17
  373.18        2972.25           1525       11003.00     48025.18
  373.21        2972.50           1529        7296.00     31830.75
  373.24        2972.75           1532        4705.00     20520.09
  373.27        2973.00           1535        2107.00      9185.80
  373.30        2973.25           1539         455.00      1982.23
  373.33        2973.50           1542         208.00       905.43
  373.36        2973.75           1546         153.00       665.66
  373.39        2974.00           1549         140.00       608.99
  373.42        2974.25           1552         128.00       556.68
  373.45        2974.50           1556         126.00       547.96
  373.48        2974.75           1559         120.00       521.80
  373.51        2975.00           1562         113.00       491.29
  373.54        2975.25           1566         102.00       443.34
  373.57        2975.50           1569          94.00       408.46
  373.60        2975.75           1572          96.00       417.18
  373.63        2976.00           1576          98.00       425.90
  373.66        2976.25           1579          95.00       412.82
  373.69        2976.50           1582         108.00       469.49
  373.72        2976.75           1586          97.00       421.54
  373.75        2977.00           1589          99.00       430.26
  373.78        2977.25           1592          91.00       395.38
  373.80        2977.50           1596          90.00       391.02
  373.83        2977.75           1599          97.00       421.54
  373.86        2978.00           1602          86.00       373.59
  373.89        2978.25           1606          97.00       421.54
  373.92        2978.50           1609          90.00       391.02
  373.95        2978.75           1612          94.00       408.46
  373.98        2979.00           1616         101.00       438.98
  374.01        2979.25           1619          96.00       417.18
  374.04        2979.50           1622          98.00       425.90
  374.07        2979.75           1626          99.00       430.26
  374.10        2980.00           1629          84.00       364.87
  374.13        2980.25           1632          89.00       386.66
  374.16        2980.50           1636          98.00       425.90
  374.19        2980.75           1639          99.00       430.26
  374.22        2981.00           1642          94.00       408.46
  374.25        2981.25           1646          92.00       399.74
  374.28        2981.50           1649          84.00       364.87
  374.31        2981.75           1653          90.00       391.02
  374.34        2982.00           1656          92.00       399.74
  374.37        2982.25           1659          95.00       412.82
