************************************************************
  HS Scan of (1) Internal mercury lamp
************************************************************
Integration time is 0.2294 seconds per sample
dh270318Delft 51.9969-4.3863 3.287017pr1000
************************************************************
Dead Time -------------------------  2.7E-08 
Number of Cycles Used -------------  4 
Starting Wavelength (Angstroms) ---  2950 
Final Wavelength (Angstoms) -------  2984 
Wavelength Increment (Angstroms) --  .25 
Filter Wheel #1 Position ---------- (1) Ground quartz diffuser (ND=2.32)
Filter Wheel #2 Position ---------- (1) Neutral Density 0.494



************************************************************
HS scan start time = 13:19:27
Dark Count =  .1 


Time (GMT)  Wavelength (Ang)  Step Number  Raw Counts  Counts/Second

  799.90        2950.00           1229          98.00       426.77
  800.00        2950.25           1232          96.00       418.05
  800.03        2950.50           1236         107.00       466.00
  800.06        2950.75           1239         100.00       435.49
  800.09        2951.00           1242          92.00       400.61
  800.12        2951.25           1246          99.00       431.13
  800.15        2951.50           1249         106.00       461.64
  800.18        2951.75           1252         104.00       452.93
  800.21        2952.00           1256          88.00       383.18
  800.24        2952.25           1259          96.00       418.05
  800.27        2952.50           1262         108.00       470.36
  800.30        2952.75           1266         105.00       457.29
  800.33        2953.00           1269          92.00       400.61
  800.36        2953.25           1272          92.00       400.61
  800.38        2953.50           1276         103.00       448.57
  800.41        2953.75           1279         106.00       461.64
  800.44        2954.00           1282         101.00       439.85
  800.47        2954.25           1286         102.00       444.21
  800.50        2954.50           1289         103.00       448.57
  800.53        2954.75           1292          94.00       409.33
  800.56        2955.00           1296          99.00       431.13
  800.59        2955.25           1299         106.00       461.64
  800.62        2955.50           1302         107.00       466.00
  800.65        2955.75           1306          98.00       426.77
  800.68        2956.00           1309          97.00       422.41
  800.71        2956.25           1312          93.00       404.97
  800.74        2956.50           1316         103.00       448.57
  800.77        2956.75           1319          99.00       431.13
  800.80        2957.00           1322          95.00       413.69
  800.83        2957.25           1326         102.00       444.21
  800.85        2957.50           1329         103.00       448.57
  800.88        2957.75           1332         103.00       448.57
  800.91        2958.00           1336         102.00       444.21
  800.94        2958.25           1339         107.00       466.00
  800.97        2958.50           1342         102.00       444.21
  801.00        2958.75           1345          98.00       426.77
  801.03        2959.00           1349          88.00       383.18
  801.06        2959.25           1352          83.00       361.38
  801.09        2959.50           1355         105.00       457.29
  801.12        2959.75           1359          97.00       422.41
  801.15        2960.00           1362         100.00       435.49
  801.18        2960.25           1365         100.00       435.49
  801.21        2960.50           1369         106.00       461.64
  801.24        2960.75           1372         107.00       466.00
  801.27        2961.00           1375         122.00       531.39
  801.30        2961.25           1379         130.00       566.27
  801.33        2961.50           1382         167.00       727.56
  801.35        2961.75           1385         616.00      2685.02
  801.38        2962.00           1389        2653.00     11568.13
  801.41        2962.25           1392        4696.00     20481.68
  801.44        2962.50           1395        7196.00     31394.96
  801.47        2962.75           1399       11368.00     49621.37
  801.50        2963.00           1402       14641.00     63932.85
  801.53        2963.25           1405       17914.00     78255.41
  801.56        2963.50           1409       22542.00     98526.36
  801.59        2963.75           1412       26006.00    113713.50
  801.62        2964.00           1415       29145.00    127486.50
  801.65        2964.25           1419       33388.00    146119.80
  801.68        2964.50           1422       36641.00    160418.30
  801.71        2964.75           1425       39961.00    175022.60
  801.74        2965.00           1429       44169.00    193549.80
  801.77        2965.25           1432       46774.00    205028.50
  801.80        2965.50           1435       49152.00    215513.30
  801.83        2965.75           1439       53240.00    233551.40
  801.86        2966.00           1442       56465.00    247794.00
  801.89        2966.25           1445       59486.00    261145.70
  801.92        2966.50           1449       63037.00    276852.10
  801.94        2966.75           1452       65066.00    285832.50
  801.97        2967.00           1455       65941.00    289706.70
  802.00        2967.25           1459       66380.00    291650.70
  802.03        2967.50           1462       66428.00    291863.30
  802.06        2967.75           1465       65989.00    289919.30
  802.09        2968.00           1469       65802.00    289091.20
  802.12        2968.25           1472       64446.00    283088.00
  802.15        2968.50           1475       61874.00    271706.50
  802.18        2968.75           1479       58187.00    255403.40
  802.21        2969.00           1482       54955.00    241124.00
  802.24        2969.25           1485       51323.00    225090.50
  802.27        2969.50           1489       47456.00    208034.90
  802.30        2969.75           1492       44862.00    196602.80
  802.33        2970.00           1495       41540.00    181972.50
  802.36        2970.25           1499       37172.00    162753.30
  802.39        2970.50           1502       34282.00    150048.30
  802.42        2970.75           1505       31313.00    137005.00
  802.45        2971.00           1509       27371.00    119701.40
  802.48        2971.25           1512       24539.00    107280.20
  802.51        2971.50           1515       21312.00     93136.71
  802.54        2971.75           1519       16430.00     71760.10
  802.56        2972.00           1522       13218.00     57709.30
  802.59        2972.25           1525       10413.00     45447.63
  802.62        2972.50           1529        6754.00     29465.02
  802.65        2972.75           1532        4004.00     17462.02
  802.68        2973.00           1535        1746.00      7612.29
  802.71        2973.25           1539         418.00      1821.80
  802.74        2973.50           1542         186.00       810.39
  802.77        2973.75           1546         145.00       631.66
  802.80        2974.00           1549         140.00       609.86
  802.83        2974.25           1552         124.00       540.11
  802.86        2974.50           1556         114.00       496.52
  802.89        2974.75           1559         111.00       483.44
  802.92        2975.00           1562         106.00       461.64
  802.95        2975.25           1566         101.00       439.85
  802.98        2975.50           1569          92.00       400.61
  803.01        2975.75           1572          91.00       396.26
  803.04        2976.00           1576          89.00       387.54
  803.07        2976.25           1579          89.00       387.54
  803.09        2976.50           1582          99.00       431.13
  803.12        2976.75           1586          93.00       404.97
  803.15        2977.00           1589          96.00       418.05
  803.18        2977.25           1592          91.00       396.26
  803.21        2977.50           1596          96.00       418.05
  803.24        2977.75           1599          93.00       404.97
  803.27        2978.00           1602          94.00       409.33
  803.30        2978.25           1606          91.00       396.26
  803.33        2978.50           1609          90.00       391.90
  803.36        2978.75           1612          96.00       418.05
  803.39        2979.00           1616          90.00       391.90
  803.42        2979.25           1619          81.00       352.66
  803.45        2979.50           1622          92.00       400.61
  803.48        2979.75           1626         101.00       439.85
  803.51        2980.00           1629          99.00       431.13
  803.53        2980.25           1632         100.00       435.49
  803.56        2980.50           1636          95.00       413.69
  803.59        2980.75           1639          84.00       365.74
  803.62        2981.00           1642          85.00       370.10
  803.65        2981.25           1646          99.00       431.13
  803.68        2981.50           1649          94.00       409.33
  803.71        2981.75           1653          84.00       365.74
  803.74        2982.00           1656          92.00       400.61
  803.77        2982.25           1659          95.00       413.69
  803.80        2982.50           1663          94.00       409.33
  803.83        2982.75           1666          81.00       352.66
  803.86        2983.00           1669          88.00       383.18
  803.89        2983.25           1673          90.00       391.90
  803.92        2983.50           1676          92.00       400.61
  803.95        2983.75           1679          81.00       352.66
  803.98        2984.00           1683          91.00       396.26
HS scan finished at 13:24:17
end
************************************************************
  HS Scan of (1) Internal mercury lamp
************************************************************
Integration time is 0.2294 seconds per sample
dh270318Delft 51.9969-4.3863 3.340665pr1000
************************************************************
Dead Time -------------------------  2.7E-08 
Number of Cycles Used -------------  4 
Starting Wavelength (Angstroms) ---  2950 
Final Wavelength (Angstoms) -------  2984 
Wavelength Increment (Angstroms) --  .25 
Filter Wheel #1 Position ---------- (1) Ground quartz diffuser (ND=2.32)
Filter Wheel #2 Position ---------- (1) Neutral Density 0.494



************************************************************
HS scan start time = 15:28:18
Dark Count =  .5 


Time (GMT)  Wavelength (Ang)  Step Number  Raw Counts  Counts/Second

  928.75        2950.00           1229         100.00       433.75
  928.85        2950.25           1232          93.00       403.23
  928.88        2950.50           1236         107.00       464.26
  928.91        2950.75           1239          92.00       398.87
  928.94        2951.00           1242         102.00       442.46
  928.97        2951.25           1246          96.00       416.31
  929.00        2951.50           1249          99.00       429.39
  929.03        2951.75           1252         103.00       446.82
  929.06        2952.00           1256          95.00       411.95
  929.09        2952.25           1259         109.00       472.98
  929.12        2952.50           1262         101.00       438.10
  929.15        2952.75           1266          85.00       368.36
  929.18        2953.00           1269          88.00       381.43
  929.21        2953.25           1272          93.00       403.23
  929.24        2953.50           1276          93.00       403.23
  929.27        2953.75           1279          97.00       420.67
  929.29        2954.00           1282          89.00       385.79
  929.32        2954.25           1286          83.00       359.64
  929.35        2954.50           1289          93.00       403.23
  929.38        2954.75           1292          88.00       381.43
  929.41        2955.00           1296          94.00       407.59
  929.44        2955.25           1299          87.00       377.07
  929.47        2955.50           1302         101.00       438.10
  929.50        2955.75           1306          97.00       420.67
  929.53        2956.00           1309          91.00       394.51
  929.56        2956.25           1312          99.00       429.39
  929.59        2956.50           1316          96.00       416.31
  929.62        2956.75           1319          94.00       407.59
  929.65        2957.00           1322         100.00       433.75
  929.68        2957.25           1326          99.00       429.39
  929.71        2957.50           1329         104.00       451.18
  929.74        2957.75           1332          90.00       390.15
  929.77        2958.00           1336          91.00       394.51
  929.80        2958.25           1339          95.00       411.95
  929.82        2958.50           1342          94.00       407.59
  929.85        2958.75           1345          89.00       385.79
  929.88        2959.00           1349          90.00       390.15
  929.91        2959.25           1352          95.00       411.95
  929.94        2959.50           1355          97.00       420.67
  929.97        2959.75           1359          99.00       429.39
  930.00        2960.00           1362          94.00       407.59
  930.03        2960.25           1365          90.00       390.15
  930.06        2960.50           1369         105.00       455.54
  930.09        2960.75           1372         109.00       472.98
  930.12        2961.00           1375         121.00       525.29
  930.15        2961.25           1379         122.00       529.65
  930.18        2961.50           1382         168.00       730.18
  930.21        2961.75           1385         564.00      2456.57
  930.24        2962.00           1389        2526.00     11012.43
  930.27        2962.25           1392        5046.00     22007.41
  930.30        2962.50           1395        8186.00     35716.64
  930.33        2962.75           1399       12370.00     53999.78
  930.36        2963.00           1402       15617.00     68200.88
  930.39        2963.25           1405       19122.00     83542.63
  930.41        2963.50           1409       23509.00    102762.90
  930.44        2963.75           1412       26615.00    116383.00
  930.47        2964.00           1415       29591.00    129442.50
  930.50        2964.25           1419       33594.00    147023.20
  930.53        2964.50           1422       36542.00    159981.20
  930.56        2964.75           1425       39737.00    174035.10
  930.59        2965.00           1429       44251.00    193909.30
  930.62        2965.25           1432       47030.00    206155.20
  930.65        2965.50           1435       49769.00    218232.90
  930.68        2965.75           1439       54169.00    237651.20
  930.71        2966.00           1442       57105.00    250620.00
  930.74        2966.25           1445       60284.00    264672.40
  930.77        2966.50           1449       63770.00    280094.10
  930.80        2966.75           1452       65666.00    288487.30
  930.83        2967.00           1455       66820.00    293597.60
  930.86        2967.25           1459       66707.00    293097.20
  930.89        2967.50           1462       67066.00    294687.20
  930.92        2967.75           1465       67079.00    294744.80
  930.95        2968.00           1469       65730.00    288770.60
  930.98        2968.25           1472       63458.00    278713.40
  931.01        2968.50           1475       61080.00    268192.70
  931.04        2968.75           1479       57430.00    252056.10
  931.07        2969.00           1482       54147.00    237554.10
  931.10        2969.25           1485       51492.00    225834.50
  931.13        2969.50           1489       47835.00    209704.10
  931.16        2969.75           1492       45176.00    197984.50
  931.18        2970.00           1495       42027.00    184114.80
  931.21        2970.25           1499       37566.00    164484.30
  931.24        2970.50           1502       34076.00    149141.20
  931.27        2970.75           1505       30847.00    134956.90
  931.30        2971.00           1509       26936.00    117791.20
  931.33        2971.25           1512       23817.00    104113.10
  931.36        2971.50           1515       20899.00     91325.62
  931.39        2971.75           1519       16603.00     72515.43
  931.42        2972.00           1522       13544.00     59133.14
  931.45        2972.25           1525       10665.00     46547.13
  931.48        2972.50           1529        7048.00     30746.96
  931.51        2972.75           1532        4442.00     19371.51
  931.54        2973.00           1535        2140.00      9328.85
  931.57        2973.25           1539         436.00      1898.53
  931.60        2973.50           1542         201.00       874.04
  931.63        2973.75           1546         145.00       629.91
  931.66        2974.00           1549         149.00       647.35
  931.69        2974.25           1552         129.00       560.17
  931.72        2974.50           1556         122.00       529.65
  931.75        2974.75           1559          97.00       420.67
  931.78        2975.00           1562         107.00       464.26
  931.81        2975.25           1566          97.00       420.67
  931.84        2975.50           1569          95.00       411.95
  931.87        2975.75           1572          98.00       425.03
  931.89        2976.00           1576          88.00       381.43
  931.92        2976.25           1579          92.00       398.87
  931.95        2976.50           1582          84.00       364.00
  931.98        2976.75           1586          94.00       407.59
  932.01        2977.00           1589          97.00       420.67
  932.04        2977.25           1592          87.00       377.07
  932.07        2977.50           1596          83.00       359.64
  932.10        2977.75           1599          85.00       368.36
  932.13        2978.00           1602          89.00       385.79
  932.16        2978.25           1606          92.00       398.87
  932.19        2978.50           1609          97.00       420.67
  932.22        2978.75           1612          88.00       381.43
  932.25        2979.00           1616          84.00       364.00
  932.28        2979.25           1619          89.00       385.79
  932.31        2979.50           1622          77.00       333.48
  932.34        2979.75           1626          87.00       377.07
  932.37        2980.00           1629          89.00       385.79
  932.39        2980.25           1632          99.00       429.39
  932.42        2980.50           1636          91.00       394.51
  932.45        2980.75           1639          90.00       390.15
  932.48        2981.00           1642          81.00       350.92
  932.51        2981.25           1646          92.00       398.87
  932.54        2981.50           1649          96.00       416.31
  932.57        2981.75           1653          99.00       429.39
  932.60        2982.00           1656          84.00       364.00
  932.63        2982.25           1659          93.00       403.23
