************************************************************
  HS Scan of (1) Internal mercury lamp
************************************************************
Integration time is 0.2294 seconds per sample
dh070418Delft 51.9969-4.3863 2.535944pr1000
************************************************************
Dead Time -------------------------  2.7E-08 
Number of Cycles Used -------------  4 
Starting Wavelength (Angstroms) ---  2950 
Final Wavelength (Angstoms) -------  2984 
Wavelength Increment (Angstroms) --  .25 
Filter Wheel #1 Position ---------- (1) Ground quartz diffuser (ND=2.32)
Filter Wheel #2 Position ---------- (1) Neutral Density 0.494



************************************************************
HS scan start time = 00:31:38
Dark Count =  0 


Time (GMT)  Wavelength (Ang)  Step Number  Raw Counts  Counts/Second

   32.09        2950.00           1229         121.00       527.47
   32.19        2950.25           1232         130.00       566.70
   32.22        2950.50           1236         134.00       584.14
   32.25        2950.75           1239         128.00       557.99
   32.28        2951.00           1242         138.00       601.58
   32.31        2951.25           1246         140.00       610.30
   32.34        2951.50           1249         141.00       614.66
   32.37        2951.75           1252         128.00       557.99
   32.40        2952.00           1256         122.00       531.83
   32.43        2952.25           1259         130.00       566.70
   32.46        2952.50           1262         120.00       523.11
   32.49        2952.75           1266         122.00       531.83
   32.52        2953.00           1269         122.00       531.83
   32.55        2953.25           1272         118.00       514.39
   32.58        2953.50           1276         125.00       544.91
   32.61        2953.75           1279         129.00       562.35
   32.64        2954.00           1282         122.00       531.83
   32.67        2954.25           1286         125.00       544.91
   32.70        2954.50           1289         126.00       549.27
   32.73        2954.75           1292         129.00       562.35
   32.76        2955.00           1296         128.00       557.99
   32.79        2955.25           1299         132.00       575.42
   32.82        2955.50           1302         135.00       588.50
   32.85        2955.75           1306         123.00       536.19
   32.88        2956.00           1309         124.00       540.55
   32.91        2956.25           1312         124.00       540.55
   32.93        2956.50           1316         132.00       575.42
   32.96        2956.75           1319         127.00       553.63
   32.99        2957.00           1322         127.00       553.63
   33.02        2957.25           1326         130.00       566.70
   33.05        2957.50           1329         127.00       553.63
   33.08        2957.75           1332         136.00       592.86
   33.11        2958.00           1336         122.00       531.83
   33.14        2958.25           1339         127.00       553.63
   33.17        2958.50           1342         121.00       527.47
   33.20        2958.75           1345         137.00       597.22
   33.23        2959.00           1349         126.00       549.27
   33.26        2959.25           1352         116.00       505.67
   33.29        2959.50           1355         121.00       527.47
   33.32        2959.75           1359         127.00       553.63
   33.35        2960.00           1362         119.00       518.75
   33.38        2960.25           1365         131.00       571.06
   33.41        2960.50           1369         122.00       531.83
   33.44        2960.75           1372         132.00       575.42
   33.47        2961.00           1375         143.00       623.38
   33.50        2961.25           1379         154.00       671.33
   33.53        2961.50           1382         199.00       867.50
   33.56        2961.75           1385         712.00      3104.01
   33.59        2962.00           1389        2298.00     10020.15
   33.62        2962.25           1392        3820.00     16659.63
   33.65        2962.50           1395        5683.00     24789.91
   33.68        2962.75           1399        9066.00     39562.72
   33.71        2963.00           1402       11715.00     51138.57
   33.74        2963.25           1405       14430.00     63010.34
   33.77        2963.50           1409       17843.00     77945.04
   33.80        2963.75           1412       20048.00     87600.15
   33.83        2964.00           1415       22542.00     98526.79
   33.86        2964.25           1419       26294.00    114977.10
   33.89        2964.50           1422       28768.00    125832.20
   33.92        2964.75           1425       31281.00    136864.90
   33.95        2965.00           1429       34379.00    150475.00
   33.98        2965.25           1432       36757.00    160928.80
   34.01        2965.50           1435       39247.00    171881.30
   34.04        2965.75           1439       42583.00    186565.10
   34.06        2966.00           1442       44812.00    196382.90
   34.09        2966.25           1445       47624.00    208776.00
   34.12        2966.50           1449       50353.00    220811.20
   34.15        2966.75           1452       51482.00    225792.60
   34.19        2967.00           1455       52097.00    228506.60
   34.22        2967.25           1459       52482.00    230205.90
   34.24        2967.50           1462       52344.00    229596.70
   34.27        2967.75           1465       52191.00    228921.50
   34.30        2968.00           1469       51350.00    225210.10
   34.33        2968.25           1472       50150.00    219915.70
   34.36        2968.50           1475       47877.00    209891.50
   34.39        2968.75           1479       44626.00    195563.50
   34.42        2969.00           1482       42400.00    185759.40
   34.45        2969.25           1485       40136.00    175793.20
   34.48        2969.50           1489       36924.00    161663.10
   34.51        2969.75           1492       34876.00    152659.30
   34.54        2970.00           1495       32299.00    141336.10
   34.57        2970.25           1499       28866.00    126262.30
   34.60        2970.50           1502       26749.00    116973.00
   34.63        2970.75           1505       24491.00    107070.20
   34.66        2971.00           1509       21380.00     93435.07
   34.69        2971.25           1512       19061.00     83277.71
   34.72        2971.50           1515       16361.00     71458.57
   34.75        2971.75           1519       13221.00     57722.85
   34.78        2972.00           1522       10693.00     46671.68
   34.81        2972.25           1525        8384.00     36583.63
   34.84        2972.50           1529        5369.00     23419.34
   34.87        2972.75           1532        3100.00     13518.45
   34.90        2973.00           1535        1489.00      6491.98
   34.93        2973.25           1539         493.00      2149.21
   34.96        2973.50           1542         254.00      1107.27
   34.99        2973.75           1546         177.00       771.59
   35.02        2974.00           1549         149.00       649.53
   35.05        2974.25           1552         136.00       592.86
   35.08        2974.50           1556         135.00       588.50
   35.11        2974.75           1559         124.00       540.55
   35.14        2975.00           1562         127.00       553.63
   35.17        2975.25           1566         123.00       536.19
   35.20        2975.50           1569         109.00       475.16
   35.23        2975.75           1572         135.00       588.50
   35.26        2976.00           1576         121.00       527.47
   35.29        2976.25           1579         110.00       479.52
   35.32        2976.50           1582         119.00       518.75
   35.35        2976.75           1586         112.00       488.24
   35.38        2977.00           1589         121.00       527.47
   35.41        2977.25           1592         123.00       536.19
   35.44        2977.50           1596         112.00       488.24
   35.47        2977.75           1599          92.00       401.05
   35.50        2978.00           1602         104.00       453.36
   35.53        2978.25           1606         108.00       470.80
   35.56        2978.50           1609         108.00       470.80
   35.58        2978.75           1612         116.00       505.67
   35.61        2979.00           1616         117.00       510.03
   35.64        2979.25           1619         115.00       501.31
   35.67        2979.50           1622         113.00       492.60
   35.70        2979.75           1626         103.00       449.00
   35.73        2980.00           1629         111.00       483.88
   35.76        2980.25           1632         113.00       492.60
   35.79        2980.50           1636         114.00       496.96
   35.82        2980.75           1639         123.00       536.19
   35.85        2981.00           1642         110.00       479.52
   35.88        2981.25           1646         116.00       505.67
   35.91        2981.50           1649         103.00       449.00
   35.94        2981.75           1653         121.00       527.47
   35.97        2982.00           1656         108.00       470.80
   36.00        2982.25           1659         110.00       479.52
   36.03        2982.50           1663         114.00       496.96
   36.06        2982.75           1666         109.00       475.16
   36.09        2983.00           1669         106.00       462.08
   36.12        2983.25           1673         109.00       475.16
   36.15        2983.50           1676         107.00       466.44
   36.18        2983.75           1679         111.00       483.88
   36.21        2984.00           1683         118.00       514.39
HS scan finished at 00:36:31
end
************************************************************
  HS Scan of (1) Internal mercury lamp
************************************************************
Integration time is 0.2294 seconds per sample
dh070418Delft 51.9969-4.3863 2.428648pr1000
************************************************************
Dead Time -------------------------  2.7E-08 
Number of Cycles Used -------------  4 
Starting Wavelength (Angstroms) ---  2950 
Final Wavelength (Angstoms) -------  2984 
Wavelength Increment (Angstroms) --  .25 
Filter Wheel #1 Position ---------- (1) Ground quartz diffuser (ND=2.32)
Filter Wheel #2 Position ---------- (1) Neutral Density 0.494



************************************************************
HS scan start time = 03:45:23
Dark Count =  .1 


Time (GMT)  Wavelength (Ang)  Step Number  Raw Counts  Counts/Second

  225.84        2950.00           1229         126.00       548.83
  225.94        2950.25           1232         124.00       540.11
  225.97        2950.50           1236         130.00       566.27
  226.00        2950.75           1239         131.00       570.63
  226.03        2951.00           1242         129.00       561.91
  226.06        2951.25           1246         114.00       496.52
  226.09        2951.50           1249         133.00       579.35
  226.12        2951.75           1252         132.00       574.99
  226.15        2952.00           1256         136.00       592.42
  226.18        2952.25           1259         128.00       557.55
  226.21        2952.50           1262         128.00       557.55
  226.24        2952.75           1266         142.00       618.58
  226.27        2953.00           1269         136.00       592.42
  226.30        2953.25           1272         132.00       574.99
  226.33        2953.50           1276         123.00       535.75
  226.36        2953.75           1279         126.00       548.83
  226.39        2954.00           1282         123.00       535.75
  226.42        2954.25           1286         126.00       548.83
  226.45        2954.50           1289         127.00       553.19
  226.48        2954.75           1292         132.00       574.99
  226.51        2955.00           1296         131.00       570.63
  226.54        2955.25           1299         133.00       579.35
  226.57        2955.50           1302         136.00       592.42
  226.60        2955.75           1306         126.00       548.83
  226.63        2956.00           1309         127.00       553.19
  226.66        2956.25           1312         132.00       574.99
  226.69        2956.50           1316         131.00       570.63
  226.72        2956.75           1319         130.00       566.27
  226.75        2957.00           1322         128.00       557.55
  226.78        2957.25           1326         120.00       522.68
  226.80        2957.50           1329         135.00       588.07
  226.83        2957.75           1332         128.00       557.55
  226.86        2958.00           1336         127.00       553.19
  226.89        2958.25           1339         121.00       527.03
  226.92        2958.50           1342         124.00       540.11
  226.95        2958.75           1345         126.00       548.83
  226.98        2959.00           1349         123.00       535.75
  227.01        2959.25           1352         114.00       496.52
  227.04        2959.50           1355         126.00       548.83
  227.07        2959.75           1359         128.00       557.55
  227.10        2960.00           1362         121.00       527.03
  227.13        2960.25           1365         118.00       513.96
  227.16        2960.50           1369         122.00       531.39
  227.19        2960.75           1372         139.00       605.50
  227.22        2961.00           1375         148.00       644.74
  227.25        2961.25           1379         165.00       718.85
  227.28        2961.50           1382         219.00       954.25
  227.31        2961.75           1385         644.00      2807.10
  227.34        2962.00           1389        2216.00      9662.07
  227.37        2962.25           1392        4362.00     19024.15
  227.40        2962.50           1395        6427.00     28037.35
  227.43        2962.75           1399        9085.00     39645.29
  227.46        2963.00           1402       11662.00     50906.46
  227.49        2963.25           1405       14020.00     61216.63
  227.52        2963.50           1409       17582.00     76802.08
  227.55        2963.75           1412       20232.00     88405.62
  227.58        2964.00           1415       22653.00     99012.82
  227.61        2964.25           1419       25475.00    111384.60
  227.64        2964.50           1422       27913.00    122079.60
  227.67        2964.75           1425       30610.00    133918.00
  227.70        2965.00           1429       33509.00    146651.50
  227.73        2965.25           1432       36196.00    158461.60
  227.76        2965.50           1435       38888.00    170301.30
  227.79        2965.75           1439       42074.00    184323.50
  227.82        2966.00           1442       44098.00    193237.00
  227.85        2966.25           1445       46289.00    202890.90
  227.88        2966.50           1449       49147.00    215491.20
  227.91        2966.75           1452       49918.00    218891.90
  227.94        2967.00           1455       50372.00    220894.60
  227.97        2967.25           1459       50464.00    221300.50
  228.00        2967.50           1462       50327.00    220696.10
  228.03        2967.75           1465       49998.00    219244.80
  228.06        2968.00           1469       48972.00    214719.50
  228.09        2968.25           1472       47530.00    208361.10
  228.12        2968.50           1475       45474.00    199299.30
  228.15        2968.75           1479       42854.00    187758.10
  228.18        2969.00           1482       40593.00    177804.00
  228.21        2969.25           1485       38179.00    167182.30
  228.24        2969.50           1489       35296.00    154505.00
  228.27        2969.75           1492       33313.00    145790.30
  228.30        2970.00           1495       31018.00    135709.50
  228.33        2970.25           1499       27844.00    121776.80
  228.36        2970.50           1502       25187.00    110121.60
  228.39        2970.75           1505       22616.00     98850.66
  228.42        2971.00           1509       19503.00     85212.83
  228.45        2971.25           1512       17034.00     74403.47
  228.48        2971.50           1515       15147.00     66146.37
  228.51        2971.75           1519       12114.00     52882.35
  228.54        2972.00           1522        9675.00     42222.92
  228.56        2972.25           1525        7434.00     32434.23
  228.60        2972.50           1529        5005.00     21830.21
  228.63        2972.75           1532        3043.00     13269.36
  228.66        2973.00           1535        1481.00      6456.66
  228.69        2973.25           1539         423.00      1843.60
  228.71        2973.50           1542         200.00       871.42
  228.74        2973.75           1546         158.00       688.33
  228.77        2974.00           1549         155.00       675.25
  228.80        2974.25           1552         142.00       618.58
  228.83        2974.50           1556         143.00       622.94
  228.86        2974.75           1559         134.00       583.71
  228.89        2975.00           1562         127.00       553.19
  228.92        2975.25           1566         119.00       518.32
  228.95        2975.50           1569         120.00       522.68
  228.98        2975.75           1572         109.00       474.72
  229.01        2976.00           1576         111.00       483.44
  229.04        2976.25           1579         112.00       487.80
  229.07        2976.50           1582         122.00       531.39
  229.10        2976.75           1586         112.00       487.80
  229.13        2977.00           1589         117.00       509.60
  229.16        2977.25           1592         112.00       487.80
  229.19        2977.50           1596         113.00       492.16
  229.22        2977.75           1599         110.00       479.08
  229.25        2978.00           1602         116.00       505.24
  229.28        2978.25           1606         118.00       513.96
  229.31        2978.50           1609         108.00       470.36
  229.34        2978.75           1612         111.00       483.44
  229.37        2979.00           1616         114.00       496.52
  229.40        2979.25           1619         113.00       492.16
  229.43        2979.50           1622         117.00       509.60
  229.46        2979.75           1626         111.00       483.44
  229.49        2980.00           1629         106.00       461.64
  229.52        2980.25           1632         100.00       435.49
  229.55        2980.50           1636         111.00       483.44
  229.58        2980.75           1639         101.00       439.85
  229.61        2981.00           1642         118.00       513.96
  229.64        2981.25           1646         111.00       483.44
  229.67        2981.50           1649         101.00       439.85
  229.70        2981.75           1653         103.00       448.57
  229.73        2982.00           1656         100.00       435.49
  229.76        2982.25           1659         105.00       457.29
