************************************************************
  HS Scan of (1) Internal mercury lamp
************************************************************
Integration time is 0.2294 seconds per sample
dh090417DelftKZ 51.997-4.386 2.375pr1000
************************************************************
Dead Time -------------------------  3E-08 
Number of Cycles Used -------------  4 
Starting Wavelength (Angstroms) ---  2950 
Final Wavelength (Angstoms) -------  2984 
Wavelength Increment (Angstroms) --  .25 
Filter Wheel #1 Position ---------- (1) Ground quartz diffuser (ND=2.32)
Filter Wheel #2 Position ---------- (1) Neutral Density 0.494



************************************************************
HS scan start time = 03:22:30
Dark Count =  0 


Time (GMT)  Wavelength (Ang)  Step Number  Raw Counts  Counts/Second

  202.94        2950.00           1229         130.00       566.71
  203.04        2950.25           1232         136.00       592.86
  203.07        2950.50           1236         126.00       549.27
  203.10        2950.75           1239         135.00       588.50
  203.12        2951.00           1242         126.00       549.27
  203.15        2951.25           1246         125.00       544.91
  203.18        2951.50           1249         115.00       501.32
  203.21        2951.75           1252         119.00       518.75
  203.24        2952.00           1255         135.00       588.50
  203.26        2952.25           1259         129.00       562.35
  203.29        2952.50           1262         121.00       527.47
  203.32        2952.75           1265         137.00       597.22
  203.35        2953.00           1269         130.00       566.71
  203.38        2953.25           1272         126.00       549.27
  203.40        2953.50           1275         135.00       588.50
  203.43        2953.75           1279         128.00       557.99
  203.46        2954.00           1282         128.00       557.99
  203.49        2954.25           1285         122.00       531.83
  203.51        2954.50           1289         133.00       579.78
  203.54        2954.75           1292         117.00       510.03
  203.57        2955.00           1295         120.00       523.11
  203.60        2955.25           1299         122.00       531.83
  203.62        2955.50           1302         112.00       488.24
  203.65        2955.75           1305         129.00       562.35
  203.68        2956.00           1309         119.00       518.75
  203.71        2956.25           1312         122.00       531.83
  203.73        2956.50           1315         115.00       501.32
  203.77        2956.75           1319         122.00       531.83
  203.81        2957.00           1322         129.00       562.35
  203.84        2957.25           1325         129.00       562.35
  203.86        2957.50           1329         125.00       544.91
  203.89        2957.75           1332         127.00       553.63
  203.92        2958.00           1335         118.00       514.39
  203.95        2958.25           1339         127.00       553.63
  203.97        2958.50           1342         124.00       540.55
  204.00        2958.75           1345         123.00       536.19
  204.03        2959.00           1349         123.00       536.19
  204.06        2959.25           1352         114.00       496.96
  204.09        2959.50           1355         128.00       557.99
  204.12        2959.75           1359         109.00       475.16
  204.15        2960.00           1362         125.00       544.91
  204.17        2960.25           1365         119.00       518.75
  204.20        2960.50           1369         137.00       597.22
  204.23        2960.75           1372         135.00       588.50
  204.26        2961.00           1375         140.00       610.30
  204.28        2961.25           1379         149.00       649.53
  204.31        2961.50           1382         243.00      1059.32
  204.34        2961.75           1385         730.00      3182.52
  204.37        2962.00           1389        2234.00      9741.30
  204.40        2962.25           1392        4049.00     17659.75
  204.43        2962.50           1395        5984.00     26105.88
  204.46        2962.75           1399        8414.00     36718.72
  204.48        2963.00           1402       10311.00     45008.42
  204.51        2963.25           1405       12257.00     53516.55
  204.54        2963.50           1409       15581.00     68059.49
  204.57        2963.75           1412       17480.00     76373.57
  204.60        2964.00           1415       19725.00     86207.84
  204.62        2964.25           1419       23143.00    101191.60
  204.65        2964.50           1422       25351.00    110878.20
  204.68        2964.75           1425       27633.00    120895.40
  204.71        2965.00           1429       30531.00    133625.30
  204.74        2965.25           1432       32662.00    142992.20
  204.76        2965.50           1435       34904.00    152852.80
  204.79        2965.75           1439       37321.00    163489.50
  204.82        2966.00           1442       39157.00    171574.00
  204.85        2966.25           1445       40998.00    179684.40
  204.88        2966.50           1449       43517.00    190788.10
  204.91        2966.75           1452       44549.00    195339.30
  204.94        2967.00           1455       44851.00    196671.40
  204.96        2967.25           1459       45158.00    198025.60
  204.99        2967.50           1462       45011.00    197377.10
  205.02        2967.75           1465       44915.00    196953.70
  205.05        2968.00           1469       43993.00    192887.10
  205.07        2968.25           1472       42615.00    186811.30
  205.10        2968.50           1475       41090.00    180089.80
  205.13        2968.75           1479       38782.00    169922.40
  205.16        2969.00           1482       36608.00    160351.00
  205.19        2969.25           1485       34588.00    151462.60
  205.21        2969.50           1489       31511.00    137932.30
  205.24        2969.75           1492       29276.00    128111.30
  205.27        2970.00           1495       27168.00    118853.70
  205.30        2970.25           1499       24665.00    107868.10
  205.33        2970.50           1502       22807.00     99718.09
  205.35        2970.75           1505       20542.00     89788.18
  205.38        2971.00           1509       17864.00     78055.28
  205.41        2971.25           1512       15870.00     69324.50
  205.44        2971.50           1515       14065.00     61425.21
  205.46        2971.75           1519       11311.00     49379.99
  205.50        2972.00           1522        8996.00     39261.56
  205.53        2972.25           1525        6810.00     29712.61
  205.55        2972.50           1529        3919.00     17092.46
  205.58        2972.75           1532        2120.00      9244.06
  205.61        2973.00           1536         707.00      3082.24
  205.64        2973.25           1539         291.00      1268.57
  205.67        2973.50           1542         192.00       836.99
  205.69        2973.75           1546         155.00       675.69
  205.72        2974.00           1549         143.00       623.38
  205.75        2974.25           1552         125.00       544.91
  205.78        2974.50           1556         128.00       557.99
  205.80        2974.75           1559         123.00       536.19
  205.83        2975.00           1562         107.00       466.44
  205.86        2975.25           1566         116.00       505.67
  205.89        2975.50           1569         112.00       488.24
  205.92        2975.75           1572         110.00       479.52
  205.94        2976.00           1576         111.00       483.88
  205.97        2976.25           1579         121.00       527.47
  206.00        2976.50           1582         105.00       457.72
  206.03        2976.75           1586         119.00       518.75
  206.05        2977.00           1589         118.00       514.39
  206.08        2977.25           1592          98.00       427.21
  206.11        2977.50           1596         100.00       435.93
  206.14        2977.75           1599         100.00       435.93
  206.17        2978.00           1602         104.00       453.36
  206.19        2978.25           1606         105.00       457.72
  206.22        2978.50           1609         102.00       444.64
  206.25        2978.75           1612         114.00       496.96
  206.28        2979.00           1616         105.00       457.72
  206.30        2979.25           1619         105.00       457.72
  206.33        2979.50           1623         100.00       435.93
  206.36        2979.75           1626         110.00       479.52
  206.39        2980.00           1629         102.00       444.64
  206.42        2980.25           1633         103.00       449.00
  206.44        2980.50           1636         105.00       457.72
  206.47        2980.75           1639         108.00       470.80
  206.50        2981.00           1643         114.00       496.96
  206.53        2981.25           1646         105.00       457.72
  206.55        2981.50           1649          96.00       418.49
  206.58        2981.75           1653         105.00       457.72
  206.61        2982.00           1656         102.00       444.64
  206.64        2982.25           1659         104.00       453.36
  206.66        2982.50           1663         100.00       435.93
  206.69        2982.75           1666         102.00       444.64
  206.72        2983.00           1669          99.00       431.57
  206.75        2983.25           1673         108.00       470.80
  206.78        2983.50           1676          99.00       431.57
  206.81        2983.75           1679         114.00       496.96
  206.84        2984.00           1683         102.00       444.64
HS scan finished at 03:27:08
end
