************************************************************
  HS Scan of (1) Internal mercury lamp
************************************************************
Integration time is 0.2294 seconds per sample
dh180417DelftKZ 51.997-4.386 2.321352pr1000
************************************************************
Dead Time -------------------------  3E-08 
Number of Cycles Used -------------  4 
Starting Wavelength (Angstroms) ---  2950 
Final Wavelength (Angstoms) -------  2984 
Wavelength Increment (Angstroms) --  .25 
Filter Wheel #1 Position ---------- (1) Ground quartz diffuser (ND=2.32)
Filter Wheel #2 Position ---------- (1) Neutral Density 0.494



************************************************************
HS scan start time = 02:51:40
Dark Count =  .1 


Time (GMT)  Wavelength (Ang)  Step Number  Raw Counts  Counts/Second

  172.12        2950.00           1229         125.00       544.47
  172.22        2950.25           1232         121.00       527.04
  172.24        2950.50           1236         133.00       579.35
  172.27        2950.75           1239         139.00       605.50
  172.30        2951.00           1242         121.00       527.04
  172.33        2951.25           1246         132.00       574.99
  172.36        2951.50           1249         127.00       553.19
  172.39        2951.75           1252         131.00       570.63
  172.42        2952.00           1255         129.00       561.91
  172.44        2952.25           1259         130.00       566.27
  172.47        2952.50           1262         128.00       557.55
  172.50        2952.75           1265         128.00       557.55
  172.53        2953.00           1269         135.00       588.07
  172.56        2953.25           1272         123.00       535.75
  172.58        2953.50           1275         139.00       605.50
  172.62        2953.75           1279         138.00       601.14
  172.65        2954.00           1282         127.00       553.19
  172.68        2954.25           1285         126.00       548.83
  172.71        2954.50           1289         125.00       544.47
  172.74        2954.75           1292         127.00       553.19
  172.76        2955.00           1295         120.00       522.68
  172.79        2955.25           1299         126.00       548.83
  172.82        2955.50           1302         126.00       548.83
  172.85        2955.75           1305         115.00       500.88
  172.88        2956.00           1309         131.00       570.63
  172.90        2956.25           1312         132.00       574.99
  172.93        2956.50           1315         120.00       522.68
  172.96        2956.75           1319         124.00       540.11
  172.99        2957.00           1322         126.00       548.83
  173.02        2957.25           1325         121.00       527.04
  173.05        2957.50           1329         119.00       518.32
  173.08        2957.75           1332         120.00       522.68
  173.10        2958.00           1335         117.00       509.60
  173.13        2958.25           1339         126.00       548.83
  173.16        2958.50           1342         118.00       513.96
  173.19        2958.75           1345         124.00       540.11
  173.21        2959.00           1349         125.00       544.47
  173.24        2959.25           1352         129.00       561.91
  173.27        2959.50           1355         119.00       518.32
  173.30        2959.75           1359         123.00       535.75
  173.32        2960.00           1362         134.00       583.71
  173.35        2960.25           1365         119.00       518.32
  173.38        2960.50           1369         131.00       570.63
  173.41        2960.75           1372         139.00       605.50
  173.44        2961.00           1375         146.00       636.02
  173.46        2961.25           1379         149.00       649.10
  173.49        2961.50           1382         285.00      1241.98
  173.52        2961.75           1385         859.00      3744.54
  173.55        2962.00           1389        2184.00      9522.77
  173.57        2962.25           1392        3659.00     15957.51
  173.60        2962.50           1395        5860.00     25564.06
  173.63        2962.75           1399        8253.00     36014.92
  173.66        2963.00           1402       10360.00     45222.17
  173.69        2963.25           1405       12559.00     54836.88
  173.71        2963.50           1409       15218.00     66470.26
  173.74        2963.75           1412       17435.00     76176.06
  173.77        2964.00           1415       19780.00     86448.41
  173.80        2964.25           1419       22543.00     98559.96
  173.82        2964.50           1422       24602.00    107591.30
  173.85        2964.75           1425       26686.00    116737.20
  173.88        2965.00           1429       29070.00    127206.00
  173.91        2965.25           1432       30859.00    135066.20
  173.94        2965.50           1435       33054.00    144715.40
  173.96        2965.75           1439       36067.00    157969.60
  173.99        2966.00           1442       37786.00    165536.30
  174.02        2966.25           1445       39465.00    172930.10
  174.05        2966.50           1449       41659.00    182596.90
  174.07        2966.75           1452       42763.00    187463.30
  174.10        2967.00           1455       43140.00    189125.40
  174.13        2967.25           1459       43383.00    190196.80
  174.16        2967.50           1462       43316.00    189901.40
  174.19        2967.75           1465       42986.00    188446.40
  174.21        2968.00           1469       42364.00    185704.30
  174.24        2968.25           1472       41295.00    180992.70
  174.27        2968.50           1475       39660.00    173789.10
  174.30        2968.75           1479       36878.00    161539.00
  174.32        2969.00           1482       34608.00    151550.20
  174.35        2969.25           1485       32841.00    143778.80
  174.38        2969.50           1489       29915.00    130918.20
  174.41        2969.75           1492       27846.00    121830.30
  174.44        2970.00           1495       26132.00    114305.40
  174.46        2970.25           1499       23895.00    104489.60
  174.49        2970.50           1502       22314.00     97555.81
  174.52        2970.75           1505       20053.00     87644.71
  174.55        2971.00           1509       17499.00     76456.34
  174.57        2971.25           1512       15046.00     65717.50
  174.60        2971.50           1515       12935.00     56481.42
  174.63        2971.75           1519       10344.00     45152.23
  174.66        2972.00           1522        8211.00     35831.44
  174.69        2972.25           1525        6287.00     27428.40
  174.71        2972.50           1529        3720.00     16223.68
  174.74        2972.75           1532        1929.00      8410.58
  174.77        2973.00           1536         639.00      2785.32
  174.80        2973.25           1539         276.00      1202.75
  174.82        2973.50           1542         181.00       788.60
  174.85        2973.75           1546         144.00       627.30
  174.88        2974.00           1549         141.00       614.22
  174.91        2974.25           1552         120.00       522.68
  174.93        2974.50           1556         122.00       531.39
  174.96        2974.75           1559         128.00       557.55
  174.99        2975.00           1562         128.00       557.55
  175.02        2975.25           1566         122.00       531.39
  175.05        2975.50           1569         107.00       466.00
  175.08        2975.75           1572         112.00       487.80
  175.11        2976.00           1576         105.00       457.29
  175.14        2976.25           1579         106.00       461.65
  175.17        2976.50           1582         111.00       483.44
  175.20        2976.75           1586         104.00       452.93
  175.22        2977.00           1589         108.00       470.36
  175.25        2977.25           1592         115.00       500.88
  175.28        2977.50           1596         114.00       496.52
  175.31        2977.75           1599         100.00       435.49
  175.33        2978.00           1602         108.00       470.36
  175.36        2978.25           1606         109.00       474.72
  175.39        2978.50           1609          99.00       431.13
  175.42        2978.75           1612         114.00       496.52
  175.44        2979.00           1616         111.00       483.44
  175.47        2979.25           1619         115.00       500.88
  175.50        2979.50           1623         110.00       479.08
  175.53        2979.75           1626         102.00       444.21
  175.56        2980.00           1629          95.00       413.69
  175.58        2980.25           1633         102.00       444.21
  175.61        2980.50           1636         106.00       461.65
  175.64        2980.75           1639         114.00       496.52
  175.67        2981.00           1643         106.00       461.65
  175.70        2981.25           1646         109.00       474.72
  175.73        2981.50           1649          97.00       422.41
  175.76        2981.75           1653         108.00       470.36
  175.78        2982.00           1656         103.00       448.57
  175.81        2982.25           1659         100.00       435.49
  175.84        2982.50           1663         109.00       474.72
  175.87        2982.75           1666         109.00       474.72
  175.89        2983.00           1669         106.00       461.65
  175.92        2983.25           1673         105.00       457.29
  175.95        2983.50           1676         113.00       492.16
  175.98        2983.75           1679          98.00       426.77
  176.01        2984.00           1683         110.00       479.08
HS scan finished at 02:56:18
end
