************************************************************
  HS Scan of (1) Internal mercury lamp
************************************************************
Integration time is 0.2294 seconds per sample
dh140418Delft 51.9969-4.3863 2.428648pr1000
************************************************************
Dead Time -------------------------  2.7E-08 
Number of Cycles Used -------------  4 
Starting Wavelength (Angstroms) ---  2950 
Final Wavelength (Angstoms) -------  2984 
Wavelength Increment (Angstroms) --  .25 
Filter Wheel #1 Position ---------- (1) Ground quartz diffuser (ND=2.32)
Filter Wheel #2 Position ---------- (1) Neutral Density 0.494



************************************************************
HS scan start time = 00:31:22
Dark Count =  .1 


Time (GMT)  Wavelength (Ang)  Step Number  Raw Counts  Counts/Second

   31.82        2950.00           1229         121.00       527.03
   31.92        2950.25           1232         126.00       548.83
   31.95        2950.50           1236         125.00       544.47
   31.98        2950.75           1239         132.00       574.99
   32.01        2951.00           1242         131.00       570.63
   32.04        2951.25           1246         138.00       601.14
   32.07        2951.50           1249         132.00       574.99
   32.10        2951.75           1252         129.00       561.91
   32.13        2952.00           1256         115.00       500.88
   32.16        2952.25           1259         135.00       588.07
   32.19        2952.50           1262         126.00       548.83
   32.22        2952.75           1266         133.00       579.35
   32.25        2953.00           1269         130.00       566.27
   32.28        2953.25           1272         134.00       583.71
   32.31        2953.50           1276         138.00       601.14
   32.34        2953.75           1279         137.00       596.78
   32.37        2954.00           1282         129.00       561.91
   32.40        2954.25           1286         133.00       579.35
   32.43        2954.50           1289         124.00       540.11
   32.46        2954.75           1292         128.00       557.55
   32.49        2955.00           1296         130.00       566.27
   32.52        2955.25           1299         130.00       566.27
   32.55        2955.50           1302         125.00       544.47
   32.58        2955.75           1306         123.00       535.75
   32.61        2956.00           1309         127.00       553.19
   32.64        2956.25           1312         137.00       596.78
   32.67        2956.50           1316         125.00       544.47
   32.70        2956.75           1319         131.00       570.63
   32.73        2957.00           1322         131.00       570.63
   32.76        2957.25           1326         121.00       527.03
   32.79        2957.50           1329         132.00       574.99
   32.82        2957.75           1332         124.00       540.11
   32.85        2958.00           1336         112.00       487.80
   32.88        2958.25           1339         120.00       522.68
   32.91        2958.50           1342         139.00       605.50
   32.94        2958.75           1345         126.00       548.83
   32.97        2959.00           1349         115.00       500.88
   33.00        2959.25           1352         134.00       583.71
   33.03        2959.50           1355         128.00       557.55
   33.06        2959.75           1359         132.00       574.99
   33.09        2960.00           1362         123.00       535.75
   33.12        2960.25           1365         137.00       596.78
   33.15        2960.50           1369         125.00       544.47
   33.18        2960.75           1372         131.00       570.63
   33.20        2961.00           1375         137.00       596.78
   33.23        2961.25           1379         146.00       636.02
   33.26        2961.50           1382         216.00       941.17
   33.29        2961.75           1385         584.00      2545.51
   33.32        2962.00           1389        1874.00      8170.50
   33.35        2962.25           1392        3467.00     15119.07
   33.38        2962.50           1395        5370.00     23423.27
   33.42        2962.75           1399        8632.00     37666.45
   33.44        2963.00           1402       11281.00     49241.10
   33.47        2963.25           1405       13358.00     58321.50
   33.50        2963.50           1409       16524.00     72171.46
   33.53        2963.75           1412       19144.00     83640.72
   33.56        2964.00           1415       21676.00     94731.52
   33.59        2964.25           1419       24431.00    106806.70
   33.62        2964.50           1422       27445.00    120026.10
   33.65        2964.75           1425       29902.00    130809.50
   33.69        2965.00           1429       33132.00    144995.00
   33.71        2965.25           1432       35491.00    155362.20
   33.74        2965.50           1435       37766.00    165365.70
   33.77        2965.75           1439       40666.00    178125.30
   33.80        2966.00           1442       42682.00    187000.60
   33.83        2966.25           1445       44467.00    194862.60
   33.86        2966.50           1449       47496.00    208211.30
   33.89        2966.75           1452       48718.00    213599.30
   33.92        2967.00           1455       49328.00    216289.50
   33.96        2967.25           1459       49542.00    217233.40
   33.98        2967.50           1462       49504.00    217065.80
   34.01        2967.75           1465       49672.00    217806.80
   34.04        2968.00           1469       48522.00    212735.00
   34.07        2968.25           1472       47357.00    207598.50
   34.10        2968.50           1475       45346.00    198735.30
   34.13        2968.75           1479       43123.00    188942.70
   34.16        2969.00           1482       41126.00    180150.10
   34.19        2969.25           1485       38865.00    170200.10
   34.22        2969.50           1489       36072.00    157916.40
   34.25        2969.75           1492       33492.00    146576.80
   34.28        2970.00           1495       31121.00    136161.80
   34.31        2970.25           1499       27299.00    119385.50
   34.34        2970.50           1502       25150.00    109959.40
   34.37        2970.75           1505       23080.00    100884.30
   34.40        2971.00           1509       19810.00     86557.34
   34.43        2971.25           1512       17499.00     76438.77
   34.46        2971.50           1515       15424.00     67358.23
   34.49        2971.75           1519       12982.00     56677.35
   34.52        2972.00           1522       10639.00     46435.26
   34.55        2972.25           1525        8377.00     36552.63
   34.58        2972.50           1529        5319.00     23200.67
   34.61        2972.75           1532        2930.00     12776.42
   34.64        2973.00           1535        1319.00      5750.24
   34.67        2973.25           1539         450.00      1961.31
   34.70        2973.50           1542         200.00       871.42
   34.73        2973.75           1546         168.00       731.92
   34.76        2974.00           1549         154.00       670.89
   34.79        2974.25           1552         146.00       636.02
   34.82        2974.50           1556         129.00       561.91
   34.85        2974.75           1559         125.00       544.47
   34.88        2975.00           1562         121.00       527.03
   34.91        2975.25           1566         118.00       513.96
   34.94        2975.50           1569         114.00       496.52
   34.97        2975.75           1572         115.00       500.88
   35.00        2976.00           1576         107.00       466.00
   35.03        2976.25           1579         110.00       479.08
   35.06        2976.50           1582         119.00       518.32
   35.09        2976.75           1586         105.00       457.29
   35.12        2977.00           1589         121.00       527.03
   35.15        2977.25           1592         115.00       500.88
   35.18        2977.50           1596         112.00       487.80
   35.21        2977.75           1599         125.00       544.47
   35.24        2978.00           1602         111.00       483.44
   35.27        2978.25           1606         118.00       513.96
   35.30        2978.50           1609         105.00       457.29
   35.33        2978.75           1612         109.00       474.72
   35.36        2979.00           1616         118.00       513.96
   35.39        2979.25           1619         113.00       492.16
   35.42        2979.50           1622         109.00       474.72
   35.45        2979.75           1626         108.00       470.36
   35.48        2980.00           1629         108.00       470.36
   35.51        2980.25           1632         108.00       470.36
   35.54        2980.50           1636         117.00       509.60
   35.57        2980.75           1639         110.00       479.08
   35.60        2981.00           1642         105.00       457.29
   35.63        2981.25           1646         113.00       492.16
   35.66        2981.50           1649         102.00       444.21
   35.69        2981.75           1653         106.00       461.64
   35.72        2982.00           1656         114.00       496.52
   35.75        2982.25           1659         105.00       457.29
   35.78        2982.50           1663         112.00       487.80
   35.81        2982.75           1666         102.00       444.21
   35.84        2983.00           1669         115.00       500.88
   35.87        2983.25           1673         116.00       505.24
   35.90        2983.50           1676         112.00       487.80
   35.93        2983.75           1679         104.00       452.93
   35.96        2984.00           1683         104.00       452.93
HS scan finished at 00:36:16
end
************************************************************
  HS Scan of (1) Internal mercury lamp
************************************************************
Integration time is 0.2294 seconds per sample
dh140418Delft 51.9969-4.3863 2.589593pr1000
************************************************************
Dead Time -------------------------  2.7E-08 
Number of Cycles Used -------------  4 
Starting Wavelength (Angstroms) ---  2950 
Final Wavelength (Angstoms) -------  2984 
Wavelength Increment (Angstroms) --  .25 
Filter Wheel #1 Position ---------- (1) Ground quartz diffuser (ND=2.32)
Filter Wheel #2 Position ---------- (1) Neutral Density 0.494



************************************************************
HS scan start time = 03:22:13
Dark Count =  0 


Time (GMT)  Wavelength (Ang)  Step Number  Raw Counts  Counts/Second

  202.67        2950.00           1229         134.00       584.14
  202.77        2950.25           1232         122.00       531.83
  202.80        2950.50           1236         136.00       592.86
  202.83        2950.75           1239         130.00       566.70
  202.86        2951.00           1242         125.00       544.91
  202.89        2951.25           1246         135.00       588.50
  202.92        2951.50           1249         133.00       579.78
  202.95        2951.75           1252         122.00       531.83
  202.98        2952.00           1256         121.00       527.47
  203.01        2952.25           1259         120.00       523.11
  203.04        2952.50           1262         124.00       540.55
  203.07        2952.75           1266         135.00       588.50
  203.10        2953.00           1269         121.00       527.47
  203.13        2953.25           1272         121.00       527.47
  203.16        2953.50           1276         126.00       549.27
  203.19        2953.75           1279         128.00       557.99
  203.22        2954.00           1282         120.00       523.11
  203.25        2954.25           1286         128.00       557.99
  203.28        2954.50           1289         122.00       531.83
  203.31        2954.75           1292         128.00       557.99
  203.34        2955.00           1296         121.00       527.47
  203.37        2955.25           1299         127.00       553.63
  203.40        2955.50           1302         125.00       544.91
  203.43        2955.75           1306         110.00       479.52
  203.46        2956.00           1309         127.00       553.63
  203.49        2956.25           1312         119.00       518.75
  203.52        2956.50           1316         128.00       557.99
  203.55        2956.75           1319         129.00       562.35
  203.57        2957.00           1322         120.00       523.11
  203.61        2957.25           1326         128.00       557.99
  203.64        2957.50           1329         120.00       523.11
  203.67        2957.75           1332         129.00       562.35
  203.70        2958.00           1336         121.00       527.47
  203.73        2958.25           1339         124.00       540.55
  203.76        2958.50           1342         123.00       536.19
  203.79        2958.75           1345         128.00       557.99
  203.81        2959.00           1349         124.00       540.55
  203.84        2959.25           1352         118.00       514.39
  203.87        2959.50           1355         122.00       531.83
  203.90        2959.75           1359         125.00       544.91
  203.93        2960.00           1362         120.00       523.11
  203.96        2960.25           1365         127.00       553.63
  203.99        2960.50           1369         122.00       531.83
  204.02        2960.75           1372         139.00       605.94
  204.05        2961.00           1375         137.00       597.22
  204.08        2961.25           1379         149.00       649.53
  204.11        2961.50           1382         206.00       898.02
  204.14        2961.75           1385         649.00      2829.34
  204.17        2962.00           1389        2394.00     10438.86
  204.20        2962.25           1392        4281.00     18671.14
  204.23        2962.50           1395        5943.00     25924.85
  204.26        2962.75           1399        9306.00     40611.20
  204.29        2963.00           1402       12272.00     53573.52
  204.32        2963.25           1405       14704.00     64208.87
  204.35        2963.50           1409       18553.00     81053.40
  204.38        2963.75           1412       21292.00     93049.53
  204.41        2964.00           1415       23816.00    104110.90
  204.44        2964.25           1419       27482.00    120188.90
  204.47        2964.50           1422       30017.00    131314.80
  204.50        2964.75           1425       32458.00    142034.50
  204.53        2965.00           1429       35658.00    156096.80
  204.56        2965.25           1432       37978.00    166298.60
  204.59        2965.50           1435       40143.00    175824.00
  204.62        2965.75           1439       43320.00    189810.70
  204.65        2966.00           1442       45673.00    200176.60
  204.68        2966.25           1445       48527.00    212757.50
  204.71        2966.50           1449       51550.00    226092.70
  204.74        2966.75           1452       52563.00    230563.40
  204.77        2967.00           1455       53126.00    233048.60
  204.80        2967.25           1459       53380.00    234169.90
  204.83        2967.50           1462       53345.00    234015.40
  204.86        2967.75           1465       53474.00    234584.90
  204.89        2968.00           1469       52781.00    231525.60
  204.92        2968.25           1472       51365.00    225276.30
  204.95        2968.50           1475       49303.00    216179.70
  204.98        2968.75           1479       46674.00    204588.20
  205.01        2969.00           1482       43881.00    192281.60
  205.04        2969.25           1485       41395.00    181334.70
  205.07        2969.50           1489       37914.00    166017.10
  205.10        2969.75           1492       35427.00    155081.30
  205.13        2970.00           1495       33299.00    145729.20
  205.16        2970.25           1499       29428.00    128729.10
  205.19        2970.50           1502       26984.00    118004.00
  205.22        2970.75           1505       24931.00    108999.50
  205.25        2971.00           1509       21504.00     93978.35
  205.28        2971.25           1512       19135.00     83601.76
  205.31        2971.50           1515       16723.00     73042.78
  205.34        2971.75           1519       13189.00     57582.92
  205.37        2972.00           1522       10398.00     45382.52
  205.40        2972.25           1525        8163.00     35618.37
  205.43        2972.50           1529        5212.00     22734.09
  205.46        2972.75           1532        3069.00     13383.22
  205.49        2973.00           1535        1411.00      6151.85
  205.52        2973.25           1539         388.00      1691.45
  205.55        2973.50           1542         203.00       884.94
  205.58        2973.75           1546         163.00       710.56
  205.61        2974.00           1549         147.00       640.81
  205.64        2974.25           1552         149.00       649.53
  205.67        2974.50           1556         124.00       540.55
  205.70        2974.75           1559         135.00       588.50
  205.73        2975.00           1562         125.00       544.91
  205.76        2975.25           1566         119.00       518.75
  205.79        2975.50           1569         115.00       501.31
  205.82        2975.75           1572         112.00       488.24
  205.85        2976.00           1576         111.00       483.88
  205.88        2976.25           1579         104.00       453.36
  205.91        2976.50           1582         112.00       488.24
  205.94        2976.75           1586         110.00       479.52
  205.97        2977.00           1589         105.00       457.72
  206.00        2977.25           1592         111.00       483.88
  206.03        2977.50           1596         104.00       453.36
  206.06        2977.75           1599         111.00       483.88
  206.09        2978.00           1602         113.00       492.60
  206.12        2978.25           1606         118.00       514.39
  206.15        2978.50           1609         105.00       457.72
  206.18        2978.75           1612         114.00       496.96
  206.21        2979.00           1616         105.00       457.72
  206.24        2979.25           1619         106.00       462.08
  206.27        2979.50           1622         115.00       501.31
  206.30        2979.75           1626         109.00       475.16
  206.33        2980.00           1629         108.00       470.80
  206.36        2980.25           1632         106.00       462.08
  206.39        2980.50           1636         109.00       475.16
  206.42        2980.75           1639         104.00       453.36
  206.45        2981.00           1642         104.00       453.36
  206.47        2981.25           1646         106.00       462.08
  206.51        2981.50           1649         108.00       470.80
  206.53        2981.75           1653          98.00       427.21
  206.57        2982.00           1656         112.00       488.24
  206.60        2982.25           1659         117.00       510.03
