************************************************************
  HS Scan of (1) Internal mercury lamp
************************************************************
Integration time is 0.2294 seconds per sample
dh210418Delft 51.9969-4.3863 2.535944pr1000
************************************************************
Dead Time -------------------------  2.7E-08 
Number of Cycles Used -------------  4 
Starting Wavelength (Angstroms) ---  2950 
Final Wavelength (Angstoms) -------  2984 
Wavelength Increment (Angstroms) --  .25 
Filter Wheel #1 Position ---------- (1) Ground quartz diffuser (ND=2.32)
Filter Wheel #2 Position ---------- (1) Neutral Density 0.494



************************************************************
HS scan start time = 00:33:16
Dark Count =  0 


Time (GMT)  Wavelength (Ang)  Step Number  Raw Counts  Counts/Second

   33.73        2950.00           1229         137.00       597.22
   33.83        2950.25           1232         130.00       566.70
   33.86        2950.50           1236         122.00       531.83
   33.89        2950.75           1239         124.00       540.55
   33.92        2951.00           1242         137.00       597.22
   33.95        2951.25           1246         138.00       601.58
   33.98        2951.50           1249         135.00       588.50
   34.01        2951.75           1252         121.00       527.47
   34.04        2952.00           1256         131.00       571.06
   34.07        2952.25           1259         126.00       549.27
   34.10        2952.50           1262         117.00       510.03
   34.13        2952.75           1266         124.00       540.55
   34.16        2953.00           1269         124.00       540.55
   34.19        2953.25           1272         125.00       544.91
   34.22        2953.50           1276         126.00       549.27
   34.25        2953.75           1279         130.00       566.70
   34.28        2954.00           1282         122.00       531.83
   34.31        2954.25           1286         130.00       566.70
   34.34        2954.50           1289         122.00       531.83
   34.37        2954.75           1292         125.00       544.91
   34.39        2955.00           1296         125.00       544.91
   34.42        2955.25           1299         136.00       592.86
   34.45        2955.50           1302         126.00       549.27
   34.48        2955.75           1306         117.00       510.03
   34.51        2956.00           1309         122.00       531.83
   34.54        2956.25           1312         124.00       540.55
   34.57        2956.50           1316         124.00       540.55
   34.60        2956.75           1319         127.00       553.63
   34.63        2957.00           1322         129.00       562.35
   34.66        2957.25           1326         116.00       505.67
   34.69        2957.50           1329         121.00       527.47
   34.72        2957.75           1332         118.00       514.39
   34.75        2958.00           1336         125.00       544.91
   34.78        2958.25           1339         122.00       531.83
   34.81        2958.50           1342         128.00       557.99
   34.84        2958.75           1345         124.00       540.55
   34.87        2959.00           1349         118.00       514.39
   34.90        2959.25           1352         124.00       540.55
   34.93        2959.50           1355         121.00       527.47
   34.96        2959.75           1359         118.00       514.39
   34.99        2960.00           1362         126.00       549.27
   35.02        2960.25           1365         126.00       549.27
   35.05        2960.50           1369         133.00       579.78
   35.08        2960.75           1372         135.00       588.50
   35.11        2961.00           1375         131.00       571.06
   35.14        2961.25           1379         150.00       653.89
   35.17        2961.50           1382         197.00       858.78
   35.20        2961.75           1385         564.00      2458.75
   35.23        2962.00           1389        2311.00     10076.85
   35.26        2962.25           1392        4235.00     18470.41
   35.29        2962.50           1395        6251.00     27269.42
   35.32        2962.75           1399        9154.00     39947.17
   35.35        2963.00           1402       11563.00     50474.15
   35.38        2963.25           1405       14453.00     63110.94
   35.41        2963.50           1409       17705.00     77340.93
   35.44        2963.75           1412       20490.00     89536.16
   35.47        2964.00           1415       23277.00    101748.20
   35.50        2964.25           1419       26561.00    116148.30
   35.53        2964.50           1422       28932.00    126552.00
   35.56        2964.75           1425       31478.00    137730.10
   35.59        2965.00           1429       34800.00    152325.30
   35.62        2965.25           1432       37125.00    162547.10
   35.65        2965.50           1435       39147.00    171441.30
   35.68        2965.75           1439       42073.00    184319.60
   35.71        2966.00           1442       44303.00    194140.50
   35.74        2966.25           1445       46667.00    204557.40
   35.77        2966.50           1449       50036.00    219412.80
   35.80        2966.75           1452       51126.00    224221.70
   35.83        2967.00           1455       51794.00    227169.40
   35.86        2967.25           1459       51942.00    227822.60
   35.89        2967.50           1462       51924.00    227743.10
   35.92        2967.75           1465       51587.00    226255.90
   35.95        2968.00           1469       50946.00    223427.50
   35.98        2968.25           1472       49713.00    217988.10
   36.01        2968.50           1475       47941.00    210173.60
   36.04        2968.75           1479       44919.00    196854.40
   36.07        2969.00           1482       42814.00    187582.40
   36.10        2969.25           1485       40325.00    176625.00
   36.13        2969.50           1489       36849.00    161333.30
   36.16        2969.75           1492       34065.00    149095.10
   36.19        2970.00           1495       32060.00    140286.30
   36.22        2970.25           1499       28743.00    125722.50
   36.25        2970.50           1502       26061.00    113955.10
   36.28        2970.75           1505       23620.00    103251.70
   36.31        2971.00           1509       20752.00     90683.84
   36.34        2971.25           1512       18676.00     81591.93
   36.37        2971.50           1515       16126.00     70430.24
   36.40        2971.75           1519       12949.00     56533.48
   36.43        2972.00           1522       10148.00     44290.07
   36.46        2972.25           1525        7447.00     32491.44
   36.49        2972.50           1529        4728.00     20621.77
   36.52        2972.75           1532        2742.00     11956.78
   36.55        2973.00           1535        1308.00      5702.71
   36.58        2973.25           1539         431.00      1878.91
   36.61        2973.50           1542         217.00       945.97
   36.64        2973.75           1546         156.00       680.05
   36.67        2974.00           1549         146.00       636.45
   36.70        2974.25           1552         141.00       614.66
   36.73        2974.50           1556         136.00       592.86
   36.76        2974.75           1559         127.00       553.63
   36.78        2975.00           1562         122.00       531.83
   36.81        2975.25           1566         106.00       462.08
   36.84        2975.50           1569         113.00       492.60
   36.87        2975.75           1572         112.00       488.24
   36.90        2976.00           1576         113.00       492.60
   36.93        2976.25           1579         118.00       514.39
   36.96        2976.50           1582         119.00       518.75
   36.99        2976.75           1586         106.00       462.08
   37.02        2977.00           1589         107.00       466.44
   37.05        2977.25           1592         105.00       457.72
   37.08        2977.50           1596         111.00       483.88
   37.11        2977.75           1599         108.00       470.80
   37.14        2978.00           1602         110.00       479.52
   37.17        2978.25           1606         110.00       479.52
   37.20        2978.50           1609         109.00       475.16
   37.23        2978.75           1612         104.00       453.36
   37.26        2979.00           1616         106.00       462.08
   37.29        2979.25           1619         109.00       475.16
   37.32        2979.50           1622         117.00       510.03
   37.35        2979.75           1626         108.00       470.80
   37.38        2980.00           1629          97.00       422.85
   37.41        2980.25           1632         108.00       470.80
   37.44        2980.50           1636         108.00       470.80
   37.47        2980.75           1639         102.00       444.64
   37.50        2981.00           1642         106.00       462.08
   37.53        2981.25           1646         109.00       475.16
   37.56        2981.50           1649         100.00       435.92
   37.59        2981.75           1653         111.00       483.88
   37.62        2982.00           1656         115.00       501.31
   37.65        2982.25           1659         107.00       466.44
   37.68        2982.50           1663         103.00       449.00
   37.71        2982.75           1666         113.00       492.60
   37.74        2983.00           1669          99.00       431.57
   37.77        2983.25           1673         107.00       466.44
   37.80        2983.50           1676          97.00       422.85
   37.83        2983.75           1679         108.00       470.80
   37.86        2984.00           1683          94.00       409.77
HS scan finished at 00:38:10
end
************************************************************
  HS Scan of (1) Internal mercury lamp
************************************************************
Integration time is 0.2294 seconds per sample
dh210418Delft 51.9969-4.3863 2.589593pr1000
************************************************************
Dead Time -------------------------  2.7E-08 
Number of Cycles Used -------------  4 
Starting Wavelength (Angstroms) ---  2950 
Final Wavelength (Angstoms) -------  2984 
Wavelength Increment (Angstroms) --  .25 
Filter Wheel #1 Position ---------- (1) Ground quartz diffuser (ND=2.32)
Filter Wheel #2 Position ---------- (1) Neutral Density 0.494



************************************************************
HS scan start time = 02:56:55
Dark Count =  .1 


Time (GMT)  Wavelength (Ang)  Step Number  Raw Counts  Counts/Second

  177.37        2950.00           1229         124.00       540.11
  177.47        2950.25           1232         128.00       557.55
  177.50        2950.50           1236         112.00       487.80
  177.52        2950.75           1239         123.00       535.75
  177.55        2951.00           1242         138.00       601.14
  177.58        2951.25           1246         125.00       544.47
  177.61        2951.50           1249         127.00       553.19
  177.64        2951.75           1252         132.00       574.99
  177.67        2952.00           1256         133.00       579.35
  177.70        2952.25           1259         124.00       540.11
  177.73        2952.50           1262         121.00       527.03
  177.76        2952.75           1266         123.00       535.75
  177.79        2953.00           1269         116.00       505.24
  177.82        2953.25           1272         116.00       505.24
  177.85        2953.50           1276         130.00       566.27
  177.88        2953.75           1279         110.00       479.08
  177.91        2954.00           1282         125.00       544.47
  177.94        2954.25           1286         128.00       557.55
  177.97        2954.50           1289         131.00       570.63
  178.00        2954.75           1292         133.00       579.35
  178.03        2955.00           1296         120.00       522.68
  178.06        2955.25           1299         119.00       518.32
  178.09        2955.50           1302         123.00       535.75
  178.12        2955.75           1306         123.00       535.75
  178.15        2956.00           1309         123.00       535.75
  178.18        2956.25           1312         124.00       540.11
  178.21        2956.50           1316         121.00       527.03
  178.24        2956.75           1319         123.00       535.75
  178.27        2957.00           1322         129.00       561.91
  178.30        2957.25           1326         122.00       531.39
  178.33        2957.50           1329         136.00       592.42
  178.36        2957.75           1332         119.00       518.32
  178.39        2958.00           1336         119.00       518.32
  178.42        2958.25           1339         128.00       557.55
  178.45        2958.50           1342         130.00       566.27
  178.48        2958.75           1345         114.00       496.52
  178.51        2959.00           1349         125.00       544.47
  178.54        2959.25           1352         115.00       500.88
  178.57        2959.50           1355         124.00       540.11
  178.60        2959.75           1359         121.00       527.03
  178.63        2960.00           1362         121.00       527.03
  178.66        2960.25           1365         127.00       553.19
  178.69        2960.50           1369         118.00       513.96
  178.72        2960.75           1372         134.00       583.71
  178.75        2961.00           1375         142.00       618.58
  178.78        2961.25           1379         160.00       697.05
  178.81        2961.50           1382         215.00       936.82
  178.84        2961.75           1385         542.00      2362.40
  178.87        2962.00           1389        2158.00      9409.10
  178.90        2962.25           1392        4147.00     18085.99
  178.93        2962.50           1395        6278.00     27386.85
  178.96        2962.75           1399        9681.00     42249.13
  178.99        2963.00           1402       12403.00     54145.80
  179.02        2963.25           1405       15011.00     65551.41
  179.05        2963.50           1409       18364.00     80225.46
  179.08        2963.75           1412       20990.00     91726.02
  179.11        2964.00           1415       23887.00    104421.70
  179.14        2964.25           1419       26947.00    117841.20
  179.17        2964.50           1422       29294.00    128140.50
  179.20        2964.75           1425       31368.00    137246.50
  179.23        2965.00           1429       34299.00    150123.00
  179.26        2965.25           1432       37058.00    162252.00
  179.29        2965.50           1435       39643.00    173623.30
  179.32        2965.75           1439       42565.00    186485.40
  179.35        2966.00           1442       44756.00    196135.80
  179.38        2966.25           1445       47285.00    207281.10
  179.41        2966.50           1449       49993.00    219222.70
  179.44        2966.75           1452       51395.00    225408.20
  179.47        2967.00           1455       52185.00    228894.60
  179.50        2967.25           1459       52222.00    229057.90
  179.53        2967.50           1462       52144.00    228713.60
  179.56        2967.75           1465       52220.00    229049.00
  179.59        2968.00           1469       51458.00    225686.20
  179.62        2968.25           1472       50341.00    220757.80
  179.65        2968.50           1475       48014.00    210495.00
  179.68        2968.75           1479       44708.00    195924.30
  179.70        2969.00           1482       42618.00    186718.80
  179.73        2969.25           1485       40028.00    175317.40
  179.77        2969.50           1489       36855.00    161359.30
  179.79        2969.75           1492       34247.00    149894.40
  179.82        2970.00           1495       32182.00    140821.70
  179.85        2970.25           1499       29267.00    128022.00
  179.88        2970.50           1502       26976.00    117968.50
  179.91        2970.75           1505       24367.00    106526.10
  179.94        2971.00           1509       20448.00     89351.75
  179.97        2971.25           1512       18079.00     78977.75
  180.00        2971.50           1515       16017.00     69952.85
  180.03        2971.75           1519       12991.00     56716.70
  180.06        2972.00           1522       10552.00     46055.06
  180.09        2972.25           1525        8105.00     35364.62
  180.12        2972.50           1529        5005.00     21830.21
  180.15        2972.75           1532        2825.00     12318.39
  180.18        2973.00           1535        1468.00      6399.97
  180.21        2973.25           1539         494.00      2153.13
  180.24        2973.50           1542         209.00       910.66
  180.27        2973.75           1546         152.00       662.17
  180.30        2974.00           1549         148.00       644.74
  180.33        2974.25           1552         141.00       614.22
  180.36        2974.50           1556         142.00       618.58
  180.39        2974.75           1559         135.00       588.07
  180.42        2975.00           1562         110.00       479.08
  180.45        2975.25           1566         110.00       479.08
  180.48        2975.50           1569         111.00       483.44
  180.51        2975.75           1572         105.00       457.29
  180.54        2976.00           1576         106.00       461.64
  180.57        2976.25           1579         112.00       487.80
  180.60        2976.50           1582         114.00       496.52
  180.63        2976.75           1586         112.00       487.80
  180.66        2977.00           1589         102.00       444.21
  180.69        2977.25           1592         112.00       487.80
  180.72        2977.50           1596         112.00       487.80
  180.75        2977.75           1599         110.00       479.08
  180.78        2978.00           1602         112.00       487.80
  180.81        2978.25           1606         102.00       444.21
  180.84        2978.50           1609         107.00       466.00
  180.87        2978.75           1612         111.00       483.44
  180.90        2979.00           1616          98.00       426.77
  180.93        2979.25           1619         108.00       470.36
  180.96        2979.50           1622         111.00       483.44
  180.99        2979.75           1626         108.00       470.36
  181.02        2980.00           1629         111.00       483.44
  181.05        2980.25           1632         105.00       457.29
  181.08        2980.50           1636         108.00       470.36
  181.11        2980.75           1639         108.00       470.36
  181.14        2981.00           1642         103.00       448.57
  181.17        2981.25           1646         122.00       531.39
  181.20        2981.50           1649         105.00       457.29
  181.23        2981.75           1653         112.00       487.80
  181.26        2982.00           1656         116.00       505.24
  181.29        2982.25           1659         101.00       439.85
