************************************************************
  HS Scan of (1) Internal mercury lamp
************************************************************
Integration time is 0.2294 seconds per sample
dh280418Delft 51.9969-4.3863 2.589593pr1000
************************************************************
Dead Time -------------------------  2.7E-08 
Number of Cycles Used -------------  4 
Starting Wavelength (Angstroms) ---  2950 
Final Wavelength (Angstoms) -------  2984 
Wavelength Increment (Angstroms) --  .25 
Filter Wheel #1 Position ---------- (1) Ground quartz diffuser (ND=2.32)
Filter Wheel #2 Position ---------- (1) Neutral Density 0.494



************************************************************
HS scan start time = 00:31:37
Dark Count =  0 


Time (GMT)  Wavelength (Ang)  Step Number  Raw Counts  Counts/Second

   32.07        2950.00           1229         130.00       566.70
   32.17        2950.25           1232         119.00       518.75
   32.20        2950.50           1236         120.00       523.11
   32.23        2950.75           1239         123.00       536.19
   32.26        2951.00           1242         123.00       536.19
   32.29        2951.25           1246         122.00       531.83
   32.32        2951.50           1249         124.00       540.55
   32.35        2951.75           1252         126.00       549.27
   32.38        2952.00           1256         115.00       501.31
   32.41        2952.25           1259         123.00       536.19
   32.44        2952.50           1262         123.00       536.19
   32.47        2952.75           1266         119.00       518.75
   32.50        2953.00           1269         122.00       531.83
   32.53        2953.25           1272         124.00       540.55
   32.56        2953.50           1276         120.00       523.11
   32.59        2953.75           1279         122.00       531.83
   32.62        2954.00           1282         121.00       527.47
   32.65        2954.25           1286         131.00       571.06
   32.68        2954.50           1289         125.00       544.91
   32.71        2954.75           1292         118.00       514.39
   32.73        2955.00           1296         110.00       479.52
   32.76        2955.25           1299         127.00       553.63
   32.79        2955.50           1302         120.00       523.11
   32.82        2955.75           1306         119.00       518.75
   32.85        2956.00           1309         129.00       562.35
   32.88        2956.25           1312         118.00       514.39
   32.91        2956.50           1316         119.00       518.75
   32.94        2956.75           1319         123.00       536.19
   32.97        2957.00           1322         124.00       540.55
   33.00        2957.25           1326         122.00       531.83
   33.03        2957.50           1329         116.00       505.67
   33.06        2957.75           1332         125.00       544.91
   33.09        2958.00           1336         118.00       514.39
   33.12        2958.25           1339         119.00       518.75
   33.15        2958.50           1342         121.00       527.47
   33.18        2958.75           1345         132.00       575.42
   33.21        2959.00           1349         120.00       523.11
   33.24        2959.25           1352         116.00       505.67
   33.27        2959.50           1355         111.00       483.88
   33.30        2959.75           1359         123.00       536.19
   33.33        2960.00           1362         125.00       544.91
   33.36        2960.25           1365         118.00       514.39
   33.39        2960.50           1369         121.00       527.47
   33.42        2960.75           1372         132.00       575.42
   33.45        2961.00           1375         140.00       610.30
   33.48        2961.25           1379         145.00       632.09
   33.51        2961.50           1382         216.00       941.61
   33.54        2961.75           1385         731.00      3186.85
   33.57        2962.00           1389        2376.00     10360.35
   33.60        2962.25           1392        3940.00     17183.21
   33.63        2962.50           1395        5928.00     25859.38
   33.66        2962.75           1399        9294.00     40558.78
   33.69        2963.00           1402       12198.00     53250.00
   33.72        2963.25           1405       15000.00     65503.72
   33.75        2963.50           1409       18125.00     79179.56
   33.78        2963.75           1412       20434.00     89290.86
   33.81        2964.00           1415       23030.00    100665.60
   33.84        2964.25           1419       26697.00    116744.90
   33.87        2964.50           1422       29324.00    128272.60
   33.90        2964.75           1425       32017.00    140097.40
   33.93        2965.00           1429       34683.00    151811.10
   33.96        2965.25           1432       37236.00    163035.20
   33.99        2965.50           1435       40115.00    175700.80
   34.02        2965.75           1439       43143.00    189031.20
   34.05        2966.00           1442       45454.00    199211.60
   34.08        2966.25           1445       48174.00    211200.90
   34.11        2966.50           1449       51441.00    225611.60
   34.14        2966.75           1452       52217.00    229036.30
   34.17        2967.00           1455       52850.00    231830.20
   34.20        2967.25           1459       52982.00    232412.90
   34.23        2967.50           1462       52693.00    231137.20
   34.26        2967.75           1465       52707.00    231199.00
   34.29        2968.00           1469       51776.00    227090.00
   34.32        2968.25           1472       50316.00    220648.00
   34.35        2968.50           1475       48099.00    210870.30
   34.38        2968.75           1479       44976.00    197105.50
   34.41        2969.00           1482       42688.00    187027.50
   34.44        2969.25           1485       40514.00    177456.80
   34.47        2969.50           1489       37373.00    163637.70
   34.50        2969.75           1492       34846.00    152527.50
   34.53        2970.00           1495       32524.00    142324.40
   34.56        2970.25           1499       29086.00    127227.90
   34.59        2970.50           1502       26969.00    117938.20
   34.62        2970.75           1505       24510.00    107153.50
   34.65        2971.00           1509       21592.00     94363.92
   34.68        2971.25           1512       19068.00     83308.37
   34.71        2971.50           1515       16214.00     70815.31
   34.74        2971.75           1519       13119.00     57276.83
   34.77        2972.00           1522       10538.00     45994.32
   34.80        2972.25           1525        8233.00     35924.10
   34.83        2972.50           1529        5249.00     22895.58
   34.86        2972.75           1532        2933.00     12789.94
   34.89        2973.00           1535        1342.00      5850.97
   34.92        2973.25           1539         474.00      2066.38
   34.94        2973.50           1542         230.00      1002.64
   34.97        2973.75           1546         158.00       688.77
   35.00        2974.00           1549         131.00       571.06
   35.03        2974.25           1552         127.00       553.63
   35.06        2974.50           1556         136.00       592.86
   35.09        2974.75           1559         123.00       536.19
   35.12        2975.00           1562         118.00       514.39
   35.15        2975.25           1566         107.00       466.44
   35.18        2975.50           1569         105.00       457.72
   35.21        2975.75           1572         117.00       510.03
   35.24        2976.00           1576         112.00       488.24
   35.27        2976.25           1579         103.00       449.00
   35.30        2976.50           1582         110.00       479.52
   35.33        2976.75           1586         112.00       488.24
   35.36        2977.00           1589         100.00       435.92
   35.39        2977.25           1592         108.00       470.80
   35.42        2977.50           1596         118.00       514.39
   35.45        2977.75           1599         118.00       514.39
   35.48        2978.00           1602         104.00       453.36
   35.51        2978.25           1606         108.00       470.80
   35.54        2978.50           1609         103.00       449.00
   35.57        2978.75           1612         105.00       457.72
   35.60        2979.00           1616         117.00       510.03
   35.63        2979.25           1619         104.00       453.36
   35.66        2979.50           1622         113.00       492.60
   35.69        2979.75           1626         113.00       492.60
   35.72        2980.00           1629         111.00       483.88
   35.75        2980.25           1632          97.00       422.85
   35.78        2980.50           1636         106.00       462.08
   35.81        2980.75           1639         106.00       462.08
   35.84        2981.00           1642         100.00       435.92
   35.87        2981.25           1646         107.00       466.44
   35.90        2981.50           1649         106.00       462.08
   35.93        2981.75           1653          99.00       431.57
   35.96        2982.00           1656         103.00       449.00
   35.99        2982.25           1659         105.00       457.72
   36.02        2982.50           1663         105.00       457.72
   36.05        2982.75           1666         106.00       462.08
   36.08        2983.00           1669         112.00       488.24
   36.11        2983.25           1673         104.00       453.36
   36.14        2983.50           1676         113.00       492.60
   36.17        2983.75           1679          96.00       418.49
   36.20        2984.00           1683         100.00       435.92
HS scan finished at 00:36:30
end
************************************************************
  HS Scan of (1) Internal mercury lamp
************************************************************
Integration time is 0.2294 seconds per sample
dh280418Delft 51.9969-4.3863 2.696889pr1000
************************************************************
Dead Time -------------------------  2.7E-08 
Number of Cycles Used -------------  4 
Starting Wavelength (Angstroms) ---  2950 
Final Wavelength (Angstoms) -------  2984 
Wavelength Increment (Angstroms) --  .25 
Filter Wheel #1 Position ---------- (1) Ground quartz diffuser (ND=2.32)
Filter Wheel #2 Position ---------- (1) Neutral Density 0.494



************************************************************
HS scan start time = 02:28:34
Dark Count =  0 


Time (GMT)  Wavelength (Ang)  Step Number  Raw Counts  Counts/Second

  149.02        2950.00           1229         124.00       540.55
  149.12        2950.25           1232         131.00       571.06
  149.15        2950.50           1236         124.00       540.55
  149.18        2950.75           1239         126.00       549.27
  149.21        2951.00           1242         121.00       527.47
  149.24        2951.25           1246         126.00       549.27
  149.27        2951.50           1249         122.00       531.83
  149.30        2951.75           1252         109.00       475.16
  149.33        2952.00           1256         112.00       488.24
  149.36        2952.25           1259         123.00       536.19
  149.39        2952.50           1262         124.00       540.55
  149.42        2952.75           1266         123.00       536.19
  149.45        2953.00           1269         113.00       492.60
  149.48        2953.25           1272         123.00       536.19
  149.51        2953.50           1276         123.00       536.19
  149.54        2953.75           1279         129.00       562.35
  149.56        2954.00           1282         118.00       514.39
  149.59        2954.25           1286         124.00       540.55
  149.62        2954.50           1289         112.00       488.24
  149.65        2954.75           1292         112.00       488.24
  149.68        2955.00           1296         101.00       440.28
  149.71        2955.25           1299         124.00       540.55
  149.74        2955.50           1302         127.00       553.63
  149.77        2955.75           1306         115.00       501.31
  149.80        2956.00           1309         118.00       514.39
  149.83        2956.25           1312         122.00       531.83
  149.86        2956.50           1316         110.00       479.52
  149.89        2956.75           1319         111.00       483.88
  149.92        2957.00           1322         120.00       523.11
  149.95        2957.25           1326         111.00       483.88
  149.98        2957.50           1329         118.00       514.39
  150.01        2957.75           1332         111.00       483.88
  150.04        2958.00           1336         121.00       527.47
  150.07        2958.25           1339         102.00       444.64
  150.10        2958.50           1342         112.00       488.24
  150.13        2958.75           1345         108.00       470.80
  150.16        2959.00           1349         106.00       462.08
  150.19        2959.25           1352         124.00       540.55
  150.22        2959.50           1355         115.00       501.31
  150.25        2959.75           1359         118.00       514.39
  150.28        2960.00           1362         115.00       501.31
  150.31        2960.25           1365         119.00       518.75
  150.34        2960.50           1369         122.00       531.83
  150.37        2960.75           1372         132.00       575.42
  150.40        2961.00           1375         142.00       619.02
  150.43        2961.25           1379         137.00       597.22
  150.46        2961.50           1382         216.00       941.61
  150.49        2961.75           1385         561.00      2445.67
  150.52        2962.00           1389        2309.00     10068.13
  150.55        2962.25           1392        4547.00     19831.89
  150.58        2962.50           1395        6623.00     28893.50
  150.61        2962.75           1399        9739.00     42502.98
  150.64        2963.00           1402       12548.00     54780.18
  150.67        2963.25           1405       15268.00     66676.16
  150.70        2963.50           1409       19035.00     83163.86
  150.73        2963.75           1412       21721.00     94929.14
  150.76        2964.00           1415       24538.00    107276.30
  150.79        2964.25           1419       27547.00    120474.10
  150.82        2964.50           1422       30340.00    132732.90
  150.85        2964.75           1425       33368.00    146032.40
  150.88        2965.00           1429       36497.00    159785.50
  150.91        2965.25           1432       39416.00    172624.90
  150.94        2965.50           1435       41945.00    183756.00
  150.97        2965.75           1439       45691.00    200255.90
  151.00        2966.00           1442       48150.00    211095.10
  151.03        2966.25           1445       50660.00    222165.60
  151.06        2966.50           1449       53392.00    234222.90
  151.09        2966.75           1452       54614.00    239618.50
  151.12        2967.00           1455       55058.00    241579.30
  151.15        2967.25           1459       55273.00    242528.90
  151.18        2967.50           1462       55130.00    241897.30
  151.21        2967.75           1465       55080.00    241676.50
  151.24        2968.00           1469       53852.00    236253.80
  151.27        2968.25           1472       52361.00    229671.80
  151.30        2968.50           1475       50083.00    219620.20
  151.33        2968.75           1479       47110.00    206510.10
  151.36        2969.00           1482       44803.00    196343.30
  151.39        2969.25           1485       42085.00    184372.40
  151.42        2969.50           1489       39057.00    171045.30
  151.45        2969.75           1492       36613.00    160295.60
  151.48        2970.00           1495       34344.00    150321.20
  151.51        2970.25           1499       30730.00    134445.30
  151.54        2970.50           1502       27836.00    121742.20
  151.57        2970.75           1505       25302.00    110626.40
  151.60        2971.00           1509       21449.00     93737.38
  151.63        2971.25           1512       19053.00     83242.68
  151.65        2971.50           1515       16763.00     73217.84
  151.68        2971.75           1519       13477.00     58842.32
  151.71        2972.00           1522       10644.00     46457.55
  151.74        2972.25           1525        8297.00     36203.64
  151.77        2972.50           1529        5762.00     25134.75
  151.80        2972.75           1532        3470.00     15132.60
  151.83        2973.00           1535        1614.00      7037.08
  151.86        2973.25           1539         466.00      2031.50
  151.89        2973.50           1542         181.00       789.03
  151.92        2973.75           1546         143.00       623.38
  151.95        2974.00           1549         139.00       605.94
  151.98        2974.25           1552         124.00       540.55
  152.01        2974.50           1556         124.00       540.55
  152.04        2974.75           1559         120.00       523.11
  152.07        2975.00           1562         126.00       549.27
  152.10        2975.25           1566         107.00       466.44
  152.13        2975.50           1569         115.00       501.31
  152.16        2975.75           1572         115.00       501.31
  152.19        2976.00           1576         112.00       488.24
  152.22        2976.25           1579         109.00       475.16
  152.25        2976.50           1582         110.00       479.52
  152.28        2976.75           1586         105.00       457.72
  152.31        2977.00           1589         107.00       466.44
  152.34        2977.25           1592         105.00       457.72
  152.37        2977.50           1596         106.00       462.08
  152.40        2977.75           1599          97.00       422.85
  152.43        2978.00           1602         113.00       492.60
  152.46        2978.25           1606         108.00       470.80
  152.49        2978.50           1609         110.00       479.52
  152.52        2978.75           1612         109.00       475.16
  152.55        2979.00           1616         103.00       449.00
  152.58        2979.25           1619         101.00       440.28
  152.61        2979.50           1622         105.00       457.72
  152.64        2979.75           1626         103.00       449.00
  152.67        2980.00           1629         108.00       470.80
  152.70        2980.25           1632         110.00       479.52
  152.73        2980.50           1636          99.00       431.57
  152.76        2980.75           1639         106.00       462.08
  152.79        2981.00           1642         103.00       449.00
  152.82        2981.25           1646         103.00       449.00
  152.85        2981.50           1649         107.00       466.44
  152.88        2981.75           1653         103.00       449.00
  152.91        2982.00           1656         103.00       449.00
  152.94        2982.25           1659          99.00       431.57
