************************************************************
  HS Scan of (1) Internal mercury lamp
************************************************************
Integration time is 0.2294 seconds per sample
dh040517De Bilt 52.1-5.183 2.589593pr1000
************************************************************
Dead Time -------------------------  3E-08 
Number of Cycles Used -------------  4 
Starting Wavelength (Angstroms) ---  2950 
Final Wavelength (Angstoms) -------  2984 
Wavelength Increment (Angstroms) --  .25 
Filter Wheel #1 Position ---------- (1) Ground quartz diffuser (ND=2.32)
Filter Wheel #2 Position ---------- (1) Neutral Density 0.494



************************************************************
HS scan start time = 01:05:22
Dark Count =  0 


Time (GMT)  Wavelength (Ang)  Step Number  Raw Counts  Counts/Second

   65.81        2950.00           1229         126.00       549.27
   65.91        2950.25           1232         126.00       549.27
   65.93        2950.50           1236         116.00       505.67
   65.96        2950.75           1239         124.00       540.55
   65.99        2951.00           1242         131.00       571.06
   66.02        2951.25           1246         128.00       557.99
   66.04        2951.50           1249         121.00       527.47
   66.07        2951.75           1252         133.00       579.78
   66.10        2952.00           1255         136.00       592.86
   66.13        2952.25           1259         131.00       571.06
   66.16        2952.50           1262         122.00       531.83
   66.19        2952.75           1265         137.00       597.22
   66.21        2953.00           1269         128.00       557.99
   66.24        2953.25           1272         132.00       575.42
   66.27        2953.50           1275         126.00       549.27
   66.30        2953.75           1279         113.00       492.60
   66.32        2954.00           1282         130.00       566.71
   66.35        2954.25           1285         127.00       553.63
   66.38        2954.50           1289         121.00       527.47
   66.41        2954.75           1292         121.00       527.47
   66.44        2955.00           1295         127.00       553.63
   66.46        2955.25           1299         126.00       549.27
   66.49        2955.50           1302         111.00       483.88
   66.52        2955.75           1305         127.00       553.63
   66.55        2956.00           1309         119.00       518.75
   66.57        2956.25           1312         120.00       523.11
   66.60        2956.50           1315         121.00       527.47
   66.63        2956.75           1319         120.00       523.11
   66.66        2957.00           1322         120.00       523.11
   66.68        2957.25           1325         122.00       531.83
   66.71        2957.50           1329         121.00       527.47
   66.74        2957.75           1332         114.00       496.96
   66.77        2958.00           1335         123.00       536.19
   66.79        2958.25           1339         128.00       557.99
   66.82        2958.50           1342         115.00       501.32
   66.85        2958.75           1345         113.00       492.60
   66.88        2959.00           1349         110.00       479.52
   66.91        2959.25           1352         125.00       544.91
   66.93        2959.50           1355         118.00       514.39
   66.96        2959.75           1359         117.00       510.03
   66.99        2960.00           1362         132.00       575.42
   67.02        2960.25           1365         126.00       549.27
   67.04        2960.50           1369         133.00       579.78
   67.07        2960.75           1372         134.00       584.14
   67.10        2961.00           1375         144.00       627.74
   67.13        2961.25           1379         177.00       771.60
   67.15        2961.50           1382         292.00      1272.93
   67.18        2961.75           1385        1064.00      4638.83
   67.21        2962.00           1389        3031.00     13217.97
   67.24        2962.25           1392        5018.00     21888.82
   67.27        2962.50           1395        7371.00     32162.67
   67.29        2962.75           1399       11072.00     48335.08
   67.32        2963.00           1402       13797.00     60252.67
   67.35        2963.25           1405       17079.00     74617.59
   67.38        2963.50           1409       20989.00     91747.39
   67.40        2963.75           1412       23893.00    104481.30
   67.43        2964.00           1415       26580.00    116272.40
   67.46        2964.25           1419       30186.00    132109.30
   67.49        2964.50           1422       33016.00    144548.80
   67.51        2964.75           1425       35484.00    155404.60
   67.54        2965.00           1429       38481.00    168596.90
   67.57        2965.25           1432       40866.00    179102.70
   67.60        2965.50           1435       43805.00    192058.10
   67.63        2965.75           1439       47636.00    208960.60
   67.65        2966.00           1442       50147.00    220048.60
   67.68        2966.25           1445       52689.00    231281.00
   67.71        2966.50           1449       55493.00    243679.90
   67.74        2966.75           1452       56705.00    249042.10
   67.76        2967.00           1455       57077.00    250688.20
   67.79        2967.25           1459       57236.00    251391.90
   67.82        2967.50           1462       57326.00    251790.20
   67.85        2967.75           1465       57283.00    251599.90
   67.88        2968.00           1469       56022.00    246020.10
   67.90        2968.25           1472       54511.00    239336.60
   67.93        2968.50           1475       52733.00    231475.50
   67.96        2968.75           1479       48608.00    213251.80
   67.99        2969.00           1482       45811.00    200906.50
   68.01        2969.25           1485       43224.00    189496.20
   68.04        2969.50           1489       40042.00    175472.30
   68.07        2969.75           1492       37233.00    163102.10
   68.10        2970.00           1495       34767.00    152250.10
   68.13        2970.25           1499       31144.00    136319.20
   68.16        2970.50           1502       28615.00    125207.90
   68.19        2970.75           1505       25951.00    113511.40
   68.22        2971.00           1509       22486.00     98310.44
   68.25        2971.25           1512       19535.00     85375.32
   68.28        2971.50           1515       16694.00     72931.85
   68.30        2971.75           1519       13212.00     57693.50
   68.33        2972.00           1522       10696.00     46691.34
   68.36        2972.25           1525        8304.00     36238.16
   68.39        2972.50           1529        5058.00     22063.42
   68.41        2972.75           1532        2598.00     11329.05
   68.44        2973.00           1536         786.00      3426.68
   68.47        2973.25           1539         320.00      1395.00
   68.50        2973.50           1542         189.00       823.91
   68.52        2973.75           1546         148.00       645.17
   68.55        2974.00           1549         141.00       614.66
   68.58        2974.25           1552         130.00       566.71
   68.61        2974.50           1556         131.00       571.06
   68.63        2974.75           1559         120.00       523.11
   68.66        2975.00           1562         111.00       483.88
   68.69        2975.25           1566         107.00       466.44
   68.72        2975.50           1569         111.00       483.88
   68.75        2975.75           1572         114.00       496.96
   68.77        2976.00           1576         114.00       496.96
   68.80        2976.25           1579         112.00       488.24
   68.83        2976.50           1582         115.00       501.32
   68.86        2976.75           1586         107.00       466.44
   68.88        2977.00           1589         102.00       444.64
   68.91        2977.25           1592         114.00       496.96
   68.94        2977.50           1596         110.00       479.52
   68.97        2977.75           1599         108.00       470.80
   68.99        2978.00           1602         105.00       457.72
   69.02        2978.25           1606         105.00       457.72
   69.05        2978.50           1609         111.00       483.88
   69.08        2978.75           1612         107.00       466.44
   69.10        2979.00           1616         110.00       479.52
   69.13        2979.25           1619         111.00       483.88
   69.16        2979.50           1623         112.00       488.24
   69.19        2979.75           1626         106.00       462.08
   69.21        2980.00           1629         103.00       449.00
   69.24        2980.25           1633         105.00       457.72
   69.27        2980.50           1636         120.00       523.11
   69.30        2980.75           1639         102.00       444.64
   69.33        2981.00           1643         103.00       449.00
   69.36        2981.25           1646         105.00       457.72
   69.39        2981.50           1649         101.00       440.28
   69.41        2981.75           1653         110.00       479.52
   69.44        2982.00           1656          99.00       431.57
   69.47        2982.25           1659         111.00       483.88
   69.50        2982.50           1663         106.00       462.08
   69.52        2982.75           1666         104.00       453.36
   69.55        2983.00           1669         111.00       483.88
   69.58        2983.25           1673          96.00       418.49
   69.61        2983.50           1676         112.00       488.24
   69.63        2983.75           1679         105.00       457.72
   69.66        2984.00           1683         104.00       453.36
HS scan finished at 01:09:58
end
************************************************************
  HS Scan of (1) Internal mercury lamp
************************************************************
Integration time is 0.2294 seconds per sample
dh040517De Bilt 52.1-5.183 2.589593pr1000
************************************************************
Dead Time -------------------------  3E-08 
Number of Cycles Used -------------  4 
Starting Wavelength (Angstroms) ---  2950 
Final Wavelength (Angstoms) -------  2984 
Wavelength Increment (Angstroms) --  .25 
Filter Wheel #1 Position ---------- (1) Ground quartz diffuser (ND=2.32)
Filter Wheel #2 Position ---------- (1) Neutral Density 0.494



************************************************************
HS scan start time = 01:31:39
Dark Count =  0 


Time (GMT)  Wavelength (Ang)  Step Number  Raw Counts  Counts/Second

   92.10        2950.00           1229         125.00       544.91
   92.20        2950.25           1232         128.00       557.99
   92.24        2950.50           1236         126.00       549.27
   92.27        2950.75           1239         129.00       562.35
   92.30        2951.00           1242         129.00       562.35
   92.32        2951.25           1246         129.00       562.35
   92.35        2951.50           1249         125.00       544.91
   92.38        2951.75           1252         111.00       483.88
   92.41        2952.00           1255         122.00       531.83
   92.43        2952.25           1259         126.00       549.27
   92.46        2952.50           1262         125.00       544.91
   92.49        2952.75           1265         120.00       523.11
   92.52        2953.00           1269         124.00       540.55
   92.54        2953.25           1272         133.00       579.78
   92.57        2953.50           1275         117.00       510.03
   92.60        2953.75           1279         119.00       518.75
   92.63        2954.00           1282         128.00       557.99
   92.66        2954.25           1285         129.00       562.35
   92.68        2954.50           1289         124.00       540.55
   92.72        2954.75           1292         123.00       536.19
   92.75        2955.00           1295         127.00       553.63
   92.78        2955.25           1299         120.00       523.11
   92.80        2955.50           1302         119.00       518.75
   92.83        2955.75           1305         128.00       557.99
   92.86        2956.00           1309         128.00       557.99
   92.89        2956.25           1312         125.00       544.91
   92.91        2956.50           1315         136.00       592.86
   92.94        2956.75           1319         126.00       549.27
   92.98        2957.00           1322         118.00       514.39
   93.00        2957.25           1325         124.00       540.55
   93.03        2957.50           1329         122.00       531.83
   93.06        2957.75           1332         120.00       523.11
   93.09        2958.00           1335         121.00       527.47
   93.12        2958.25           1339         128.00       557.99
   93.15        2958.50           1342         121.00       527.47
   93.17        2958.75           1345         135.00       588.50
   93.20        2959.00           1349         121.00       527.47
   93.23        2959.25           1352         130.00       566.71
   93.26        2959.50           1355         119.00       518.75
   93.29        2959.75           1359         120.00       523.11
   93.31        2960.00           1362         127.00       553.63
   93.34        2960.25           1365         125.00       544.91
   93.37        2960.50           1369         129.00       562.35
   93.40        2960.75           1372         131.00       571.06
   93.42        2961.00           1375         139.00       605.94
   93.45        2961.25           1379         154.00       671.33
   93.48        2961.50           1382         181.00       789.03
   93.51        2961.75           1385         521.00      2271.30
   93.54        2962.00           1389        2066.00      9008.54
   93.57        2962.25           1392        3787.00     16516.47
   93.59        2962.50           1395        5805.00     25324.38
   93.62        2962.75           1399        8511.00     37142.50
   93.65        2963.00           1402       11050.00     48238.90
   93.68        2963.25           1405       13210.00     57684.74
   93.71        2963.50           1409       16564.00     72362.68
   93.73        2963.75           1412       18832.00     82295.35
   93.76        2964.00           1415       20709.00     90520.12
   93.79        2964.25           1419       23344.00    102073.20
   93.82        2964.50           1422       25526.00    111646.20
   93.84        2964.75           1425       27795.00    121606.70
   93.87        2965.00           1429       30621.00    134020.80
   93.90        2965.25           1432       32736.00    143317.60
   93.93        2965.50           1435       34553.00    151308.70
   93.96        2965.75           1439       37581.00    164634.10
   93.98        2966.00           1442       39522.00    173181.60
   94.01        2966.25           1445       41913.00    183716.80
   94.04        2966.50           1449       44447.00    194889.40
   94.07        2966.75           1452       45285.00    198585.90
   94.09        2967.00           1455       45972.00    201616.90
   94.12        2967.25           1459       46406.00    203531.90
   94.15        2967.50           1462       46198.00    202614.10
   94.18        2967.75           1465       46328.00    203187.70
   94.21        2968.00           1469       45307.00    198682.90
   94.23        2968.25           1472       43965.00    192763.70
   94.26        2968.50           1475       42194.00    184955.40
   94.29        2968.75           1479       39629.00    173653.00
   94.32        2969.00           1482       37516.00    164348.00
   94.35        2969.25           1485       35513.00    155532.20
   94.37        2969.50           1489       32841.00    143779.30
   94.40        2969.75           1492       30940.00    135422.70
   94.43        2970.00           1495       29080.00    127250.30
   94.46        2970.25           1499       26083.00    114090.80
   94.48        2970.50           1502       23336.00    102038.10
   94.51        2970.75           1505       21052.00     92023.53
   94.54        2971.00           1509       18365.00     80249.65
   94.57        2971.25           1512       16300.00     71206.88
   94.60        2971.50           1515       14439.00     63061.65
   94.62        2971.75           1519       11521.00     50298.17
   94.65        2972.00           1522        9305.00     40611.79
   94.68        2972.25           1525        7353.00     32084.05
   94.71        2972.50           1529        4791.00     20898.02
   94.74        2972.75           1532        3008.00     13117.63
   94.76        2973.00           1536        1187.00      5175.17
   94.79        2973.25           1539         421.00      1835.32
   94.82        2973.50           1542         184.00       802.11
   94.85        2973.75           1546         140.00       610.30
   94.87        2974.00           1549         125.00       544.91
   94.90        2974.25           1552         128.00       557.99
   94.93        2974.50           1556         120.00       523.11
   94.96        2974.75           1559         120.00       523.11
   94.98        2975.00           1562         103.00       449.00
   95.01        2975.25           1566         116.00       505.67
   95.04        2975.50           1569         122.00       531.83
   95.07        2975.75           1572         124.00       540.55
   95.10        2976.00           1576         108.00       470.80
   95.13        2976.25           1579         100.00       435.93
   95.15        2976.50           1582         120.00       523.11
   95.18        2976.75           1586         104.00       453.36
   95.21        2977.00           1589         112.00       488.24
   95.24        2977.25           1592         109.00       475.16
   95.26        2977.50           1596          95.00       414.13
   95.29        2977.75           1599          98.00       427.21
   95.32        2978.00           1602         107.00       466.44
   95.35        2978.25           1606         110.00       479.52
   95.38        2978.50           1609         111.00       483.88
   95.40        2978.75           1612         113.00       492.60
   95.43        2979.00           1616         102.00       444.64
   95.46        2979.25           1619         104.00       453.36
   95.49        2979.50           1623         109.00       475.16
   95.52        2979.75           1626         113.00       492.60
   95.55        2980.00           1629         108.00       470.80
   95.57        2980.25           1633         103.00       449.00
   95.60        2980.50           1636         106.00       462.08
   95.63        2980.75           1639         103.00       449.00
   95.66        2981.00           1643         117.00       510.03
   95.69        2981.25           1646         112.00       488.24
   95.72        2981.50           1649         106.00       462.08
   95.75        2981.75           1653         105.00       457.72
   95.77        2982.00           1656          93.00       405.41
   95.80        2982.25           1659          95.00       414.13
