************************************************************
  HS Scan of (1) Internal mercury lamp
************************************************************
Integration time is 0.2294 seconds per sample
dh050517De Bilt 52.1-5.183 2.375pr1000
************************************************************
Dead Time -------------------------  3E-08 
Number of Cycles Used -------------  4 
Starting Wavelength (Angstroms) ---  2950 
Final Wavelength (Angstoms) -------  2984 
Wavelength Increment (Angstroms) --  .25 
Filter Wheel #1 Position ---------- (1) Ground quartz diffuser (ND=2.32)
Filter Wheel #2 Position ---------- (1) Neutral Density 0.494



************************************************************
HS scan start time = 00:14:35
Dark Count =  0 


Time (GMT)  Wavelength (Ang)  Step Number  Raw Counts  Counts/Second

   15.02        2950.00           1229         144.00       627.74
   15.12        2950.25           1232         137.00       597.22
   15.15        2950.50           1236         125.00       544.91
   15.18        2950.75           1239         132.00       575.42
   15.21        2951.00           1242         129.00       562.35
   15.23        2951.25           1246         132.00       575.42
   15.26        2951.50           1249         127.00       553.63
   15.29        2951.75           1252         147.00       640.81
   15.32        2952.00           1255         135.00       588.50
   15.35        2952.25           1259         128.00       557.99
   15.38        2952.50           1262         128.00       557.99
   15.41        2952.75           1265         132.00       575.42
   15.43        2953.00           1269         131.00       571.06
   15.46        2953.25           1272         136.00       592.86
   15.49        2953.50           1275         129.00       562.35
   15.52        2953.75           1279         134.00       584.14
   15.55        2954.00           1282         132.00       575.42
   15.59        2954.25           1285         135.00       588.50
   15.62        2954.50           1289         128.00       557.99
   15.64        2954.75           1292         118.00       514.39
   15.67        2955.00           1295         126.00       549.27
   15.70        2955.25           1299         124.00       540.55
   15.73        2955.50           1302         113.00       492.60
   15.75        2955.75           1305         132.00       575.42
   15.78        2956.00           1309         123.00       536.19
   15.81        2956.25           1312         129.00       562.35
   15.84        2956.50           1315         120.00       523.11
   15.87        2956.75           1319         121.00       527.47
   15.89        2957.00           1322         129.00       562.35
   15.92        2957.25           1325         127.00       553.63
   15.95        2957.50           1329         119.00       518.75
   15.98        2957.75           1332         131.00       571.06
   16.01        2958.00           1335         124.00       540.55
   16.03        2958.25           1339         124.00       540.55
   16.06        2958.50           1342         127.00       553.63
   16.09        2958.75           1345         132.00       575.42
   16.12        2959.00           1349         125.00       544.91
   16.14        2959.25           1352         122.00       531.83
   16.17        2959.50           1355         134.00       584.14
   16.20        2959.75           1359         132.00       575.42
   16.23        2960.00           1362         126.00       549.27
   16.25        2960.25           1365         131.00       571.06
   16.28        2960.50           1369         127.00       553.63
   16.32        2960.75           1372         140.00       610.30
   16.34        2961.00           1375         141.00       614.66
   16.37        2961.25           1379         175.00       762.88
   16.40        2961.50           1382         208.00       906.74
   16.43        2961.75           1385         688.00      2999.40
   16.45        2962.00           1389        2457.00     10713.99
   16.48        2962.25           1392        4484.00     19558.12
   16.51        2962.50           1395        6347.00     27690.83
   16.54        2962.75           1399        8903.00     38855.21
   16.56        2963.00           1402       11756.00     51325.70
   16.59        2963.25           1405       14257.00     62265.29
   16.62        2963.50           1409       17600.00     76899.09
   16.65        2963.75           1412       20041.00     87592.56
   16.67        2964.00           1415       22078.00     96521.47
   16.70        2964.25           1419       25244.00    110408.70
   16.73        2964.50           1422       27801.00    121633.10
   16.76        2964.75           1425       30070.00    131599.60
   16.79        2965.00           1429       33329.00    145925.10
   16.81        2965.25           1432       35990.00    157631.20
   16.84        2965.50           1435       38316.00    167870.30
   16.87        2965.75           1439       41503.00    181909.80
   16.90        2966.00           1442       43769.00    191899.30
   16.93        2966.25           1445       45977.00    201638.90
   16.96        2966.50           1449       48322.00    211989.10
   16.99        2966.75           1452       49242.00    216051.50
   17.02        2967.00           1455       49636.00    217791.50
   17.05        2967.25           1459       49639.00    217804.80
   17.08        2967.50           1462       49721.00    218167.00
   17.10        2967.75           1465       49649.00    217849.00
   17.13        2968.00           1469       48328.00    212015.60
   17.16        2968.25           1472       46921.00    205804.70
   17.19        2968.50           1475       45105.00    197791.80
   17.21        2968.75           1479       41969.00    183963.70
   17.24        2969.00           1482       40082.00    175648.50
   17.27        2969.25           1485       37666.00    165008.40
   17.30        2969.50           1489       35085.00    153649.10
   17.33        2969.75           1492       33020.00    144566.40
   17.35        2970.00           1495       30974.00    135572.10
   17.38        2970.25           1499       27463.00    120149.00
   17.41        2970.50           1502       24794.00    108434.10
   17.44        2970.75           1505       22361.00     97762.33
   17.46        2971.00           1509       19096.00     83451.91
   17.49        2971.25           1512       16901.00     73838.19
   17.52        2971.50           1515       14703.00     64216.89
   17.55        2971.75           1519       11792.00     51483.12
   17.58        2972.00           1522        9525.00     41573.18
   17.60        2972.25           1525        7550.00     32944.49
   17.63        2972.50           1529        5030.00     21941.21
   17.66        2972.75           1532        2858.00     12463.25
   17.69        2973.00           1536        1009.00      4399.01
   17.71        2973.25           1539         350.00      1525.79
   17.74        2973.50           1542         175.00       762.88
   17.77        2973.75           1546         143.00       623.38
   17.80        2974.00           1549         140.00       610.30
   17.82        2974.25           1552         135.00       588.50
   17.85        2974.50           1556         119.00       518.75
   17.88        2974.75           1559         124.00       540.55
   17.91        2975.00           1562         116.00       505.67
   17.93        2975.25           1566         112.00       488.24
   17.96        2975.50           1569         116.00       505.67
   17.99        2975.75           1572         128.00       557.99
   18.02        2976.00           1576         102.00       444.64
   18.04        2976.25           1579         104.00       453.36
   18.07        2976.50           1582         106.00       462.08
   18.10        2976.75           1586         112.00       488.24
   18.13        2977.00           1589         112.00       488.24
   18.16        2977.25           1592         112.00       488.24
   18.18        2977.50           1596         124.00       540.55
   18.21        2977.75           1599         105.00       457.72
   18.24        2978.00           1602         118.00       514.39
   18.27        2978.25           1606         115.00       501.32
   18.30        2978.50           1609         118.00       514.39
   18.33        2978.75           1612         108.00       470.80
   18.35        2979.00           1616         107.00       466.44
   18.38        2979.25           1619         114.00       496.96
   18.41        2979.50           1623         112.00       488.24
   18.44        2979.75           1626         115.00       501.32
   18.47        2980.00           1629         114.00       496.96
   18.49        2980.25           1633          95.00       414.13
   18.52        2980.50           1636         110.00       479.52
   18.55        2980.75           1639         102.00       444.64
   18.58        2981.00           1643         100.00       435.93
   18.60        2981.25           1646         108.00       470.80
   18.63        2981.50           1649         103.00       449.00
   18.66        2981.75           1653          93.00       405.41
   18.69        2982.00           1656         112.00       488.24
   18.72        2982.25           1659         111.00       483.88
   18.75        2982.50           1663         107.00       466.44
   18.77        2982.75           1666         106.00       462.08
   18.80        2983.00           1669         105.00       457.72
   18.83        2983.25           1673         109.00       475.16
   18.86        2983.50           1676         102.00       444.64
   18.89        2983.75           1679         103.00       449.00
   18.91        2984.00           1683         109.00       475.16
HS scan finished at 00:19:13
end
************************************************************
  HS Scan of (1) Internal mercury lamp
************************************************************
Integration time is 0.2294 seconds per sample
dh050517De Bilt 52.1-5.183 2.428648pr1000
************************************************************
Dead Time -------------------------  3E-08 
Number of Cycles Used -------------  4 
Starting Wavelength (Angstroms) ---  2950 
Final Wavelength (Angstoms) -------  2984 
Wavelength Increment (Angstroms) --  .25 
Filter Wheel #1 Position ---------- (1) Ground quartz diffuser (ND=2.32)
Filter Wheel #2 Position ---------- (1) Neutral Density 0.494



************************************************************
HS scan start time = 01:04:44
Dark Count =  0 


Time (GMT)  Wavelength (Ang)  Step Number  Raw Counts  Counts/Second

   65.19        2950.00           1229         132.00       575.42
   65.29        2950.25           1232         131.00       571.06
   65.32        2950.50           1236         140.00       610.30
   65.34        2950.75           1239         128.00       557.99
   65.37        2951.00           1242         134.00       584.14
   65.40        2951.25           1246         122.00       531.83
   65.43        2951.50           1249         124.00       540.55
   65.46        2951.75           1252         135.00       588.50
   65.49        2952.00           1255         138.00       601.58
   65.51        2952.25           1259         132.00       575.42
   65.54        2952.50           1262         131.00       571.06
   65.57        2952.75           1265         128.00       557.99
   65.60        2953.00           1269         128.00       557.99
   65.63        2953.25           1272         132.00       575.42
   65.65        2953.50           1275         125.00       544.91
   65.68        2953.75           1279         131.00       571.06
   65.71        2954.00           1282         121.00       527.47
   65.74        2954.25           1285         136.00       592.86
   65.77        2954.50           1289         120.00       523.11
   65.80        2954.75           1292         125.00       544.91
   65.82        2955.00           1295         125.00       544.91
   65.85        2955.25           1299         138.00       601.58
   65.88        2955.50           1302         131.00       571.06
   65.91        2955.75           1305         129.00       562.35
   65.94        2956.00           1309         128.00       557.99
   65.96        2956.25           1312         124.00       540.55
   65.99        2956.50           1315         135.00       588.50
   66.02        2956.75           1319         130.00       566.71
   66.05        2957.00           1322         120.00       523.11
   66.08        2957.25           1325         121.00       527.47
   66.10        2957.50           1329         137.00       597.22
   66.13        2957.75           1332         119.00       518.75
   66.16        2958.00           1335         125.00       544.91
   66.19        2958.25           1339         127.00       553.63
   66.22        2958.50           1342         130.00       566.71
   66.25        2958.75           1345         126.00       549.27
   66.28        2959.00           1349         123.00       536.19
   66.30        2959.25           1352         124.00       540.55
   66.33        2959.50           1355         125.00       544.91
   66.36        2959.75           1359         129.00       562.35
   66.39        2960.00           1362         136.00       592.86
   66.41        2960.25           1365         125.00       544.91
   66.44        2960.50           1369         134.00       584.14
   66.47        2960.75           1372         147.00       640.81
   66.50        2961.00           1375         149.00       649.53
   66.52        2961.25           1379         171.00       745.44
   66.55        2961.50           1382         276.00      1203.18
   66.58        2961.75           1385         936.00      4080.71
   66.61        2962.00           1389        2540.00     11076.04
   66.63        2962.25           1392        4464.00     19470.83
   66.66        2962.50           1395        6682.00     29153.65
   66.69        2962.75           1399        9893.00     43181.45
   66.72        2963.00           1402       12779.00     55799.52
   66.75        2963.25           1405       15461.00     67534.25
   66.77        2963.50           1409       18393.00     80372.29
   66.80        2963.75           1412       21057.00     92045.46
   66.83        2964.00           1415       23904.00    104529.60
   66.86        2964.25           1419       26915.00    117743.00
   66.89        2964.50           1422       29870.00    130720.90
   66.92        2964.75           1425       32514.00    142341.50
   66.95        2965.00           1429       35878.00    157138.40
   66.97        2965.25           1432       38246.00    167562.10
   67.00        2965.50           1435       40603.00    177943.90
   67.03        2965.75           1439       43879.00    192384.40
   67.06        2966.00           1442       46260.00    202887.70
   67.08        2966.25           1445       48165.00    211295.90
   67.11        2966.50           1449       50735.00    222646.10
   67.14        2966.75           1452       52022.00    228333.00
   67.17        2967.00           1455       52441.00    230184.80
   67.20        2967.25           1459       52422.00    230100.80
   67.22        2967.50           1462       52674.00    231214.70
   67.25        2967.75           1465       52188.00    229066.60
   67.29        2968.00           1469       51011.00    223865.50
   67.32        2968.25           1472       49746.00    218277.40
   67.35        2968.50           1475       47643.00    208991.50
   67.37        2968.75           1479       44586.00    195502.50
   67.40        2969.00           1482       42564.00    186586.40
   67.43        2969.25           1485       40158.00    175983.30
   67.46        2969.50           1489       37088.00    162463.90
   67.49        2969.75           1492       34549.00    151291.10
   67.52        2970.00           1495       32119.00    140604.90
   67.55        2970.25           1499       28392.00    124228.50
   67.57        2970.50           1502       25923.00    113388.60
   67.60        2970.75           1505       23506.00    102783.80
   67.63        2971.00           1509       20411.00     89214.06
   67.66        2971.25           1512       17630.00     77030.47
   67.68        2971.50           1515       15246.00     66593.24
   67.71        2971.75           1519       12923.00     56429.37
   67.74        2972.00           1522       10591.00     46232.35
   67.77        2972.25           1525        8178.00     35687.71
   67.81        2972.50           1529        4871.00     21247.19
   67.84        2972.75           1532        2355.00     10269.07
   67.86        2973.00           1536         746.00      3252.28
   67.89        2973.25           1539         318.00      1386.28
   67.92        2973.50           1542         185.00       806.47
   67.95        2973.75           1546         144.00       627.74
   67.97        2974.00           1549         144.00       627.74
   68.00        2974.25           1552         141.00       614.66
   68.03        2974.50           1556         124.00       540.55
   68.06        2974.75           1559         112.00       488.24
   68.09        2975.00           1562         116.00       505.67
   68.11        2975.25           1566         104.00       453.36
   68.14        2975.50           1569         114.00       496.96
   68.17        2975.75           1572         112.00       488.24
   68.20        2976.00           1576         115.00       501.32
   68.22        2976.25           1579         118.00       514.39
   68.25        2976.50           1582         116.00       505.67
   68.28        2976.75           1586         101.00       440.28
   68.31        2977.00           1589         117.00       510.03
   68.34        2977.25           1592         116.00       505.67
   68.37        2977.50           1596         111.00       483.88
   68.40        2977.75           1599         108.00       470.80
   68.42        2978.00           1602         118.00       514.39
   68.46        2978.25           1606         109.00       475.16
   68.49        2978.50           1609         109.00       475.16
   68.52        2978.75           1612         105.00       457.72
   68.55        2979.00           1616         110.00       479.52
   68.58        2979.25           1619         104.00       453.36
   68.61        2979.50           1623         124.00       540.55
   68.63        2979.75           1626         103.00       449.00
   68.66        2980.00           1629         114.00       496.96
   68.69        2980.25           1633         104.00       453.36
   68.72        2980.50           1636         115.00       501.32
   68.75        2980.75           1639         100.00       435.93
   68.78        2981.00           1643         115.00       501.32
   68.80        2981.25           1646         111.00       483.88
   68.83        2981.50           1649         112.00       488.24
   68.86        2981.75           1653         114.00       496.96
   68.89        2982.00           1656         116.00       505.67
   68.91        2982.25           1659         106.00       462.08
   68.94        2982.50           1663         106.00       462.08
