************************************************************
  HS Scan of (1) Internal mercury lamp
************************************************************
Integration time is 0.2294 seconds per sample
dh060517De Bilt 52.1-5.183 2.375pr1000
************************************************************
Dead Time -------------------------  3E-08 
Number of Cycles Used -------------  4 
Starting Wavelength (Angstroms) ---  2950 
Final Wavelength (Angstoms) -------  2984 
Wavelength Increment (Angstroms) --  .25 
Filter Wheel #1 Position ---------- (1) Ground quartz diffuser (ND=2.32)
Filter Wheel #2 Position ---------- (1) Neutral Density 0.494



************************************************************
HS scan start time = 00:56:05
Dark Count =  .3 


Time (GMT)  Wavelength (Ang)  Step Number  Raw Counts  Counts/Second

   56.53        2950.00           1229         125.00       543.60
   56.63        2950.25           1232         128.00       556.68
   56.66        2950.50           1236         127.00       552.32
   56.69        2950.75           1239         139.00       604.63
   56.71        2951.00           1242         130.00       565.40
   56.74        2951.25           1246         124.00       539.24
   56.77        2951.50           1249         132.00       574.12
   56.80        2951.75           1252         139.00       604.63
   56.82        2952.00           1255         132.00       574.12
   56.85        2952.25           1259         131.00       569.76
   56.88        2952.50           1262         125.00       543.60
   56.91        2952.75           1265         135.00       587.19
   56.93        2953.00           1269         132.00       574.12
   56.96        2953.25           1272         125.00       543.60
   56.99        2953.50           1275         130.00       565.40
   57.02        2953.75           1279         127.00       552.32
   57.04        2954.00           1282         119.00       517.44
   57.07        2954.25           1285         130.00       565.40
   57.10        2954.50           1289         140.00       608.99
   57.13        2954.75           1292         129.00       561.04
   57.15        2955.00           1295         123.00       534.88
   57.18        2955.25           1299         130.00       565.40
   57.21        2955.50           1302         119.00       517.44
   57.24        2955.75           1305         123.00       534.88
   57.26        2956.00           1309         136.00       591.55
   57.29        2956.25           1312         126.00       547.96
   57.32        2956.50           1315         125.00       543.60
   57.35        2956.75           1319         129.00       561.04
   57.38        2957.00           1322         121.00       526.16
   57.40        2957.25           1325         110.00       478.21
   57.43        2957.50           1329         130.00       565.40
   57.46        2957.75           1332         124.00       539.24
   57.49        2958.00           1335         122.00       530.52
   57.51        2958.25           1339         127.00       552.32
   57.54        2958.50           1342         120.00       521.80
   57.57        2958.75           1345         136.00       591.55
   57.60        2959.00           1349         121.00       526.16
   57.63        2959.25           1352         119.00       517.44
   57.66        2959.50           1355         126.00       547.96
   57.68        2959.75           1359         115.00       500.01
   57.71        2960.00           1362         124.00       539.24
   57.74        2960.25           1365         123.00       534.88
   57.77        2960.50           1369         133.00       578.48
   57.79        2960.75           1372         140.00       608.99
   57.82        2961.00           1375         151.00       656.94
   57.85        2961.25           1379         172.00       748.49
   57.88        2961.50           1382         257.00      1119.04
   57.91        2961.75           1385         915.00      3987.84
   57.93        2962.00           1389        2510.00     10943.87
   57.96        2962.25           1392        4183.00     18243.20
   57.99        2962.50           1395        6272.00     27362.04
   58.02        2962.75           1399        9386.00     40964.43
   58.04        2963.00           1402       12198.00     53257.21
   58.07        2963.25           1405       14710.00     64246.21
   58.10        2963.50           1409       17512.00     76512.38
   58.13        2963.75           1412       19951.00     87196.85
   58.16        2964.00           1415       22705.00     99269.47
   58.18        2964.25           1419       25884.00    113216.10
   58.21        2964.50           1422       28402.00    124271.10
   58.24        2964.75           1425       31243.00    136753.00
   58.27        2965.00           1429       34234.00    149904.10
   58.30        2965.25           1432       36499.00    159870.00
   58.33        2965.50           1435       39099.00    171317.20
   58.36        2965.75           1439       42282.00    185342.00
   58.38        2966.00           1442       44140.00    193534.10
   58.41        2966.25           1445       46534.00    204095.40
   58.44        2966.50           1449       48718.00    213736.20
   58.47        2966.75           1452       49907.00    218987.10
   58.49        2967.00           1455       50202.00    220290.20
   58.52        2967.25           1459       50624.00    222154.40
   58.55        2967.50           1462       50392.00    221129.50
   58.58        2967.75           1465       50220.00    220369.70
   58.60        2968.00           1469       49119.00    215507.00
   58.63        2968.25           1472       47707.00    209272.70
   58.66        2968.50           1475       45944.00    201492.00
   58.69        2968.75           1479       42542.00    186488.10
   58.71        2969.00           1482       40919.00    179335.00
   58.74        2969.25           1485       38577.00    169018.30
   58.77        2969.50           1489       35751.00    156578.20
   58.80        2969.75           1492       33424.00    146341.60
   58.83        2970.00           1495       30851.00    135030.20
   58.85        2970.25           1499       27551.00    120534.00
   58.88        2970.50           1502       24928.00    109020.80
   58.91        2970.75           1505       22687.00     99190.53
   58.94        2971.00           1509       19772.00     86412.48
   58.97        2971.25           1512       17253.00     75378.20
   58.99        2971.50           1515       14807.00     64670.69
   59.02        2971.75           1519       12375.00     54031.28
   59.05        2972.00           1522       10341.00     45138.24
   59.08        2972.25           1525        8064.00     35188.39
   59.10        2972.50           1529        4858.00     21189.14
   59.13        2972.75           1532        2531.00     11035.48
   59.16        2973.00           1536         790.00      3442.81
   59.19        2973.25           1539         337.00      1467.81
   59.22        2973.50           1542         192.00       835.68
   59.25        2973.75           1546         161.00       700.54
   59.28        2974.00           1549         158.00       687.46
   59.30        2974.25           1552         135.00       587.19
   59.33        2974.50           1556         133.00       578.48
   59.36        2974.75           1559         125.00       543.60
   59.39        2975.00           1562         127.00       552.32
   59.42        2975.25           1566         114.00       495.65
   59.45        2975.50           1569         115.00       500.01
   59.48        2975.75           1572         113.00       491.29
   59.50        2976.00           1576         119.00       517.44
   59.53        2976.25           1579         112.00       486.93
   59.56        2976.50           1582         121.00       526.16
   59.59        2976.75           1586         109.00       473.85
   59.61        2977.00           1589         105.00       456.41
   59.65        2977.25           1592         101.00       438.98
   59.68        2977.50           1596         107.00       465.13
   59.71        2977.75           1599         115.00       500.01
   59.73        2978.00           1602         113.00       491.29
   59.76        2978.25           1606         116.00       504.37
   59.79        2978.50           1609         132.00       574.12
   59.82        2978.75           1612         109.00       473.85
   59.84        2979.00           1616         105.00       456.41
   59.87        2979.25           1619         118.00       513.09
   59.90        2979.50           1623         114.00       495.65
   59.93        2979.75           1626         106.00       460.77
   59.95        2980.00           1629         106.00       460.77
   59.98        2980.25           1633         113.00       491.29
   60.01        2980.50           1636         100.00       434.62
   60.04        2980.75           1639         102.00       443.34
   60.07        2981.00           1643         100.00       434.62
   60.09        2981.25           1646         103.00       447.70
   60.12        2981.50           1649         113.00       491.29
   60.15        2981.75           1653         108.00       469.49
   60.18        2982.00           1656         123.00       534.88
   60.20        2982.25           1659         105.00       456.41
   60.23        2982.50           1663         106.00       460.77
   60.26        2982.75           1666         110.00       478.21
   60.29        2983.00           1669         111.00       482.57
   60.32        2983.25           1673         106.00       460.77
   60.34        2983.50           1676         105.00       456.41
   60.37        2983.75           1679         102.00       443.34
   60.40        2984.00           1683         102.00       443.34
HS scan finished at 01:00:42
end
************************************************************
  HS Scan of (1) Internal mercury lamp
************************************************************
Integration time is 0.2294 seconds per sample
dh060517De Bilt 52.1-5.183 2.375pr1000
************************************************************
Dead Time -------------------------  3E-08 
Number of Cycles Used -------------  4 
Starting Wavelength (Angstroms) ---  2950 
Final Wavelength (Angstoms) -------  2984 
Wavelength Increment (Angstroms) --  .25 
Filter Wheel #1 Position ---------- (1) Ground quartz diffuser (ND=2.32)
Filter Wheel #2 Position ---------- (1) Neutral Density 0.494



************************************************************
HS scan start time = 01:22:24
Dark Count =  0 


Time (GMT)  Wavelength (Ang)  Step Number  Raw Counts  Counts/Second

   82.86        2950.00           1229         124.00       540.55
   82.96        2950.25           1232         119.00       518.75
   82.98        2950.50           1236         118.00       514.39
   83.01        2950.75           1239         121.00       527.47
   83.04        2951.00           1242         120.00       523.11
   83.07        2951.25           1246         120.00       523.11
   83.09        2951.50           1249         127.00       553.63
   83.12        2951.75           1252         119.00       518.75
   83.15        2952.00           1255         132.00       575.42
   83.18        2952.25           1259         125.00       544.91
   83.21        2952.50           1262         121.00       527.47
   83.23        2952.75           1265         128.00       557.99
   83.26        2953.00           1269         126.00       549.27
   83.29        2953.25           1272         118.00       514.39
   83.32        2953.50           1275         125.00       544.91
   83.35        2953.75           1279         126.00       549.27
   83.38        2954.00           1282         122.00       531.83
   83.40        2954.25           1285         122.00       531.83
   83.43        2954.50           1289         130.00       566.71
   83.46        2954.75           1292         121.00       527.47
   83.49        2955.00           1295         117.00       510.03
   83.51        2955.25           1299         126.00       549.27
   83.54        2955.50           1302         118.00       514.39
   83.57        2955.75           1305         122.00       531.83
   83.60        2956.00           1309         112.00       488.24
   83.62        2956.25           1312         123.00       536.19
   83.65        2956.50           1315         114.00       496.96
   83.68        2956.75           1319         112.00       488.24
   83.71        2957.00           1322         122.00       531.83
   83.74        2957.25           1325         115.00       501.32
   83.76        2957.50           1329         123.00       536.19
   83.79        2957.75           1332         116.00       505.67
   83.82        2958.00           1335         111.00       483.88
   83.85        2958.25           1339         120.00       523.11
   83.87        2958.50           1342         116.00       505.67
   83.90        2958.75           1345         122.00       531.83
   83.93        2959.00           1349         117.00       510.03
   83.96        2959.25           1352         116.00       505.67
   83.98        2959.50           1355         119.00       518.75
   84.01        2959.75           1359         119.00       518.75
   84.04        2960.00           1362         130.00       566.71
   84.07        2960.25           1365         133.00       579.78
   84.10        2960.50           1369         123.00       536.19
   84.12        2960.75           1372         125.00       544.91
   84.15        2961.00           1375         139.00       605.94
   84.18        2961.25           1379         154.00       671.33
   84.20        2961.50           1382         201.00       876.22
   84.24        2961.75           1385         581.00      2532.89
   84.27        2962.00           1389        1920.00      8371.76
   84.29        2962.25           1392        3504.00     15281.64
   84.32        2962.50           1395        4904.00     21391.23
   84.35        2962.75           1399        6852.00     29896.03
   84.38        2963.00           1402        9078.00     39619.87
   84.40        2963.25           1405       11153.00     48689.21
   84.43        2963.50           1409       13501.00     58957.72
   84.46        2963.75           1412       15642.00     68326.50
   84.49        2964.00           1415       17510.00     76504.94
   84.52        2964.25           1419       20101.00     87855.50
   84.54        2964.50           1422       21764.00     95144.78
   84.57        2964.75           1425       23669.00    103498.70
   84.60        2965.00           1429       26211.00    114652.60
   84.63        2965.25           1432       27570.00    120618.80
   84.65        2965.50           1435       29210.00    127821.40
   84.68        2965.75           1439       31557.00    138134.50
   84.71        2966.00           1442       33158.00    145173.20
   84.74        2966.25           1445       35161.00    153983.50
   84.77        2966.50           1449       37217.00    163031.70
   84.79        2966.75           1452       37985.00    166412.90
   84.82        2967.00           1455       38475.00    168570.50
   84.85        2967.25           1459       38530.00    168812.70
   84.88        2967.50           1462       38436.00    168398.70
   84.90        2967.75           1465       38518.00    168759.80
   84.93        2968.00           1469       37847.00    165805.30
   84.96        2968.25           1472       36943.00    161825.60
   84.99        2968.50           1475       35634.00    156064.60
   85.02        2968.75           1479       33352.00    146026.30
   85.04        2969.00           1482       31702.00    138771.80
   85.07        2969.25           1485       29884.00    130782.40
   85.10        2969.50           1489       27139.00    118726.40
   85.13        2969.75           1492       25408.00    111128.40
   85.16        2970.00           1495       23794.00    104047.00
   85.19        2970.25           1499       21342.00     93294.76
   85.22        2970.50           1502       19061.00     83298.57
   85.25        2970.75           1505       17266.00     75436.45
   85.28        2971.00           1509       15555.00     67945.69
   85.31        2971.25           1512       13645.00     59587.69
   85.33        2971.50           1515       11771.00     51391.30
   85.36        2971.75           1519        9413.00     41083.74
   85.39        2972.00           1522        7403.00     32302.43
   85.42        2972.25           1525        5551.00     24215.49
   85.45        2972.50           1529        3469.00     15128.92
   85.47        2972.75           1532        1951.00      8506.97
   85.50        2973.00           1536         708.00      3086.60
   85.53        2973.25           1539         246.00      1072.40
   85.56        2973.50           1542         159.00       693.13
   85.58        2973.75           1546         144.00       627.74
   85.61        2974.00           1549         126.00       549.27
   85.64        2974.25           1552         116.00       505.67
   85.67        2974.50           1556         130.00       566.71
   85.69        2974.75           1559         116.00       505.67
   85.72        2975.00           1562         107.00       466.44
   85.75        2975.25           1566         112.00       488.24
   85.78        2975.50           1569         107.00       466.44
   85.81        2975.75           1572          99.00       431.57
   85.83        2976.00           1576         101.00       440.28
   85.86        2976.25           1579         100.00       435.93
   85.89        2976.50           1582         112.00       488.24
   85.92        2976.75           1586         102.00       444.64
   85.95        2977.00           1589         112.00       488.24
   85.97        2977.25           1592         100.00       435.93
   86.00        2977.50           1596         112.00       488.24
   86.03        2977.75           1599         105.00       457.72
   86.06        2978.00           1602          96.00       418.49
   86.08        2978.25           1606         103.00       449.00
   86.11        2978.50           1609         110.00       479.52
   86.14        2978.75           1612         106.00       462.08
   86.17        2979.00           1616         103.00       449.00
   86.19        2979.25           1619         110.00       479.52
   86.22        2979.50           1623         101.00       440.28
   86.25        2979.75           1626         110.00       479.52
   86.28        2980.00           1629         107.00       466.44
   86.30        2980.25           1633         107.00       466.44
   86.33        2980.50           1636         105.00       457.72
   86.36        2980.75           1639         105.00       457.72
   86.39        2981.00           1643         100.00       435.93
   86.41        2981.25           1646         104.00       453.36
   86.44        2981.50           1649         107.00       466.44
   86.47        2981.75           1653          93.00       405.41
   86.50        2982.00           1656         103.00       449.00
   86.53        2982.25           1659          96.00       418.49
   86.55        2982.50           1663         100.00       435.93
