************************************************************
  HS Scan of (1) Internal mercury lamp
************************************************************
Integration time is 0.2294 seconds per sample
dh050518Brussels 50.799-4.357 2.535944pr1000
************************************************************
Dead Time -------------------------  2.7E-08 
Number of Cycles Used -------------  4 
Starting Wavelength (Angstroms) ---  2950 
Final Wavelength (Angstoms) -------  2984 
Wavelength Increment (Angstroms) --  .25 
Filter Wheel #1 Position ---------- (1) Ground quartz diffuser (ND=2.32)
Filter Wheel #2 Position ---------- (1) Neutral Density 0.494



************************************************************
HS scan start time = 00:32:39
Dark Count =  0 


Time (GMT)  Wavelength (Ang)  Step Number  Raw Counts  Counts/Second

   33.10        2950.00           1229         131.00       571.06
   33.20        2950.25           1232         127.00       553.63
   33.23        2950.50           1236         122.00       531.83
   33.26        2950.75           1239         119.00       518.75
   33.28        2951.00           1242         119.00       518.75
   33.31        2951.25           1246         126.00       549.27
   33.34        2951.50           1249         132.00       575.42
   33.37        2951.75           1252         124.00       540.55
   33.40        2952.00           1256         127.00       553.63
   33.43        2952.25           1259         124.00       540.55
   33.45        2952.50           1262         122.00       531.83
   33.48        2952.75           1266         123.00       536.19
   33.51        2953.00           1269         127.00       553.63
   33.54        2953.25           1272         122.00       531.83
   33.57        2953.50           1276         124.00       540.55
   33.59        2953.75           1279         121.00       527.47
   33.62        2954.00           1282         121.00       527.47
   33.65        2954.25           1286         120.00       523.11
   33.68        2954.50           1289         126.00       549.27
   33.71        2954.75           1292         110.00       479.52
   33.74        2955.00           1296         128.00       557.99
   33.76        2955.25           1299         112.00       488.24
   33.79        2955.50           1302          99.00       431.57
   33.82        2955.75           1306         116.00       505.67
   33.85        2956.00           1309         128.00       557.99
   33.88        2956.25           1312         126.00       549.27
   33.91        2956.50           1316         129.00       562.35
   33.94        2956.75           1319         117.00       510.03
   33.96        2957.00           1322         116.00       505.67
   33.99        2957.25           1326         119.00       518.75
   34.02        2957.50           1329         133.00       579.78
   34.05        2957.75           1332         115.00       501.31
   34.08        2958.00           1336         123.00       536.19
   34.10        2958.25           1339         125.00       544.91
   34.13        2958.50           1342         124.00       540.55
   34.16        2958.75           1345         126.00       549.27
   34.19        2959.00           1349         121.00       527.47
   34.22        2959.25           1352         119.00       518.75
   34.25        2959.50           1355         118.00       514.39
   34.27        2959.75           1359         123.00       536.19
   34.30        2960.00           1362         122.00       531.83
   34.33        2960.25           1365         124.00       540.55
   34.36        2960.50           1369         126.00       549.27
   34.39        2960.75           1372         128.00       557.99
   34.42        2961.00           1375         130.00       566.70
   34.44        2961.25           1379         139.00       605.94
   34.47        2961.50           1382         191.00       832.63
   34.50        2961.75           1385         562.00      2450.03
   34.53        2962.00           1389        2079.00      9064.99
   34.56        2962.25           1392        4292.00     18719.14
   34.59        2962.50           1395        6560.00     28618.44
   34.61        2962.75           1399        9028.00     39396.73
   34.64        2963.00           1402       11401.00     49766.04
   34.67        2963.25           1405       14211.00     62052.44
   34.70        2963.50           1409       17738.00     77485.40
   34.73        2963.75           1412       20443.00     89330.28
   34.76        2964.00           1415       22606.00     98807.28
   34.79        2964.25           1419       25499.00    111490.30
   34.81        2964.50           1422       27847.00    121790.40
   34.84        2964.75           1425       30612.00    133927.20
   34.87        2965.00           1429       33920.00    148457.90
   34.90        2965.25           1432       36225.00    158589.60
   34.93        2965.50           1435       38981.00    170710.90
   34.96        2965.75           1439       42078.00    184341.60
   34.98        2966.00           1442       44315.00    194193.40
   35.01        2966.25           1445       47118.00    206545.40
   35.04        2966.50           1449       49282.00    216087.10
   35.07        2966.75           1452       50442.00    221203.90
   35.10        2967.00           1455       51049.00    223882.00
   35.13        2967.25           1459       50852.00    223012.70
   35.15        2967.50           1462       50987.00    223608.40
   35.18        2967.75           1465       50784.00    222712.70
   35.21        2968.00           1469       49537.00    217211.70
   35.24        2968.25           1472       47976.00    210327.90
   35.27        2968.50           1475       46394.00    203354.10
   35.30        2968.75           1479       43135.00    188996.00
   35.32        2969.00           1482       41195.00    180454.20
   35.35        2969.25           1485       38978.00    170697.70
   35.38        2969.50           1489       35790.00    156677.10
   35.41        2969.75           1492       33784.00    147860.30
   35.44        2970.00           1495       31387.00    137330.40
   35.47        2970.25           1499       28298.00    123769.50
   35.50        2970.50           1502       25861.00    113077.90
   35.52        2970.75           1505       23292.00    101813.90
   35.55        2971.00           1509       19811.00     86562.15
   35.58        2971.25           1512       17490.00     76399.81
   35.61        2971.50           1515       15424.00     67358.66
   35.64        2971.75           1519       12706.00     55470.99
   35.67        2972.00           1522        9832.00     42909.32
   35.69        2972.25           1525        7611.00     33207.62
   35.72        2972.50           1529        5112.00     22297.64
   35.75        2972.75           1532        3227.00     14072.48
   35.78        2973.00           1535        1572.00      6853.93
   35.81        2973.25           1539         437.00      1905.07
   35.84        2973.50           1542         202.00       880.58
   35.86        2973.75           1546         139.00       605.94
   35.89        2974.00           1549         150.00       653.89
   35.92        2974.25           1552         126.00       549.27
   35.95        2974.50           1556         131.00       571.06
   35.98        2974.75           1559         121.00       527.47
   36.01        2975.00           1562         114.00       496.96
   36.03        2975.25           1566         111.00       483.88
   36.06        2975.50           1569         112.00       488.24
   36.09        2975.75           1572         113.00       492.60
   36.12        2976.00           1576         105.00       457.72
   36.15        2976.25           1579         111.00       483.88
   36.18        2976.50           1582         117.00       510.03
   36.20        2976.75           1586         112.00       488.24
   36.23        2977.00           1589         112.00       488.24
   36.26        2977.25           1592         111.00       483.88
   36.29        2977.50           1596         111.00       483.88
   36.32        2977.75           1599         100.00       435.92
   36.35        2978.00           1602          98.00       427.21
   36.37        2978.25           1606         107.00       466.44
   36.40        2978.50           1609         112.00       488.24
   36.43        2978.75           1612         100.00       435.92
   36.46        2979.00           1616          98.00       427.21
   36.49        2979.25           1619         108.00       470.80
   36.52        2979.50           1622          99.00       431.57
   36.54        2979.75           1626         107.00       466.44
   36.57        2980.00           1629         102.00       444.64
   36.60        2980.25           1632         108.00       470.80
   36.63        2980.50           1636          96.00       418.49
   36.66        2980.75           1639         109.00       475.16
   36.68        2981.00           1642         103.00       449.00
   36.71        2981.25           1646          97.00       422.85
   36.74        2981.50           1649         103.00       449.00
   36.77        2981.75           1653         114.00       496.96
   36.80        2982.00           1656         110.00       479.52
   36.83        2982.25           1659         107.00       466.44
   36.85        2982.50           1663          91.00       396.69
   36.88        2982.75           1666         108.00       470.80
   36.91        2983.00           1669         101.00       440.28
   36.94        2983.25           1673         101.00       440.28
   36.97        2983.50           1676         101.00       440.28
   37.00        2983.75           1679          96.00       418.49
   37.02        2984.00           1683         103.00       449.00
HS scan finished at 00:37:19
end
************************************************************
  HS Scan of (1) Internal mercury lamp
************************************************************
Integration time is 0.2294 seconds per sample
dh050518Brussels 50.799-4.357 2.589593pr1000
************************************************************
Dead Time -------------------------  2.7E-08 
Number of Cycles Used -------------  4 
Starting Wavelength (Angstroms) ---  2950 
Final Wavelength (Angstoms) -------  2984 
Wavelength Increment (Angstroms) --  .25 
Filter Wheel #1 Position ---------- (1) Ground quartz diffuser (ND=2.32)
Filter Wheel #2 Position ---------- (1) Neutral Density 0.494



************************************************************
HS scan start time = 02:21:30
Dark Count =  .1 


Time (GMT)  Wavelength (Ang)  Step Number  Raw Counts  Counts/Second

  141.95        2950.00           1229         125.00       544.47
  142.05        2950.25           1232         125.00       544.47
  142.08        2950.50           1236         111.00       483.44
  142.11        2950.75           1239         110.00       479.08
  142.14        2951.00           1242         114.00       496.52
  142.16        2951.25           1246         123.00       535.75
  142.19        2951.50           1249         126.00       548.83
  142.22        2951.75           1252         124.00       540.11
  142.25        2952.00           1256         138.00       601.14
  142.28        2952.25           1259         128.00       557.55
  142.31        2952.50           1262         124.00       540.11
  142.33        2952.75           1266         119.00       518.32
  142.36        2953.00           1269         129.00       561.91
  142.39        2953.25           1272         120.00       522.68
  142.42        2953.50           1276         124.00       540.11
  142.45        2953.75           1279         118.00       513.96
  142.48        2954.00           1282         133.00       579.35
  142.50        2954.25           1286         120.00       522.68
  142.53        2954.50           1289         122.00       531.39
  142.56        2954.75           1292         115.00       500.88
  142.59        2955.00           1296         118.00       513.96
  142.62        2955.25           1299         118.00       513.96
  142.65        2955.50           1302         126.00       548.83
  142.67        2955.75           1306         120.00       522.68
  142.70        2956.00           1309         118.00       513.96
  142.73        2956.25           1312         115.00       500.88
  142.76        2956.50           1316         122.00       531.39
  142.79        2956.75           1319         113.00       492.16
  142.82        2957.00           1322         117.00       509.60
  142.84        2957.25           1326         120.00       522.68
  142.87        2957.50           1329         117.00       509.60
  142.90        2957.75           1332         123.00       535.75
  142.93        2958.00           1336         111.00       483.44
  142.96        2958.25           1339         127.00       553.19
  142.99        2958.50           1342         115.00       500.88
  143.01        2958.75           1345         121.00       527.03
  143.04        2959.00           1349         118.00       513.96
  143.07        2959.25           1352         115.00       500.88
  143.10        2959.50           1355         118.00       513.96
  143.13        2959.75           1359         117.00       509.60
  143.15        2960.00           1362         126.00       548.83
  143.18        2960.25           1365         115.00       500.88
  143.21        2960.50           1369         127.00       553.19
  143.24        2960.75           1372         113.00       492.16
  143.27        2961.00           1375         131.00       570.63
  143.30        2961.25           1379         143.00       622.94
  143.32        2961.50           1382         217.00       945.53
  143.35        2961.75           1385         697.00      3038.17
  143.38        2962.00           1389        2099.00      9151.78
  143.41        2962.25           1392        3985.00     17379.12
  143.44        2962.50           1395        6131.00     26745.11
  143.46        2962.75           1399        9217.00     40221.95
  143.49        2963.00           1402       12006.00     52410.21
  143.52        2963.25           1405       14460.00     63141.12
  143.55        2963.50           1409       17402.00     76014.18
  143.58        2963.75           1412       20315.00     88769.18
  143.61        2964.00           1415       22780.00     99569.41
  143.64        2964.25           1419       25943.00    113437.20
  143.66        2964.50           1422       28524.00    124760.90
  143.69        2964.75           1425       31474.00    137712.10
  143.72        2965.00           1429       34826.00    152439.10
  143.75        2965.25           1432       37049.00    162212.40
  143.78        2965.50           1435       39347.00    172320.80
  143.81        2965.75           1439       42452.00    185987.90
  143.84        2966.00           1442       44682.00    195809.70
  143.86        2966.25           1445       46488.00    203768.00
  143.89        2966.50           1449       49227.00    215844.00
  143.92        2966.75           1452       50608.00    221935.80
  143.95        2967.00           1455       51166.00    224397.80
  143.98        2967.25           1459       51502.00    225880.40
  144.00        2967.50           1462       51382.00    225350.90
  144.03        2967.75           1465       51283.00    224914.00
  144.06        2968.00           1469       50324.00    220682.90
  144.09        2968.25           1472       48894.00    214375.50
  144.12        2968.50           1475       46656.00    204508.40
  144.15        2968.75           1479       44299.00    194122.50
  144.18        2969.00           1482       42060.00    184261.90
  144.20        2969.25           1485       40087.00    175577.10
  144.23        2969.50           1489       37000.00    161996.90
  144.26        2969.75           1492       34364.00    150408.60
  144.29        2970.00           1495       31852.00    139372.20
  144.32        2970.25           1499       28185.00    123273.20
  144.35        2970.50           1502       25792.00    112774.90
  144.38        2970.75           1505       23700.00    103602.00
  144.40        2971.00           1509       20473.00     89461.26
  144.43        2971.25           1512       17824.00     77861.43
  144.46        2971.50           1515       15605.00     68150.15
  144.49        2971.75           1519       13164.00     57473.16
  144.52        2972.00           1522       10611.00     46312.89
  144.55        2972.25           1525        8271.00     36089.64
  144.57        2972.50           1529        5146.00     22445.60
  144.60        2972.75           1532        2545.00     11097.05
  144.63        2973.00           1535        1159.00      5052.56
  144.66        2973.25           1539         353.00      1538.42
  144.69        2973.50           1542         193.00       840.91
  144.72        2973.75           1546         143.00       622.94
  144.74        2974.00           1549         143.00       622.94
  144.77        2974.25           1552         126.00       548.83
  144.80        2974.50           1556         127.00       553.19
  144.83        2974.75           1559         117.00       509.60
  144.86        2975.00           1562         113.00       492.16
  144.88        2975.25           1566         102.00       444.21
  144.91        2975.50           1569         102.00       444.21
  144.94        2975.75           1572         102.00       444.21
  144.97        2976.00           1576         107.00       466.00
  145.00        2976.25           1579         112.00       487.80
  145.03        2976.50           1582         102.00       444.21
  145.05        2976.75           1586         106.00       461.64
  145.08        2977.00           1589         111.00       483.44
  145.11        2977.25           1592         100.00       435.49
  145.14        2977.50           1596         117.00       509.60
  145.17        2977.75           1599         106.00       461.64
  145.20        2978.00           1602         108.00       470.36
  145.23        2978.25           1606         106.00       461.64
  145.25        2978.50           1609         107.00       466.00
  145.28        2978.75           1612         106.00       461.64
  145.31        2979.00           1616         111.00       483.44
  145.34        2979.25           1619         113.00       492.16
  145.37        2979.50           1622          91.00       396.26
  145.40        2979.75           1626         105.00       457.29
  145.42        2980.00           1629         103.00       448.57
  145.45        2980.25           1632         113.00       492.16
  145.48        2980.50           1636         112.00       487.80
  145.51        2980.75           1639          96.00       418.05
  145.54        2981.00           1642         109.00       474.72
  145.56        2981.25           1646         101.00       439.85
  145.59        2981.50           1649         107.00       466.00
  145.62        2981.75           1653         112.00       487.80
  145.65        2982.00           1656         109.00       474.72
  145.68        2982.25           1659         101.00       439.85
