************************************************************
  HS Scan of (1) Internal mercury lamp
************************************************************
Integration time is 0.2294 seconds per sample
dh030517De Bilt 52.1-5.183 2.482296pr1000
************************************************************
Dead Time -------------------------  3E-08 
Number of Cycles Used -------------  4 
Starting Wavelength (Angstroms) ---  2950 
Final Wavelength (Angstoms) -------  2984 
Wavelength Increment (Angstroms) --  .25 
Filter Wheel #1 Position ---------- (1) Ground quartz diffuser (ND=2.32)
Filter Wheel #2 Position ---------- (1) Neutral Density 0.494



************************************************************
HS scan start time = 01:41:20
Dark Count =  0 


Time (GMT)  Wavelength (Ang)  Step Number  Raw Counts  Counts/Second

  101.79        2950.00           1229         132.00       575.42
  101.88        2950.25           1232         128.00       557.99
  101.91        2950.50           1236         128.00       557.99
  101.94        2950.75           1239         122.00       531.83
  101.97        2951.00           1242         121.00       527.47
  102.00        2951.25           1246         129.00       562.35
  102.02        2951.50           1249         130.00       566.71
  102.05        2951.75           1252         126.00       549.27
  102.08        2952.00           1255         133.00       579.78
  102.11        2952.25           1259         131.00       571.06
  102.13        2952.50           1262         130.00       566.71
  102.16        2952.75           1265         125.00       544.91
  102.19        2953.00           1269         132.00       575.42
  102.22        2953.25           1272         126.00       549.27
  102.24        2953.50           1275         125.00       544.91
  102.27        2953.75           1279         122.00       531.83
  102.30        2954.00           1282         123.00       536.19
  102.33        2954.25           1285         118.00       514.39
  102.35        2954.50           1289         122.00       531.83
  102.38        2954.75           1292         132.00       575.42
  102.41        2955.00           1295         124.00       540.55
  102.44        2955.25           1299         125.00       544.91
  102.46        2955.50           1302         130.00       566.71
  102.49        2955.75           1305         115.00       501.32
  102.52        2956.00           1309         128.00       557.99
  102.55        2956.25           1312         138.00       601.58
  102.58        2956.50           1315         124.00       540.55
  102.60        2956.75           1319         137.00       597.22
  102.63        2957.00           1322         122.00       531.83
  102.66        2957.25           1325         122.00       531.83
  102.69        2957.50           1329         117.00       510.03
  102.71        2957.75           1332         124.00       540.55
  102.74        2958.00           1335         127.00       553.63
  102.77        2958.25           1339         116.00       505.67
  102.80        2958.50           1342         118.00       514.39
  102.82        2958.75           1345         119.00       518.75
  102.85        2959.00           1349         125.00       544.91
  102.88        2959.25           1352         122.00       531.83
  102.91        2959.50           1355         121.00       527.47
  102.93        2959.75           1359         116.00       505.67
  102.96        2960.00           1362         137.00       597.22
  102.99        2960.25           1365         141.00       614.66
  103.02        2960.50           1369         135.00       588.50
  103.05        2960.75           1372         134.00       584.14
  103.07        2961.00           1375         148.00       645.17
  103.10        2961.25           1379         164.00       714.92
  103.13        2961.50           1382         250.00      1089.84
  103.16        2961.75           1385         866.00      3775.49
  103.18        2962.00           1389        2884.00     12576.67
  103.21        2962.25           1392        4938.00     21539.63
  103.24        2962.50           1395        7665.00     33446.80
  103.27        2962.75           1399       10902.00     47591.88
  103.29        2963.00           1402       13773.00     60147.67
  103.32        2963.25           1405       16690.00     72914.35
  103.35        2963.50           1409       20341.00     88907.27
  103.38        2963.75           1412       23153.00    101235.50
  103.40        2964.00           1415       25527.00    111650.60
  103.43        2964.25           1419       28345.00    124022.10
  103.46        2964.50           1422       30756.00    134614.00
  103.49        2964.75           1425       33411.00    146285.80
  103.52        2965.00           1429       36840.00    161372.20
  103.54        2965.25           1432       39323.00    172305.10
  103.57        2965.50           1435       41811.00    183267.30
  103.60        2965.75           1439       44946.00    197090.40
  103.63        2966.00           1442       47626.00    208916.50
  103.66        2966.25           1445       50365.00    221011.60
  103.68        2966.50           1449       53213.00    233597.30
  103.71        2966.75           1452       54042.00    237262.60
  103.74        2967.00           1455       54597.00    239716.90
  103.77        2967.25           1459       54541.00    239469.20
  103.79        2967.50           1462       54698.00    240163.50
  103.82        2967.75           1465       54585.00    239663.80
  103.85        2968.00           1469       53422.00    234521.30
  103.88        2968.25           1472       51324.00    225248.50
  103.91        2968.50           1475       49678.00    217977.00
  103.93        2968.75           1479       46156.00    202428.70
  103.96        2969.00           1482       43603.00    191167.30
  103.99        2969.25           1485       41003.00    179706.40
  104.02        2969.50           1489       37832.00    165739.20
  104.05        2969.75           1492       36028.00    157798.40
  104.07        2970.00           1495       33566.00    146967.40
  104.10        2970.25           1499       30245.00    132368.50
  104.13        2970.50           1502       27314.00    119494.70
  104.16        2970.75           1505       24346.00    106468.60
  104.18        2971.00           1509       20662.00     90314.12
  104.21        2971.25           1512       18330.00     80096.33
  104.24        2971.50           1515       15838.00     69184.43
  104.27        2971.75           1519       12936.00     56486.23
  104.29        2972.00           1522       10537.00     45996.30
  104.32        2972.25           1525        8077.00     35246.49
  104.35        2972.50           1529        4930.00     21504.72
  104.38        2972.75           1532        2816.00     12280.03
  104.41        2973.00           1536        1100.00      4795.81
  104.43        2973.25           1539         395.00      1721.97
  104.46        2973.50           1542         179.00       780.31
  104.49        2973.75           1546         145.00       632.10
  104.52        2974.00           1549         137.00       597.22
  104.54        2974.25           1552         122.00       531.83
  104.57        2974.50           1556         128.00       557.99
  104.60        2974.75           1559         121.00       527.47
  104.63        2975.00           1562         105.00       457.72
  104.65        2975.25           1566         106.00       462.08
  104.68        2975.50           1569         114.00       496.96
  104.71        2975.75           1572         126.00       549.27
  104.74        2976.00           1576         124.00       540.55
  104.77        2976.25           1579         104.00       453.36
  104.79        2976.50           1582         116.00       505.67
  104.82        2976.75           1586         113.00       492.60
  104.85        2977.00           1589         110.00       479.52
  104.88        2977.25           1592         115.00       501.32
  104.90        2977.50           1596         113.00       492.60
  104.93        2977.75           1599         115.00       501.32
  104.96        2978.00           1602         116.00       505.67
  104.99        2978.25           1606         106.00       462.08
  105.01        2978.50           1609         111.00       483.88
  105.04        2978.75           1612         109.00       475.16
  105.07        2979.00           1616         118.00       514.39
  105.10        2979.25           1619         110.00       479.52
  105.13        2979.50           1623         100.00       435.93
  105.16        2979.75           1626         117.00       510.03
  105.18        2980.00           1629         109.00       475.16
  105.21        2980.25           1633         102.00       444.64
  105.24        2980.50           1636         111.00       483.88
  105.27        2980.75           1639         108.00       470.80
  105.30        2981.00           1643         101.00       440.28
  105.32        2981.25           1646         117.00       510.03
  105.35        2981.50           1649         113.00       492.60
  105.38        2981.75           1653         111.00       483.88
  105.41        2982.00           1656         106.00       462.08
  105.43        2982.25           1659         102.00       444.64
  105.46        2982.50           1663         110.00       479.52
  105.50        2982.75           1666         113.00       492.60
  105.53        2983.00           1669         109.00       475.16
  105.56        2983.25           1673          95.00       414.13
  105.59        2983.50           1676         105.00       457.72
  105.62        2983.75           1679         103.00       449.00
  105.65        2984.00           1683         107.00       466.44
HS scan finished at 01:45:57
end
************************************************************
  HS Scan of (1) Internal mercury lamp
************************************************************
Integration time is 0.2294 seconds per sample
dh030517De Bilt 52.1-5.183 2.482296pr1000
************************************************************
Dead Time -------------------------  3E-08 
Number of Cycles Used -------------  4 
Starting Wavelength (Angstroms) ---  2950 
Final Wavelength (Angstoms) -------  2984 
Wavelength Increment (Angstroms) --  .25 
Filter Wheel #1 Position ---------- (1) Ground quartz diffuser (ND=2.32)
Filter Wheel #2 Position ---------- (1) Neutral Density 0.494



************************************************************
HS scan start time = 02:07:39
Dark Count =  0 


Time (GMT)  Wavelength (Ang)  Step Number  Raw Counts  Counts/Second

  128.11        2950.00           1229         133.00       579.78
  128.21        2950.25           1232         124.00       540.55
  128.23        2950.50           1236         137.00       597.22
  128.26        2950.75           1239         125.00       544.91
  128.29        2951.00           1242         124.00       540.55
  128.32        2951.25           1246         123.00       536.19
  128.34        2951.50           1249         131.00       571.06
  128.37        2951.75           1252         123.00       536.19
  128.40        2952.00           1255         130.00       566.71
  128.43        2952.25           1259         125.00       544.91
  128.45        2952.50           1262         140.00       610.30
  128.48        2952.75           1265         117.00       510.03
  128.51        2953.00           1269         129.00       562.35
  128.54        2953.25           1272         132.00       575.42
  128.57        2953.50           1275         134.00       584.14
  128.59        2953.75           1279         120.00       523.11
  128.62        2954.00           1282         127.00       553.63
  128.65        2954.25           1285         125.00       544.91
  128.68        2954.50           1289         127.00       553.63
  128.70        2954.75           1292         118.00       514.39
  128.73        2955.00           1295         111.00       483.88
  128.76        2955.25           1299         119.00       518.75
  128.79        2955.50           1302         129.00       562.35
  128.81        2955.75           1305         132.00       575.42
  128.84        2956.00           1309         125.00       544.91
  128.87        2956.25           1312         116.00       505.67
  128.90        2956.50           1315         122.00       531.83
  128.93        2956.75           1319         120.00       523.11
  128.95        2957.00           1322         127.00       553.63
  128.98        2957.25           1325         123.00       536.19
  129.01        2957.50           1329         135.00       588.50
  129.04        2957.75           1332         133.00       579.78
  129.07        2958.00           1335         121.00       527.47
  129.09        2958.25           1339         124.00       540.55
  129.12        2958.50           1342         106.00       462.08
  129.15        2958.75           1345         133.00       579.78
  129.18        2959.00           1349         114.00       496.96
  129.21        2959.25           1352         133.00       579.78
  129.24        2959.50           1355         129.00       562.35
  129.26        2959.75           1359         122.00       531.83
  129.29        2960.00           1362         118.00       514.39
  129.32        2960.25           1365         127.00       553.63
  129.35        2960.50           1369         127.00       553.63
  129.38        2960.75           1372         136.00       592.86
  129.40        2961.00           1375         140.00       610.30
  129.43        2961.25           1379         155.00       675.69
  129.46        2961.50           1382         168.00       732.36
  129.49        2961.75           1385         548.00      2389.01
  129.51        2962.00           1389        2007.00      8751.21
  129.54        2962.25           1392        3590.00     15656.87
  129.57        2962.50           1395        5241.00     22862.23
  129.60        2962.75           1399        7937.00     34634.92
  129.62        2963.00           1402       10110.00     44129.88
  129.65        2963.25           1405       11953.00     52187.14
  129.68        2963.50           1409       14525.00     63437.97
  129.71        2963.75           1412       16834.00     73544.83
  129.74        2964.00           1415       18812.00     82207.73
  129.76        2964.25           1419       21445.00     93746.28
  129.79        2964.50           1422       23452.00    102546.90
  129.82        2964.75           1425       25380.00    111005.50
  129.85        2965.00           1429       27699.00    121185.20
  129.87        2965.25           1432       29872.00    130729.70
  129.91        2965.50           1435       31963.00    139919.10
  129.94        2965.75           1439       34808.00    152430.40
  129.96        2966.00           1442       36409.00    159475.20
  129.99        2966.25           1445       38020.00    166567.00
  130.02        2966.50           1449       40741.00    178552.00
  130.05        2966.75           1452       41886.00    183597.80
  130.07        2967.00           1455       42252.00    185211.10
  130.10        2967.25           1459       42314.00    185484.40
  130.13        2967.50           1462       42439.00    186035.40
  130.16        2967.75           1465       42278.00    185325.70
  130.19        2968.00           1469       41454.00    181693.90
  130.21        2968.25           1472       40325.00    176719.10
  130.24        2968.50           1475       38465.00    168526.40
  130.27        2968.75           1479       36429.00    159563.20
  130.30        2969.00           1482       34755.00    152197.30
  130.32        2969.25           1485       32880.00    143950.80
  130.35        2969.50           1489       30361.00    132878.30
  130.38        2969.75           1492       28000.00    122507.00
  130.41        2970.00           1495       26099.00    114161.00
  130.44        2970.25           1499       23515.00    102823.20
  130.46        2970.50           1502       21479.00     93895.33
  130.49        2970.75           1505       19608.00     85695.19
  130.52        2971.00           1509       16961.00     74100.91
  130.55        2971.25           1512       14835.00     64794.53
  130.57        2971.50           1515       13030.00     56897.39
  130.61        2971.75           1519       10834.00     47294.61
  130.64        2972.00           1522        9097.00     39702.89
  130.67        2972.25           1525        7433.00     32433.46
  130.70        2972.50           1529        4617.00     20138.58
  130.72        2972.75           1532        2513.00     10958.27
  130.76        2973.00           1536         835.00      3640.33
  130.79        2973.25           1539         347.00      1512.71
  130.81        2973.50           1542         174.00       758.52
  130.84        2973.75           1546         137.00       597.22
  130.87        2974.00           1549         140.00       610.30
  130.90        2974.25           1552         135.00       588.50
  130.93        2974.50           1556         118.00       514.39
  130.97        2974.75           1559         119.00       518.75
  131.00        2975.00           1562         101.00       440.28
  131.03        2975.25           1566         109.00       475.16
  131.06        2975.50           1569         102.00       444.64
  131.09        2975.75           1572         108.00       470.80
  131.11        2976.00           1576         115.00       501.32
  131.14        2976.25           1579         106.00       462.08
  131.17        2976.50           1582         107.00       466.44
  131.20        2976.75           1586         109.00       475.16
  131.23        2977.00           1589         102.00       444.64
  131.25        2977.25           1592          93.00       405.41
  131.28        2977.50           1596         105.00       457.72
  131.31        2977.75           1599         104.00       453.36
  131.34        2978.00           1602         107.00       466.44
  131.37        2978.25           1606         109.00       475.16
  131.40        2978.50           1609         116.00       505.67
  131.42        2978.75           1612         111.00       483.88
  131.45        2979.00           1616         109.00       475.16
  131.48        2979.25           1619         101.00       440.28
  131.51        2979.50           1623         111.00       483.88
  131.54        2979.75           1626         107.00       466.44
  131.56        2980.00           1629         110.00       479.52
  131.59        2980.25           1633         106.00       462.08
  131.62        2980.50           1636          99.00       431.57
  131.65        2980.75           1639         109.00       475.16
  131.67        2981.00           1643         104.00       453.36
  131.70        2981.25           1646         105.00       457.72
  131.73        2981.50           1649         106.00       462.08
  131.76        2981.75           1653         102.00       444.64
  131.79        2982.00           1656          99.00       431.57
  131.82        2982.25           1659          98.00       427.21
