************************************************************
  HS Scan of (1) Internal mercury lamp
************************************************************
Integration time is 0.2294 seconds per sample
dh150517Kaunas 54.88398-23.83586 2.643241pr1000
************************************************************
Dead Time -------------------------  3E-08 
Number of Cycles Used -------------  4 
Starting Wavelength (Angstroms) ---  2950 
Final Wavelength (Angstoms) -------  2984 
Wavelength Increment (Angstroms) --  .25 
Filter Wheel #1 Position ---------- (1) Ground quartz diffuser (ND=2.32)
Filter Wheel #2 Position ---------- (1) Neutral Density 0.494



************************************************************
HS scan start time = 23:38:40
Dark Count =  0 


Time (GMT)  Wavelength (Ang)  Step Number  Raw Counts  Counts/Second

 1419.11        2950.00           1229         118.00       514.39
 1419.21        2950.25           1232         128.00       557.99
 1419.24        2950.50           1236         116.00       505.67
 1419.27        2950.75           1239         124.00       540.55
 1419.29        2951.00           1242         126.00       549.27
 1419.32        2951.25           1246         132.00       575.42
 1419.35        2951.50           1249         125.00       544.91
 1419.38        2951.75           1252         123.00       536.19
 1419.40        2952.00           1255         130.00       566.71
 1419.43        2952.25           1259         132.00       575.42
 1419.46        2952.50           1262         129.00       562.35
 1419.49        2952.75           1265         132.00       575.42
 1419.51        2953.00           1269         126.00       549.27
 1419.54        2953.25           1272         123.00       536.19
 1419.57        2953.50           1275         126.00       549.27
 1419.60        2953.75           1279         124.00       540.55
 1419.62        2954.00           1282         116.00       505.67
 1419.65        2954.25           1285         128.00       557.99
 1419.68        2954.50           1289         123.00       536.19
 1419.71        2954.75           1292         125.00       544.91
 1419.74        2955.00           1295         121.00       527.47
 1419.76        2955.25           1299         117.00       510.03
 1419.79        2955.50           1302         124.00       540.55
 1419.82        2955.75           1305         118.00       514.39
 1419.85        2956.00           1309         116.00       505.67
 1419.87        2956.25           1312         129.00       562.35
 1419.90        2956.50           1315         129.00       562.35
 1419.93        2956.75           1319         122.00       531.83
 1419.96        2957.00           1322         129.00       562.35
 1419.98        2957.25           1325         123.00       536.19
 1420.01        2957.50           1329         123.00       536.19
 1420.04        2957.75           1332         116.00       505.67
 1420.07        2958.00           1335         124.00       540.55
 1420.09        2958.25           1339         124.00       540.55
 1420.12        2958.50           1342         132.00       575.42
 1420.15        2958.75           1345         118.00       514.39
 1420.18        2959.00           1349         121.00       527.47
 1420.20        2959.25           1352         127.00       553.63
 1420.24        2959.50           1355         132.00       575.42
 1420.27        2959.75           1359         120.00       523.11
 1420.29        2960.00           1362         119.00       518.75
 1420.32        2960.25           1365         134.00       584.14
 1420.35        2960.50           1369         139.00       605.94
 1420.38        2960.75           1372         140.00       610.30
 1420.40        2961.00           1375         146.00       636.46
 1420.43        2961.25           1379         152.00       662.61
 1420.46        2961.50           1382         257.00      1120.35
 1420.49        2961.75           1385         873.00      3806.01
 1420.52        2962.00           1389        2621.00     11429.38
 1420.55        2962.25           1392        4977.00     21709.86
 1420.58        2962.50           1395        7607.00     33193.46
 1420.60        2962.75           1399       10871.00     47456.35
 1420.63        2963.00           1402       14429.00     63017.89
 1420.66        2963.25           1405       17484.00     76391.08
 1420.69        2963.50           1409       21271.00     92983.52
 1420.72        2963.75           1412       24044.00    105143.70
 1420.74        2964.00           1415       26951.00    117901.00
 1420.77        2964.25           1419       30725.00    134477.80
 1420.80        2964.50           1422       33143.00    145107.20
 1420.83        2964.75           1425       35602.00    155923.80
 1420.85        2965.00           1429       39183.00    171688.50
 1420.88        2965.25           1432       41764.00    183060.10
 1420.91        2965.50           1435       44658.00    195820.10
 1420.94        2965.75           1439       48639.00    213388.70
 1420.97        2966.00           1442       50698.00    222482.70
 1420.99        2966.25           1445       53623.00    235410.00
 1421.02        2966.50           1449       56435.00    247847.40
 1421.05        2966.75           1452       57931.00    254467.90
 1421.08        2967.00           1455       58723.00    257974.00
 1421.11        2967.25           1459       59056.00    259448.40
 1421.13        2967.50           1462       58467.00    256840.70
 1421.16        2967.75           1465       58579.00    257336.50
 1421.19        2968.00           1469       57710.00    253489.70
 1421.22        2968.25           1472       56385.00    247626.10
 1421.24        2968.50           1475       53781.00    236108.60
 1421.27        2968.75           1479       49830.00    218648.40
 1421.30        2969.00           1482       47186.00    206974.30
 1421.33        2969.25           1485       44789.00    196397.90
 1421.36        2969.50           1489       41179.00    180482.00
 1421.38        2969.75           1492       38230.00    167491.60
 1421.41        2970.00           1495       35649.00    156130.60
 1421.44        2970.25           1499       32604.00    142737.20
 1421.47        2970.50           1502       29760.00    130237.60
 1421.49        2970.75           1505       27073.00    118436.70
 1421.52        2971.00           1509       23001.00    100568.90
 1421.55        2971.25           1512       19922.00     87071.09
 1421.58        2971.50           1515       17331.00     75721.07
 1421.61        2971.75           1519       14172.00     61893.37
 1421.63        2972.00           1522       11359.00     49589.85
 1421.66        2972.25           1525        8958.00     39095.52
 1421.69        2972.50           1529        5245.00     22879.69
 1421.72        2972.75           1532        2688.00     11721.65
 1421.74        2973.00           1536         982.00      4281.28
 1421.77        2973.25           1539         390.00      1700.17
 1421.80        2973.50           1542         193.00       841.35
 1421.83        2973.75           1546         157.00       684.41
 1421.85        2974.00           1549         143.00       623.38
 1421.88        2974.25           1552         129.00       562.35
 1421.91        2974.50           1556         128.00       557.99
 1421.94        2974.75           1559         121.00       527.47
 1421.97        2975.00           1562         114.00       496.96
 1421.99        2975.25           1566         112.00       488.24
 1422.02        2975.50           1569         109.00       475.16
 1422.05        2975.75           1572         105.00       457.72
 1422.08        2976.00           1576         110.00       479.52
 1422.10        2976.25           1579         111.00       483.88
 1422.13        2976.50           1582         108.00       470.80
 1422.16        2976.75           1586         115.00       501.32
 1422.19        2977.00           1589         115.00       501.32
 1422.22        2977.25           1592         107.00       466.44
 1422.25        2977.50           1596         110.00       479.52
 1422.28        2977.75           1599         110.00       479.52
 1422.31        2978.00           1602         105.00       457.72
 1422.34        2978.25           1606         103.00       449.00
 1422.36        2978.50           1609         107.00       466.44
 1422.39        2978.75           1612         107.00       466.44
 1422.42        2979.00           1616         106.00       462.08
 1422.45        2979.25           1619         111.00       483.88
 1422.48        2979.50           1623         102.00       444.64
 1422.51        2979.75           1626         105.00       457.72
 1422.54        2980.00           1629         111.00       483.88
 1422.56        2980.25           1633         111.00       483.88
 1422.59        2980.50           1636         110.00       479.52
 1422.62        2980.75           1639         103.00       449.00
 1422.65        2981.00           1643         106.00       462.08
 1422.67        2981.25           1646          98.00       427.21
 1422.70        2981.50           1649          96.00       418.49
 1422.73        2981.75           1653         103.00       449.00
 1422.76        2982.00           1656         103.00       449.00
 1422.78        2982.25           1659         107.00       466.44
 1422.81        2982.50           1663         103.00       449.00
 1422.84        2982.75           1666          96.00       418.49
 1422.87        2983.00           1669         106.00       462.08
 1422.90        2983.25           1673         109.00       475.16
 1422.93        2983.50           1676         107.00       466.44
 1422.96        2983.75           1679         109.00       475.16
 1422.98        2984.00           1683          98.00       427.21
HS scan finished at 23:43:17
end
************************************************************
  HS Scan of (1) Internal mercury lamp
************************************************************
Integration time is 0.2294 seconds per sample
dh160517Kaunas 54.88398-23.83586 2.643241pr1000
************************************************************
Dead Time -------------------------  3E-08 
Number of Cycles Used -------------  4 
Starting Wavelength (Angstroms) ---  2950 
Final Wavelength (Angstoms) -------  2984 
Wavelength Increment (Angstroms) --  .25 
Filter Wheel #1 Position ---------- (1) Ground quartz diffuser (ND=2.32)
Filter Wheel #2 Position ---------- (1) Neutral Density 0.494



************************************************************
HS scan start time = 00:09:19
Dark Count =  .1 


Time (GMT)  Wavelength (Ang)  Step Number  Raw Counts  Counts/Second

    9.77        2950.00           1229         132.00       574.99
    9.87        2950.25           1232         123.00       535.75
    9.90        2950.50           1236         132.00       574.99
    9.92        2950.75           1239         135.00       588.07
    9.95        2951.00           1242         126.00       548.83
    9.98        2951.25           1246         130.00       566.27
   10.01        2951.50           1249         130.00       566.27
   10.03        2951.75           1252         125.00       544.47
   10.06        2952.00           1255         129.00       561.91
   10.09        2952.25           1259         119.00       518.32
   10.12        2952.50           1262         128.00       557.55
   10.15        2952.75           1265         124.00       540.11
   10.17        2953.00           1269         122.00       531.39
   10.20        2953.25           1272         124.00       540.11
   10.23        2953.50           1275         135.00       588.07
   10.26        2953.75           1279         126.00       548.83
   10.28        2954.00           1282         126.00       548.83
   10.31        2954.25           1285         124.00       540.11
   10.34        2954.50           1289         123.00       535.75
   10.37        2954.75           1292         124.00       540.11
   10.40        2955.00           1295         114.00       496.52
   10.43        2955.25           1299         123.00       535.75
   10.46        2955.50           1302         112.00       487.80
   10.49        2955.75           1305         120.00       522.68
   10.52        2956.00           1309         124.00       540.11
   10.54        2956.25           1312         124.00       540.11
   10.57        2956.50           1315         117.00       509.60
   10.60        2956.75           1319         122.00       531.39
   10.63        2957.00           1322         119.00       518.32
   10.66        2957.25           1325         116.00       505.24
   10.68        2957.50           1329         125.00       544.47
   10.71        2957.75           1332         114.00       496.52
   10.74        2958.00           1335         118.00       513.96
   10.77        2958.25           1339         121.00       527.04
   10.80        2958.50           1342         124.00       540.11
   10.82        2958.75           1345         115.00       500.88
   10.85        2959.00           1349         117.00       509.60
   10.88        2959.25           1352         119.00       518.32
   10.91        2959.50           1355         112.00       487.80
   10.93        2959.75           1359         133.00       579.35
   10.96        2960.00           1362         126.00       548.83
   10.99        2960.25           1365         122.00       531.39
   11.02        2960.50           1369         130.00       566.27
   11.04        2960.75           1372         147.00       640.38
   11.07        2961.00           1375         131.00       570.63
   11.10        2961.25           1379         147.00       640.38
   11.13        2961.50           1382         219.00       954.26
   11.15        2961.75           1385         680.00      2964.08
   11.18        2962.00           1389        2317.00     10102.89
   11.21        2962.25           1392        4214.00     18379.36
   11.24        2962.50           1395        6216.00     27118.39
   11.27        2962.75           1399        8805.00     38426.58
   11.29        2963.00           1402       11208.00     48929.23
   11.32        2963.25           1405       13608.00     59425.38
   11.35        2963.50           1409       16262.00     71040.09
   11.38        2963.75           1412       18075.00     78978.98
   11.40        2964.00           1415       20167.00     88144.30
   11.43        2964.25           1419       22806.00     99713.28
   11.46        2964.50           1422       24798.00    108451.20
   11.49        2964.75           1425       27074.00    118440.60
   11.52        2965.00           1429       29845.00    130610.60
   11.55        2965.25           1432       31667.00    138617.60
   11.58        2965.50           1435       33810.00    148040.10
   11.61        2965.75           1439       36528.00    159998.50
   11.63        2966.00           1442       38766.00    169851.50
   11.66        2966.25           1445       40453.00    177282.60
   11.69        2966.50           1449       42756.00    187432.40
   11.72        2966.75           1452       43839.00    192207.60
   11.75        2967.00           1455       44448.00    194893.40
   11.79        2967.25           1459       44514.00    195184.50
   11.82        2967.50           1462       44413.00    194739.00
   11.85        2967.75           1465       44361.00    194509.70
   11.87        2968.00           1469       43412.00    190324.70
   11.90        2968.25           1472       41871.00    183531.30
   11.93        2968.50           1475       39979.00    175194.30
   11.96        2968.75           1479       37563.00    164554.50
   11.98        2969.00           1482       35539.00    155646.20
   12.01        2969.25           1485       33756.00    147802.60
   12.04        2969.50           1489       31476.00    137778.00
   12.07        2969.75           1492       29446.00    128857.70
   12.10        2970.00           1495       27357.00    119683.10
   12.12        2970.25           1499       24378.00    106608.50
   12.15        2970.50           1502       22002.00     96187.80
   12.18        2970.75           1505       20004.00     87429.98
   12.21        2971.00           1509       17548.00     76670.93
   12.23        2971.25           1512       15361.00     67096.13
   12.26        2971.50           1515       13161.00     57469.97
   12.29        2971.75           1519       10642.00     46454.85
   12.32        2972.00           1522        8712.00     38020.24
   12.35        2972.25           1525        6811.00     29716.54
   12.38        2972.50           1529        4480.00     19540.22
   12.41        2972.75           1532        2550.00     11119.23
   12.43        2973.00           1536         718.00      3129.76
   12.46        2973.25           1539         274.00      1194.03
   12.49        2973.50           1542         171.00       745.00
   12.52        2973.75           1546         151.00       657.82
   12.54        2974.00           1549         131.00       570.63
   12.57        2974.25           1552         121.00       527.04
   12.60        2974.50           1556         120.00       522.68
   12.63        2974.75           1559         121.00       527.04
   12.66        2975.00           1562         107.00       466.00
   12.68        2975.25           1566         105.00       457.29
   12.71        2975.50           1569         106.00       461.65
   12.75        2975.75           1572         117.00       509.60
   12.78        2976.00           1576         100.00       435.49
   12.81        2976.25           1579         106.00       461.65
   12.83        2976.50           1582         105.00       457.29
   12.86        2976.75           1586         105.00       457.29
   12.89        2977.00           1589         110.00       479.08
   12.92        2977.25           1592         109.00       474.72
   12.94        2977.50           1596         115.00       500.88
   12.97        2977.75           1599         109.00       474.72
   13.00        2978.00           1602         113.00       492.16
   13.03        2978.25           1606         113.00       492.16
   13.05        2978.50           1609         109.00       474.72
   13.08        2978.75           1612         101.00       439.85
   13.11        2979.00           1616         108.00       470.36
   13.14        2979.25           1619         101.00       439.85
   13.17        2979.50           1623         103.00       448.57
   13.20        2979.75           1626         100.00       435.49
   13.22        2980.00           1629         113.00       492.16
   13.25        2980.25           1633         110.00       479.08
   13.28        2980.50           1636         105.00       457.29
   13.31        2980.75           1639         102.00       444.21
   13.34        2981.00           1643          97.00       422.41
   13.37        2981.25           1646         107.00       466.00
   13.40        2981.50           1649         102.00       444.21
   13.43        2981.75           1653         100.00       435.49
   13.45        2982.00           1656         106.00       461.65
   13.48        2982.25           1659          99.00       431.13
