************************************************************
  HS Scan of (1) Internal mercury lamp
************************************************************
Integration time is 0.2294 seconds per sample
dh190518Delft 52.017-4.35 2.535944pr1000
************************************************************
Dead Time -------------------------  2.7E-08 
Number of Cycles Used -------------  4 
Starting Wavelength (Angstroms) ---  2950 
Final Wavelength (Angstoms) -------  2984 
Wavelength Increment (Angstroms) --  .25 
Filter Wheel #1 Position ---------- (1) Ground quartz diffuser (ND=2.32)
Filter Wheel #2 Position ---------- (1) Neutral Density 0.494



************************************************************
HS scan start time = 00:32:36
Dark Count =  0 


Time (GMT)  Wavelength (Ang)  Step Number  Raw Counts  Counts/Second

   33.05        2950.00           1229         130.00       566.70
   33.15        2950.25           1232         124.00       540.55
   33.18        2950.50           1236         127.00       553.63
   33.21        2950.75           1239         137.00       597.22
   33.24        2951.00           1242         126.00       549.27
   33.27        2951.25           1246         126.00       549.27
   33.29        2951.50           1249         125.00       544.91
   33.32        2951.75           1252         119.00       518.75
   33.35        2952.00           1256         129.00       562.35
   33.38        2952.25           1259         122.00       531.83
   33.41        2952.50           1262         122.00       531.83
   33.43        2952.75           1266         126.00       549.27
   33.46        2953.00           1269         124.00       540.55
   33.49        2953.25           1272         129.00       562.35
   33.52        2953.50           1276         129.00       562.35
   33.55        2953.75           1279         123.00       536.19
   33.57        2954.00           1282         128.00       557.99
   33.60        2954.25           1286         110.00       479.52
   33.63        2954.50           1289         121.00       527.47
   33.66        2954.75           1292         110.00       479.52
   33.69        2955.00           1296         128.00       557.99
   33.71        2955.25           1299         120.00       523.11
   33.74        2955.50           1302         126.00       549.27
   33.77        2955.75           1306         127.00       553.63
   33.80        2956.00           1309         114.00       496.96
   33.83        2956.25           1312         126.00       549.27
   33.86        2956.50           1316         117.00       510.03
   33.88        2956.75           1319         118.00       514.39
   33.91        2957.00           1322         114.00       496.96
   33.94        2957.25           1326         126.00       549.27
   33.97        2957.50           1329         114.00       496.96
   34.00        2957.75           1332         114.00       496.96
   34.02        2958.00           1336         129.00       562.35
   34.05        2958.25           1339         117.00       510.03
   34.08        2958.50           1342         123.00       536.19
   34.11        2958.75           1345         122.00       531.83
   34.14        2959.00           1349         118.00       514.39
   34.16        2959.25           1352         119.00       518.75
   34.19        2959.50           1355         119.00       518.75
   34.22        2959.75           1359         135.00       588.50
   34.25        2960.00           1362         117.00       510.03
   34.28        2960.25           1365         125.00       544.91
   34.31        2960.50           1369         127.00       553.63
   34.33        2960.75           1372         135.00       588.50
   34.36        2961.00           1375         137.00       597.22
   34.39        2961.25           1379         147.00       640.81
   34.42        2961.50           1382         180.00       784.67
   34.45        2961.75           1385         458.00      1996.62
   34.47        2962.00           1389        1936.00      8441.33
   34.50        2962.25           1392        3778.00     16476.38
   34.53        2962.50           1395        5919.00     25820.09
   34.56        2962.75           1399        8765.00     38247.85
   34.59        2963.00           1402       10881.00     47493.30
   34.61        2963.25           1405       13380.00     58418.14
   34.64        2963.50           1409       16716.00     73012.15
   34.67        2963.75           1412       19312.00     84376.84
   34.70        2964.00           1415       21847.00     95481.24
   34.73        2964.25           1419       24619.00    107631.40
   34.76        2964.50           1422       27082.00    118433.90
   34.78        2964.75           1425       29645.00    129681.70
   34.81        2965.00           1429       32837.00    143699.40
   34.84        2965.25           1432       35379.00    154870.30
   34.87        2965.50           1435       37691.00    165036.30
   34.90        2965.75           1439       40217.00    176149.70
   34.93        2966.00           1442       42567.00    186494.70
   34.95        2966.25           1445       45267.00    198387.60
   34.98        2966.50           1449       48196.00    211298.00
   35.01        2966.75           1452       49558.00    217304.40
   35.04        2967.00           1455       50279.00    220484.80
   35.07        2967.25           1459       50422.00    221115.70
   35.10        2967.50           1462       50361.00    220846.50
   35.12        2967.75           1465       50406.00    221045.10
   35.15        2968.00           1469       49308.00    216201.70
   35.18        2968.25           1472       47968.00    210292.70
   35.21        2968.50           1475       46402.00    203389.40
   35.24        2968.75           1479       43749.00    191700.20
   35.26        2969.00           1482       41642.00    182422.00
   35.29        2969.25           1485       39295.00    172092.50
   35.32        2969.50           1489       35695.00    156259.40
   35.35        2969.75           1492       33791.00    147891.00
   35.38        2970.00           1495       31585.00    138200.00
   35.41        2970.25           1499       28243.00    123528.10
   35.43        2970.50           1502       25793.00    112779.70
   35.46        2970.75           1505       23355.00    102090.10
   35.49        2971.00           1509       20205.00     88287.80
   35.52        2971.25           1512       18275.00     79836.25
   35.55        2971.50           1515       16130.00     70447.74
   35.58        2971.75           1519       13478.00     58846.70
   35.60        2972.00           1522       10838.00     47305.37
   35.63        2972.25           1525        8452.00     36880.65
   35.66        2972.50           1529        5405.00     23576.47
   35.69        2972.75           1532        3126.00     13631.87
   35.72        2973.00           1535        1579.00      6884.45
   35.74        2973.25           1539         467.00      2035.86
   35.77        2973.50           1542         204.00       889.30
   35.80        2973.75           1546         144.00       627.74
   35.83        2974.00           1549         147.00       640.81
   35.86        2974.25           1552         135.00       588.50
   35.88        2974.50           1556         122.00       531.83
   35.91        2974.75           1559         133.00       579.78
   35.94        2975.00           1562         121.00       527.47
   35.97        2975.25           1566         118.00       514.39
   36.00        2975.50           1569         100.00       435.92
   36.02        2975.75           1572         104.00       453.36
   36.05        2976.00           1576         111.00       483.88
   36.08        2976.25           1579         109.00       475.16
   36.11        2976.50           1582         117.00       510.03
   36.14        2976.75           1586          99.00       431.57
   36.16        2977.00           1589         108.00       470.80
   36.19        2977.25           1592         118.00       514.39
   36.22        2977.50           1596         112.00       488.24
   36.25        2977.75           1599         114.00       496.96
   36.28        2978.00           1602         109.00       475.16
   36.31        2978.25           1606         110.00       479.52
   36.33        2978.50           1609         110.00       479.52
   36.36        2978.75           1612         106.00       462.08
   36.39        2979.00           1616         121.00       527.47
   36.42        2979.25           1619         112.00       488.24
   36.45        2979.50           1622         112.00       488.24
   36.47        2979.75           1626         106.00       462.08
   36.50        2980.00           1629         102.00       444.64
   36.53        2980.25           1632          91.00       396.69
   36.56        2980.50           1636         105.00       457.72
   36.59        2980.75           1639         109.00       475.16
   36.61        2981.00           1642         102.00       444.64
   36.64        2981.25           1646         101.00       440.28
   36.67        2981.50           1649         105.00       457.72
   36.70        2981.75           1653          92.00       401.05
   36.73        2982.00           1656          98.00       427.21
   36.75        2982.25           1659         107.00       466.44
   36.78        2982.50           1663         109.00       475.16
   36.81        2982.75           1666          92.00       401.05
   36.84        2983.00           1669          97.00       422.85
   36.87        2983.25           1673         109.00       475.16
   36.89        2983.50           1676          94.00       409.77
   36.92        2983.75           1679         103.00       449.00
   36.95        2984.00           1683          94.00       409.77
HS scan finished at 00:37:15
end
************************************************************
  HS Scan of (1) Internal mercury lamp
************************************************************
Integration time is 0.2294 seconds per sample
dh190518Delft 52.017-4.35 2.643241pr1000
************************************************************
Dead Time -------------------------  2.7E-08 
Number of Cycles Used -------------  4 
Starting Wavelength (Angstroms) ---  2950 
Final Wavelength (Angstoms) -------  2984 
Wavelength Increment (Angstroms) --  .25 
Filter Wheel #1 Position ---------- (1) Ground quartz diffuser (ND=2.32)
Filter Wheel #2 Position ---------- (1) Neutral Density 0.494



************************************************************
HS scan start time = 01:38:22
Dark Count =  .1 


Time (GMT)  Wavelength (Ang)  Step Number  Raw Counts  Counts/Second

   98.83        2950.00           1229         125.00       544.47
   98.93        2950.25           1232         130.00       566.27
   98.95        2950.50           1236         121.00       527.03
   98.98        2950.75           1239         125.00       544.47
   99.01        2951.00           1242         127.00       553.19
   99.04        2951.25           1246         129.00       561.91
   99.07        2951.50           1249         117.00       509.60
   99.09        2951.75           1252         121.00       527.03
   99.12        2952.00           1256         114.00       496.52
   99.15        2952.25           1259         123.00       535.75
   99.18        2952.50           1262         110.00       479.08
   99.21        2952.75           1266         132.00       574.99
   99.23        2953.00           1269         124.00       540.11
   99.26        2953.25           1272         126.00       548.83
   99.29        2953.50           1276         121.00       527.03
   99.32        2953.75           1279         125.00       544.47
   99.35        2954.00           1282         123.00       535.75
   99.37        2954.25           1286         113.00       492.16
   99.40        2954.50           1289         108.00       470.36
   99.43        2954.75           1292         110.00       479.08
   99.46        2955.00           1296         128.00       557.55
   99.49        2955.25           1299         122.00       531.39
   99.51        2955.50           1302         116.00       505.24
   99.54        2955.75           1306         120.00       522.68
   99.57        2956.00           1309         117.00       509.60
   99.60        2956.25           1312         115.00       500.88
   99.63        2956.50           1316         125.00       544.47
   99.65        2956.75           1319         126.00       548.83
   99.68        2957.00           1322         113.00       492.16
   99.71        2957.25           1326         120.00       522.68
   99.74        2957.50           1329         113.00       492.16
   99.77        2957.75           1332         113.00       492.16
   99.79        2958.00           1336         121.00       527.03
   99.82        2958.25           1339         113.00       492.16
   99.85        2958.50           1342         117.00       509.60
   99.88        2958.75           1345         122.00       531.39
   99.91        2959.00           1349         118.00       513.96
   99.93        2959.25           1352         117.00       509.60
   99.96        2959.50           1355         114.00       496.52
   99.99        2959.75           1359         116.00       505.24
  100.02        2960.00           1362         119.00       518.32
  100.05        2960.25           1365         117.00       509.60
  100.07        2960.50           1369         105.00       457.29
  100.10        2960.75           1372         132.00       574.99
  100.13        2961.00           1375         141.00       614.22
  100.16        2961.25           1379         138.00       601.14
  100.19        2961.50           1382         199.00       867.06
  100.22        2961.75           1385         607.00      2645.79
  100.24        2962.00           1389        2199.00      9587.92
  100.27        2962.25           1392        3751.00     16358.14
  100.30        2962.50           1395        5662.00     24697.81
  100.33        2962.75           1399        8911.00     38885.18
  100.36        2963.00           1402       11838.00     51675.80
  100.39        2963.25           1405       14477.00     63215.48
  100.41        2963.50           1409       17794.00     77730.10
  100.44        2963.75           1412       20208.00     88300.51
  100.47        2964.00           1415       22762.00     99490.53
  100.50        2964.25           1419       26182.00    114485.40
  100.53        2964.50           1422       29076.00    127183.60
  100.55        2964.75           1425       31680.00    138616.80
  100.58        2965.00           1429       34391.00    150527.30
  100.61        2965.25           1432       36972.00    161873.80
  100.64        2965.50           1435       39594.00    173407.60
  100.67        2965.75           1439       42553.00    186432.60
  100.69        2966.00           1442       44868.00    196629.20
  100.72        2966.25           1445       47956.00    210239.30
  100.75        2966.50           1449       51106.00    224133.00
  100.78        2966.75           1452       52246.00    229163.80
  100.81        2967.00           1455       52866.00    231900.40
  100.83        2967.25           1459       52896.00    232032.80
  100.86        2967.50           1462       52815.00    231675.30
  100.89        2967.75           1465       52933.00    232196.20
  100.92        2968.00           1469       52035.00    228232.60
  100.95        2968.25           1472       50772.00    222659.40
  100.98        2968.50           1475       48703.00    213533.10
  101.00        2968.75           1479       45371.00    198845.40
  101.03        2969.00           1482       42825.00    187630.40
  101.06        2969.25           1485       40877.00    179054.10
  101.09        2969.50           1489       37759.00    165334.90
  101.12        2969.75           1492       35010.00    153247.90
  101.14        2970.00           1495       32801.00    143540.90
  101.17        2970.25           1499       29236.00    127885.90
  101.20        2970.50           1502       27265.00    119236.40
  101.23        2970.75           1505       24815.00    108490.40
  101.26        2971.00           1509       21828.00     95397.55
  101.28        2971.25           1512       19313.00     84380.78
  101.31        2971.50           1515       16768.00     73239.29
  101.34        2971.75           1519       13452.00     58732.56
  101.37        2972.00           1522       10996.00     47995.47
  101.40        2972.25           1525        8599.00     37522.31
  101.42        2972.50           1529        5504.00     24008.15
  101.45        2972.75           1532        3215.00     14019.69
  101.48        2973.00           1535        1518.00      6618.01
  101.51        2973.25           1539         543.00      2366.76
  101.54        2973.50           1542         239.00      1041.44
  101.56        2973.75           1546         163.00       710.13
  101.59        2974.00           1549         134.00       583.71
  101.62        2974.25           1552         148.00       644.74
  101.65        2974.50           1556         132.00       574.99
  101.68        2974.75           1559         122.00       531.39
  101.70        2975.00           1562         105.00       457.29
  101.73        2975.25           1566         117.00       509.60
  101.76        2975.50           1569         103.00       448.57
  101.79        2975.75           1572         110.00       479.08
  101.82        2976.00           1576         118.00       513.96
  101.84        2976.25           1579         110.00       479.08
  101.87        2976.50           1582         103.00       448.57
  101.90        2976.75           1586         108.00       470.36
  101.93        2977.00           1589         107.00       466.00
  101.96        2977.25           1592         105.00       457.29
  101.98        2977.50           1596          99.00       431.13
  102.01        2977.75           1599         103.00       448.57
  102.04        2978.00           1602         108.00       470.36
  102.07        2978.25           1606         103.00       448.57
  102.10        2978.50           1609          99.00       431.13
  102.12        2978.75           1612          99.00       431.13
  102.15        2979.00           1616         105.00       457.29
  102.18        2979.25           1619         105.00       457.29
  102.21        2979.50           1622         117.00       509.60
  102.24        2979.75           1626         105.00       457.29
  102.26        2980.00           1629         100.00       435.49
  102.29        2980.25           1632         104.00       452.93
  102.32        2980.50           1636         108.00       470.36
  102.35        2980.75           1639         104.00       452.93
  102.38        2981.00           1642          96.00       418.05
  102.41        2981.25           1646          98.00       426.77
  102.43        2981.50           1649         115.00       500.88
  102.46        2981.75           1653         114.00       496.52
  102.49        2982.00           1656         110.00       479.08
  102.52        2982.25           1659         103.00       448.57
