************************************************************
HS Scan of 
************************************************************
Integration time is 0.2294 seconds per sample
dh18619El Arenosillo 37.1  6.73  2.8pr1000
************************************************************
Dead Time -------------------------  2.8E-8
Number of Cycles Used -------------  4
Starting Wavelength (Angstroms) ---  2950
Final Wavelength (Angstoms) -------  2984
Wavelength Increment (Angstroms) --  0.25
Filter Wheel #1 Position ---------- (1) Ground quartz diffuser (ND = 2.32)
Filter Wheel #2 Position ---------- (1) Neutral density 0.494
 
 
 
************************************************************
HS scan start time = 3:59:47
Dark Count =  0.05
 
 
Time (GMT)  Wavelength (Ang)  Step Number  Raw Counts  Counts/Second
 
236.05         2950           1232           106.00         462.08         
236.08         2950           1236           117.00         510.03         
236.11         2951           1239           113.00         492.60         
236.14         2951           1242           105.00         457.72         
236.16         2951           1246           106.00         462.08         
236.19         2951           1249           100.00         435.93         
236.22         2952           1252           109.00         475.16         
236.25         2952           1256           106.00         462.08         
236.27         2952           1259           116.00         505.67         
236.30         2952           1262           110.00         479.52         
236.33         2953           1265           110.00         479.52         
236.36         2953           1269           110.00         479.52         
236.38         2953           1272           109.00         475.16         
236.41         2953           1275           118.00         514.39         
236.44         2954           1279           118.00         514.39         
236.47         2954           1282           116.00         505.67         
236.49         2954           1285           105.00         457.72         
236.52         2954           1289           120.00         523.11         
236.55         2955           1292           116.00         505.67         
236.58         2955           1295           110.00         479.52         
236.60         2955           1299           107.00         466.44         
236.63         2955           1302           104.00         453.36         
236.66         2956           1305           100.00         435.93         
236.69         2956           1309           106.00         462.08         
236.71         2956           1312           113.00         492.60         
236.74         2956           1315           110.00         479.52         
236.77         2957           1318           125.00         544.91         
236.80         2957           1322           101.00         440.28         
236.82         2957           1325           99.00          431.57         
236.85         2957           1328           109.00         475.16         
236.88         2958           1332           114.00         496.96         
236.91         2958           1335           112.00         488.24         
236.93         2958           1338           115.00         501.31         
236.96         2958           1342           105.00         457.72         
236.99         2959           1345           113.00         492.60         
237.02         2959           1348           108.00         470.80         
237.04         2959           1352           114.00         496.96         
237.07         2959           1355           111.00         483.88         
237.10         2960           1358           100.00         435.93         
237.13         2960           1362           115.00         501.31         
237.15         2960           1365           107.00         466.44         
237.18         2960           1368           125.00         544.91         
237.21         2961           1372           106.00         462.08         
237.24         2961           1375           129.00         562.35         
237.26         2961           1378           138.00         601.58         
237.29         2961           1382           164.00         714.92         
237.32         2962           1385           378.00         1647.85        
237.35         2962           1388           1199.00        5227.44        
237.37         2962           1391           3051.00        13304.87       
237.40         2962           1395           6602.00        28802.64       
237.43         2963           1398           9594.00        41871.21       
237.46         2963           1401           12914.00       56383.63       
237.48         2963           1405           16360.00       71459.31       
237.51         2963           1408           19518.00       85286.25       
237.54         2964           1411           22964.00       100386.39      
237.57         2964           1415           27335.00       119558.24      
237.59         2964           1418           30979.00       135557.14      
237.62         2964           1421           34004.00       148849.25      
237.65         2965           1425           37647.00       164870.07      
237.67         2965           1428           40858.00       179003.04      
237.70         2965           1431           44298.00       194156.39      
237.73         2965           1435           49203.00       215785.46      
237.76         2966           1438           51861.00       227517.15      
237.78         2966           1441           54664.00       239897.21      
237.81         2966           1445           58539.00       257026.20      
237.84         2966           1448           61941.00       272077.94      
237.87         2967           1451           64659.00       284112.57      
237.89         2967           1455           66769.00       293460.74      
237.92         2967           1458           67203.00       295384.15      
237.95         2967           1461           67417.00       296332.64      
237.98         2968           1465           67248.00       295583.60      
238.00         2968           1468           66873.00       293921.63      
238.03         2968           1471           65380.00       287306.35      
238.06         2968           1475           62834.00       276031.03      
238.09         2969           1478           60196.00       264355.80      
238.12         2969           1481           57847.00       253966.08      
238.14         2969           1485           53924.00       236628.00      
238.17         2969           1488           50697.00       222378.62      
238.20         2970           1491           47685.00       209088.88      
238.23         2970           1495           43302.00       189767.64      
238.25         2970           1498           40356.00       176792.79      
238.28         2970           1501           37273.00       163224.67      
238.31         2971           1505           32827.00       143676.23      
238.34         2971           1508           29619.00       129584.41      
238.36         2971           1511           26112.00       114191.91      
238.39         2971           1515           22441.00       98093.82       
238.42         2972           1518           19666.00       85934.51       
238.45         2972           1521           16774.00       73271.35       
238.47         2972           1525           12775.00       55775.79       
238.50         2972           1528           9440.00        41198.33       
238.53         2973           1531           6519.00        28440.25       
238.56         2973           1535           2700.00        11773.72       
238.58         2973           1538           1125.00        4904.77        
238.61         2973           1541           413.00         1800.44        
238.64         2974           1544           201.00         876.22         
238.67         2974           1548           160.00         697.49         
238.69         2974           1551           142.00         619.02         
238.72         2974           1554           147.00         640.81         
238.75         2975           1558           122.00         531.83         
238.78         2975           1561           128.00         557.99         
238.80         2975           1564           106.00         462.08         
238.83         2975           1568           107.00         466.44         
238.86         2976           1571           106.00         462.08         
238.89         2976           1574           107.00         466.44         
238.91         2976           1578           111.00         483.88         
238.94         2976           1581           108.00         470.80         
238.97         2977           1584           110.00         479.52         
239.00         2977           1588           117.00         510.03         
239.02         2977           1591           103.00         449.00         
239.05         2977           1595           112.00         488.24         
239.08         2978           1598           115.00         501.31         
239.11         2978           1601           103.00         449.00         
239.13         2978           1605           105.00         457.72         
239.16         2978           1608           103.00         449.00         
239.19         2979           1611           106.00         462.08         
239.22         2979           1615           103.00         449.00         
239.24         2979           1618           101.00         440.28         
239.27         2979           1621           100.00         435.93         
239.30         2980           1625           96.00          418.49         
239.33         2980           1628           111.00         483.88         
239.35         2980           1631           102.00         444.64         
239.38         2980           1635           100.00         435.93         
239.41         2981           1638           113.00         492.60         
239.44         2981           1641           95.00          414.13         
239.46         2981           1645           97.00          422.85         
239.49         2981           1648           96.00          418.49         
239.52         2982           1651           99.00          431.57         
239.55         2982           1655           105.00         457.72         
239.57         2982           1658           101.00         440.28         
239.60         2982           1661           98.00          427.21         
239.63         2983           1665           107.00         466.44         
239.65         2983           1668           98.00          427.21         
239.68         2983           1671           101.00         440.28         
239.71         2983           1675           101.00         440.28         
239.74         2984           1678           93.00          405.41         
239.76         2984           1681           97.00          422.85         
239.79         2984           1685           94.00          409.77         
HS scan finished at 3:59:47
end
