************************************************************
HS Scan of 
************************************************************
Integration time is 0.2294 seconds per sample
dh19619El Arenosillo 37.1  6.73  2.99pr1000
************************************************************
Dead Time -------------------------  2.8E-8
Number of Cycles Used -------------  4
Starting Wavelength (Angstroms) ---  2950
Final Wavelength (Angstoms) -------  2984
Wavelength Increment (Angstroms) --  0.25
Filter Wheel #1 Position ---------- (1) Ground quartz diffuser (ND = 2.32)
Filter Wheel #2 Position ---------- (1) Neutral density 0.494
 
 
 
************************************************************
HS scan start time = 4:00:02
Dark Count =  0
 
 
Time (GMT)  Wavelength (Ang)  Step Number  Raw Counts  Counts/Second
 
236.26         2950           1232           101.00         440.28         
236.29         2950           1236           92.00          401.05         
236.31         2951           1239           102.00         444.64         
236.34         2951           1242           109.00         475.16         
236.37         2951           1246           100.00         435.93         
236.40         2951           1249           100.00         435.93         
236.42         2952           1252           88.00          383.61         
236.45         2952           1256           95.00          414.13         
236.48         2952           1259           105.00         457.72         
236.51         2952           1262           109.00         475.16         
236.54         2953           1265           100.00         435.93         
236.56         2953           1269           97.00          422.85         
236.59         2953           1272           98.00          427.21         
236.62         2953           1275           97.00          422.85         
236.65         2954           1279           103.00         449.00         
236.67         2954           1282           98.00          427.21         
236.70         2954           1285           100.00         435.93         
236.73         2954           1289           104.00         453.36         
236.76         2955           1292           100.00         435.93         
236.79         2955           1295           99.00          431.57         
236.81         2955           1299           109.00         475.16         
236.84         2955           1302           101.00         440.28         
236.87         2956           1305           96.00          418.49         
236.90         2956           1309           95.00          414.13         
236.92         2956           1312           99.00          431.57         
236.95         2956           1315           99.00          431.57         
236.98         2957           1318           97.00          422.85         
237.01         2957           1322           97.00          422.85         
237.03         2957           1325           108.00         470.80         
237.06         2957           1328           105.00         457.72         
237.09         2958           1332           102.00         444.64         
237.12         2958           1335           97.00          422.85         
237.15         2958           1338           101.00         440.28         
237.17         2958           1342           95.00          414.13         
237.20         2959           1345           100.00         435.93         
237.23         2959           1348           99.00          431.57         
237.26         2959           1352           104.00         453.36         
237.29         2959           1355           104.00         453.36         
237.31         2960           1358           102.00         444.64         
237.34         2960           1362           110.00         479.52         
237.37         2960           1365           103.00         449.00         
237.40         2960           1368           100.00         435.93         
237.42         2961           1372           108.00         470.80         
237.45         2961           1375           111.00         483.88         
237.48         2961           1378           129.00         562.35         
237.51         2961           1382           159.00         693.13         
237.54         2962           1385           378.00         1647.85        
237.56         2962           1388           1167.00        5087.91        
237.59         2962           1391           2972.00        12960.24       
237.62         2962           1395           6770.00        29536.19       
237.65         2963           1398           9562.00        41731.38       
237.68         2963           1401           12404.00       54153.54       
237.70         2963           1405           16575.00       72400.33       
237.73         2963           1408           20120.00       87923.25       
237.76         2964           1411           23650.00       103393.93      
237.79         2964           1415           28102.00       122924.54      
237.81         2964           1418           31249.00       136743.14      
237.84         2964           1421           34146.00       149473.45      
237.87         2965           1425           38794.00       169917.22      
237.90         2965           1428           42322.00       185450.45      
237.93         2965           1431           45434.00       199163.36      
237.95         2965           1435           49745.00       218177.07      
237.98         2966           1438           53401.00       234317.83      
238.01         2966           1441           56314.00       247188.83      
238.04         2966           1445           60490.00       265656.61      
238.07         2966           1448           63710.00       279909.71      
238.09         2967           1451           65761.00       288994.27      
238.12         2967           1455           67582.00       297063.98      
238.15         2967           1458           67636.00       297303.34      
238.18         2967           1461           68187.00       299745.83      
238.20         2968           1465           67922.00       298571.09      
238.23         2968           1468           67302.00       295822.93      
238.26         2968           1471           65915.00       289676.58      
238.29         2968           1475           63542.00       279165.79      
238.32         2969           1478           60587.00       266085.80      
238.34         2969           1481           57727.00       253435.48      
238.37         2969           1485           53844.00       236274.61      
238.40         2969           1488           50737.00       222555.17      
238.43         2970           1491           47411.00       207880.42      
238.46         2970           1495           44176.00       193618.76      
238.48         2970           1498           41100.00       180068.64      
238.51         2970           1501           38193.00       167272.46      
238.54         2971           1505           33379.00       146102.13      
238.57         2971           1508           29847.00       130585.58      
238.60         2971           1511           26396.00       115437.91      
238.62         2971           1515           22121.00       96691.24       
238.65         2972           1518           19491.00       85167.98       
238.68         2972           1521           16371.00       71507.46       
238.71         2972           1525           12037.00       52548.93       
238.73         2972           1528           9047.00        39481.28       
238.76         2973           1531           6400.00        27920.69       
238.79         2973           1535           3068.00        13379.03       
238.82         2973           1538           1243.00        5419.31        
238.85         2973           1541           402.00         1752.48        
238.87         2974           1544           185.00         806.47         
238.90         2974           1548           155.00         675.69         
238.93         2974           1551           140.00         610.30         
238.96         2974           1554           127.00         553.63         
238.98         2975           1558           128.00         557.99         
239.01         2975           1561           108.00         470.80         
239.04         2975           1564           105.00         457.72         
239.07         2975           1568           95.00          414.13         
239.09         2976           1571           104.00         453.36         
239.12         2976           1574           104.00         453.36         
239.15         2976           1578           101.00         440.28         
239.18         2976           1581           98.00          427.21         
239.20         2977           1584           104.00         453.36         
239.23         2977           1588           92.00          401.05         
239.26         2977           1591           98.00          427.21         
239.29         2977           1595           104.00         453.36         
239.32         2978           1598           88.00          383.61         
239.34         2978           1601           100.00         435.93         
239.37         2978           1605           97.00          422.85         
239.40         2978           1608           99.00          431.57         
239.43         2979           1611           100.00         435.93         
239.45         2979           1615           94.00          409.77         
239.48         2979           1618           96.00          418.49         
239.51         2979           1621           94.00          409.77         
239.54         2980           1625           89.00          387.97         
239.56         2980           1628           93.00          405.41         
239.59         2980           1631           90.00          392.33         
239.62         2980           1635           98.00          427.21         
239.65         2981           1638           93.00          405.41         
239.68         2981           1641           100.00         435.93         
239.70         2981           1645           95.00          414.13         
239.73         2981           1648           93.00          405.41         
239.76         2982           1651           97.00          422.85         
239.79         2982           1655           89.00          387.97         
239.82         2982           1658           90.00          392.33         
239.84         2982           1661           90.00          392.33         
239.87         2983           1665           89.00          387.97         
239.90         2983           1668           86.00          374.89         
239.93         2983           1671           92.00          401.05         
239.95         2983           1675           88.00          383.61         
239.98         2984           1678           86.00          374.89         
240.01         2984           1681           91.00          396.69         
240.04         2984           1685           88.00          383.61         
HS scan finished at 4:00:02
end
