************************************************************
HS Scan of 
************************************************************
Integration time is 0.2294 seconds per sample
dh24619El Arenosillo 37.1  6.73  3.02pr1000
************************************************************
Dead Time -------------------------  3E-8
Number of Cycles Used -------------  4
Starting Wavelength (Angstroms) ---  2950
Final Wavelength (Angstoms) -------  2984
Wavelength Increment (Angstroms) --  0.25
Filter Wheel #1 Position ---------- (1) Ground quartz diffuser (ND = 2.32)
Filter Wheel #2 Position ---------- (1) Neutral density 0.494
 
 
 
************************************************************
HS scan start time = 2:01:16
Dark Count =  0.05
 
 
Time (GMT)  Wavelength (Ang)  Step Number  Raw Counts  Counts/Second
 
117.53         2950           1232           132.00         575.42         
117.56         2950           1236           123.00         536.19         
117.59         2951           1239           120.00         523.11         
117.62         2951           1242           117.00         510.03         
117.64         2951           1246           130.00         566.71         
117.67         2951           1249           122.00         531.83         
117.70         2952           1252           128.00         557.99         
117.73         2952           1256           120.00         523.11         
117.75         2952           1259           125.00         544.91         
117.78         2952           1262           124.00         540.55         
117.81         2953           1266           110.00         479.52         
117.84         2953           1269           130.00         566.71         
117.86         2953           1272           129.00         562.35         
117.89         2953           1276           123.00         536.19         
117.92         2954           1279           122.00         531.83         
117.95         2954           1282           126.00         549.27         
117.97         2954           1285           125.00         544.91         
118.00         2954           1289           128.00         557.99         
118.03         2955           1292           121.00         527.47         
118.06         2955           1295           131.00         571.06         
118.08         2955           1299           119.00         518.75         
118.11         2955           1302           132.00         575.42         
118.14         2956           1305           130.00         566.71         
118.17         2956           1309           122.00         531.83         
118.19         2956           1312           118.00         514.39         
118.22         2956           1315           120.00         523.11         
118.25         2957           1319           124.00         540.55         
118.28         2957           1322           119.00         518.75         
118.30         2957           1325           121.00         527.47         
118.33         2957           1329           117.00         510.03         
118.36         2958           1332           123.00         536.19         
118.39         2958           1335           124.00         540.55         
118.41         2958           1339           126.00         549.27         
118.44         2958           1342           128.00         557.99         
118.47         2959           1345           116.00         505.67         
118.50         2959           1349           112.00         488.24         
118.52         2959           1352           114.00         496.96         
118.55         2959           1355           131.00         571.06         
118.58         2960           1358           115.00         501.32         
118.61         2960           1362           130.00         566.71         
118.63         2960           1365           123.00         536.19         
118.66         2960           1368           118.00         514.39         
118.69         2961           1372           130.00         566.71         
118.72         2961           1375           147.00         640.81         
118.74         2961           1378           142.00         619.02         
118.77         2961           1382           166.00         723.64         
118.80         2962           1385           278.00         1211.90        
118.83         2962           1388           1137.00        4957.15        
118.85         2962           1392           3867.00        16865.55       
118.88         2962           1395           7037.00        30703.94       
118.91         2963           1398           10660.00       46533.97       
118.93         2963           1402           15019.00       65599.77       
118.96         2963           1405           17873.00       78094.69       
118.99         2963           1408           20944.00       91550.14       
119.02         2964           1412           25383.00       111018.66      
119.05         2964           1415           29339.00       128388.06      
119.07         2964           1418           32782.00       143519.84      
119.10         2964           1422           36998.00       162067.67      
119.13         2965           1425           40507.00       177520.93      
119.16         2965           1428           44005.00       192940.05      
119.18         2965           1432           49346.00       216510.73      
119.21         2965           1435           53145.00       233296.69      
119.24         2966           1438           56236.00       246966.87      
119.27         2966           1442           60829.00       267300.57      
119.29         2966           1445           64235.00       282395.39      
119.32         2966           1448           68063.00       299376.84      
119.35         2967           1452           71342.00       313936.71      
119.38         2967           1455           72807.00       320445.93      
119.40         2967           1458           73339.00       322810.32      
119.43         2967           1462           73511.00       323574.82      
119.46         2968           1465           73582.00       323890.41      
119.49         2968           1468           73361.00       322908.10      
119.51         2968           1472           71458.00       314452.02      
119.54         2968           1475           69246.00       304628.29      
119.57         2969           1478           66422.00       292095.05      
119.60         2969           1482           62653.00       275382.52      
119.62         2969           1485           58953.00       258992.31      
119.65         2969           1488           55714.00       244657.50      
119.68         2970           1492           50593.00       222018.76      
119.71         2970           1495           47146.00       206797.73      
119.73         2970           1498           43965.00       192763.65      
119.76         2970           1502           39700.00       173965.71      
119.79         2971           1505           36341.00       159175.91      
119.82         2971           1508           33094.00       144891.74      
119.84         2971           1512           28717.00       125655.88      
119.87         2971           1515           25997.00       113713.33      
119.90         2972           1518           22592.00       98775.26       
119.93         2972           1522           18557.00       81090.67       
119.95         2972           1525           14726.00       64317.53       
119.98         2972           1528           10963.00       47858.55       
120.01         2973           1532           6062.00        26446.43       
120.04         2973           1535           3024.00        13187.43       
120.07         2973           1538           1202.00        5240.58        
120.09         2973           1542           316.00         1377.56        
120.12         2974           1545           186.00         810.83         
120.15         2974           1548           168.00         732.36         
120.18         2974           1552           148.00         645.17         
120.20         2974           1555           150.00         653.89         
120.23         2975           1558           145.00         632.10         
120.26         2975           1562           128.00         557.99         
120.29         2975           1565           121.00         527.47         
120.31         2975           1568           122.00         531.83         
120.34         2976           1572           119.00         518.75         
120.37         2976           1575           114.00         496.96         
120.39         2976           1578           111.00         483.88         
120.42         2976           1582           109.00         475.16         
120.45         2977           1585           110.00         479.52         
120.48         2977           1588           108.00         470.80         
120.50         2977           1592           113.00         492.60         
120.53         2977           1595           108.00         470.80         
120.56         2978           1598           117.00         510.03         
120.59         2978           1602           108.00         470.80         
120.61         2978           1605           116.00         505.67         
120.64         2978           1608           110.00         479.52         
120.67         2979           1612           107.00         466.44         
120.70         2979           1615           113.00         492.60         
120.73         2979           1618           105.00         457.72         
120.75         2979           1622           112.00         488.24         
120.78         2980           1625           103.00         449.00         
120.81         2980           1628           111.00         483.88         
120.83         2980           1632           100.00         435.93         
120.86         2980           1635           115.00         501.32         
120.89         2981           1638           110.00         479.52         
120.92         2981           1642           103.00         449.00         
120.94         2981           1645           111.00         483.88         
120.97         2981           1648           106.00         462.08         
121.00         2982           1652           105.00         457.72         
121.03         2982           1655           101.00         440.28         
121.05         2982           1658           108.00         470.80         
121.08         2982           1662           99.00          431.57         
121.11         2983           1665           105.00         457.72         
121.14         2983           1668           108.00         470.80         
121.16         2983           1672           107.00         466.44         
121.19         2983           1675           104.00         453.36         
121.22         2984           1678           107.00         466.44         
121.25         2984           1682           97.00          422.85         
121.27         2984           1685           103.00         449.00         
HS scan finished at 2:01:16
end
************************************************************
HS Scan of 
************************************************************
Integration time is 0.2294 seconds per sample
dh24619El Arenosillo 37.1  6.73  3.12pr1000
************************************************************
Dead Time -------------------------  3E-8
Number of Cycles Used -------------  4
Starting Wavelength (Angstroms) ---  2950
Final Wavelength (Angstoms) -------  2984
Wavelength Increment (Angstroms) --  0.25
Filter Wheel #1 Position ---------- (1) Ground quartz diffuser (ND = 2.32)
Filter Wheel #2 Position ---------- (1) Neutral density 0.494
 
 
 
************************************************************
HS scan start time = 20:57:50
Dark Count =  0.1
 
 
Time (GMT)  Wavelength (Ang)  Step Number  Raw Counts  Counts/Second
 
1254.06        2950           1232           135.00         588.50         
1254.09        2950           1236           128.00         557.99         
1254.12        2951           1239           143.00         623.38         
1254.14        2951           1242           129.00         562.35         
1254.17        2951           1246           125.00         544.91         
1254.20        2951           1249           140.00         610.30         
1254.23        2952           1252           142.00         619.02         
1254.25        2952           1256           144.00         627.74         
1254.28        2952           1259           137.00         597.22         
1254.31        2952           1262           139.00         605.94         
1254.34        2953           1266           141.00         614.66         
1254.37        2953           1269           134.00         584.14         
1254.39        2953           1272           140.00         610.30         
1254.42        2953           1276           144.00         627.74         
1254.45        2954           1279           129.00         562.35         
1254.48        2954           1282           136.00         592.86         
1254.50        2954           1285           133.00         579.78         
1254.53        2954           1289           128.00         557.99         
1254.56        2955           1292           128.00         557.99         
1254.59        2955           1295           129.00         562.35         
1254.62        2955           1299           131.00         571.06         
1254.64        2955           1302           133.00         579.78         
1254.67        2956           1305           131.00         571.06         
1254.70        2956           1309           129.00         562.35         
1254.73        2956           1312           138.00         601.58         
1254.76        2956           1315           135.00         588.50         
1254.78        2957           1319           129.00         562.35         
1254.81        2957           1322           123.00         536.19         
1254.84        2957           1325           124.00         540.55         
1254.87        2957           1329           121.00         527.47         
1254.89        2958           1332           130.00         566.71         
1254.92        2958           1335           115.00         501.32         
1254.95        2958           1339           126.00         549.27         
1254.98        2958           1342           122.00         531.83         
1255.01        2959           1345           122.00         531.83         
1255.03        2959           1349           132.00         575.42         
1255.06        2959           1352           123.00         536.19         
1255.09        2959           1355           131.00         571.06         
1255.12        2960           1358           136.00         592.86         
1255.14        2960           1362           125.00         544.91         
1255.17        2960           1365           132.00         575.42         
1255.20        2960           1368           131.00         571.06         
1255.23        2961           1372           134.00         584.14         
1255.25        2961           1375           147.00         640.81         
1255.28        2961           1378           163.00         710.56         
1255.31        2961           1382           183.00         797.75         
1255.34        2962           1385           653.00         2846.80        
1255.37        2962           1388           1937.00        8445.91        
1255.39        2962           1392           4820.00        21024.59       
1255.42        2962           1395           7841.00        34215.57       
1255.45        2963           1398           10690.00       46665.11       
1255.48        2963           1402           14562.00       63599.87       
1255.50        2963           1405           17727.00       77455.27       
1255.53        2963           1408           20790.00       90875.14       
1255.56        2964           1412           24741.00       108201.57      
1255.59        2964           1415           27510.00       120355.31      
1255.62        2964           1418           30442.00       133234.18      
1255.64        2964           1422           34133.00       149461.16      
1255.67        2965           1425           37422.00       163934.16      
1255.70        2965           1428           40931.00       179389.15      
1255.73        2965           1432           45151.00       197994.72      
1255.76        2965           1435           48196.00       211432.77      
1255.78        2966           1438           50910.00       223419.24      
1255.81        2966           1442           55275.00       242715.57      
1255.84        2966           1445           57941.00       254512.18      
1255.87        2966           1448           61338.00       269555.50      
1255.90        2967           1452           63637.00       279744.16      
1255.92        2967           1455           64384.00       283056.04      
1255.95        2967           1458           64721.00       284550.38      
1255.98        2967           1462           64806.00       284927.31      
1256.01        2968           1465           64930.00       285477.20      
1256.04        2968           1468           64416.00       283197.93      
1256.06        2968           1472           62408.00       274296.72      
1256.09        2968           1475           59810.00       262787.20      
1256.12        2969           1478           57144.00       250984.71      
1256.15        2969           1482           53186.00       233477.94      
1256.18        2969           1485           50029.00       219527.33      
1256.20        2969           1488           47364.00       207759.95      
1256.23        2970           1492           43751.00       191819.94      
1256.26        2970           1495           40914.00       179314.24      
1256.29        2970           1498           38387.00       168182.96      
1256.32        2970           1502           34069.00       149179.66      
1256.34        2971           1505           30859.00       135066.67      
1256.37        2971           1508           27703.00       121202.76      
1256.40        2971           1512           23972.00       104827.84      
1256.43        2971           1515           21214.00       92733.65       
1256.46        2972           1518           18116.00       79158.99       
1256.48        2972           1522           13779.00       60173.92       
1256.51        2972           1525           10535.00       45987.55       
1256.54        2972           1528           7578.00        33066.79       
1256.57        2973           1532           3907.00        17040.09       
1256.59        2973           1535           1881.00        8201.67        
1256.62        2973           1538           659.00         2872.96        
1256.65        2973           1542           216.00         941.61         
1256.68        2974           1545           168.00         732.36         
1256.71        2974           1548           165.00         719.28         
1256.73        2974           1552           148.00         645.17         
1256.76        2974           1555           142.00         619.02         
1256.79        2975           1558           120.00         523.11         
1256.82        2975           1562           133.00         579.78         
