************************************************************
HS Scan of 
************************************************************
Integration time is 0.2294 seconds per sample
dh27619El Arenosillo 37.1  6.73  3.03pr1000
************************************************************
Dead Time -------------------------  3E-8
Number of Cycles Used -------------  4
Starting Wavelength (Angstroms) ---  2950
Final Wavelength (Angstoms) -------  2984
Wavelength Increment (Angstroms) --  0.25
Filter Wheel #1 Position ---------- (1) Ground quartz diffuser (ND = 2.32)
Filter Wheel #2 Position ---------- (1) Neutral density 0.494
 
 
 
************************************************************
HS scan start time = 2:03:20
Dark Count =  0.05
 
 
Time (GMT)  Wavelength (Ang)  Step Number  Raw Counts  Counts/Second
 
119.58         2950           1232           147.00         640.81         
119.61         2950           1235           142.00         619.02         
119.64         2951           1238           138.00         601.58         
119.67         2951           1242           129.00         562.35         
119.69         2951           1245           129.00         562.35         
119.72         2951           1248           137.00         597.22         
119.75         2952           1251           135.00         588.50         
119.78         2952           1255           135.00         588.50         
119.80         2952           1258           137.00         597.22         
119.83         2952           1261           125.00         544.91         
119.86         2953           1265           137.00         597.22         
119.89         2953           1268           136.00         592.86         
119.91         2953           1271           137.00         597.22         
119.94         2953           1275           132.00         575.42         
119.97         2954           1278           140.00         610.30         
120.00         2954           1281           137.00         597.22         
120.02         2954           1285           135.00         588.50         
120.05         2954           1288           143.00         623.38         
120.08         2955           1291           127.00         553.63         
120.11         2955           1294           129.00         562.35         
120.13         2955           1298           137.00         597.22         
120.16         2955           1301           137.00         597.22         
120.19         2956           1304           125.00         544.91         
120.22         2956           1308           142.00         619.02         
120.24         2956           1311           143.00         623.38         
120.27         2956           1314           144.00         627.74         
120.30         2957           1318           118.00         514.39         
120.33         2957           1321           129.00         562.35         
120.35         2957           1324           127.00         553.63         
120.38         2957           1328           126.00         549.27         
120.41         2958           1331           132.00         575.42         
120.44         2958           1334           131.00         571.06         
120.46         2958           1338           138.00         601.58         
120.49         2958           1341           136.00         592.86         
120.52         2959           1344           129.00         562.35         
120.55         2959           1347           131.00         571.06         
120.57         2959           1351           126.00         549.27         
120.60         2959           1354           131.00         571.06         
120.63         2960           1357           128.00         557.99         
120.66         2960           1361           124.00         540.55         
120.68         2960           1364           133.00         579.78         
120.71         2960           1367           130.00         566.71         
120.74         2961           1371           133.00         579.78         
120.77         2961           1374           140.00         610.30         
120.79         2961           1377           150.00         653.89         
120.82         2961           1381           189.00         823.91         
120.85         2962           1384           487.00         2123.06        
120.88         2962           1387           1575.00        6867.15        
120.90         2962           1391           3891.00        16970.28       
120.93         2962           1394           5998.00        26167.00       
120.96         2963           1397           8702.00        37976.98       
120.99         2963           1401           12500.00       54579.27       
121.01         2963           1404           15499.00       67700.57       
121.04         2963           1407           18189.00       79478.73       
121.07         2964           1410           20969.00       91659.72       
121.10         2964           1414           24297.00       106253.59      
121.13         2964           1417           27596.00       120732.93      
121.15         2964           1420           30711.00       134416.27      
121.18         2965           1424           34732.00       152096.08      
121.21         2965           1427           38435.00       168394.33      
121.24         2965           1430           41635.00       182491.57      
121.26         2965           1434           45864.00       201140.32      
121.29         2966           1437           48903.00       214554.43      
121.32         2966           1440           51824.00       227457.90      
121.35         2966           1444           55507.00       243741.80      
121.38         2966           1447           58304.00       256119.04      
121.40         2967           1450           59983.00       263553.36      
121.43         2967           1454           61626.00       270831.51      
121.46         2967           1457           62415.00       274327.74      
121.49         2967           1460           62457.00       274513.88      
121.51         2968           1464           62521.00       274797.51      
121.54         2968           1467           62416.00       274332.18      
121.57         2968           1470           61423.00       269932.09      
121.60         2968           1474           58639.00       257602.10      
121.62         2969           1477           55951.00       245705.97      
121.65         2969           1480           53159.00       233358.58      
121.68         2969           1484           50017.00       219474.32      
121.71         2969           1487           47331.00       207614.29      
121.73         2970           1490           44388.00       194629.18      
121.76         2970           1494           40696.00       178353.67      
121.79         2970           1497           37411.00       163885.73      
121.82         2970           1500           34398.00       150626.81      
121.84         2971           1504           30475.00       133379.19      
121.87         2971           1507           27766.00       121479.40      
121.90         2971           1510           25443.00       111281.96      
121.93         2971           1513           22651.00       99033.99       
121.95         2972           1517           18264.00       79807.24       
121.98         2972           1520           15478.00       67608.65       
122.01         2972           1523           13088.00       57151.09       
122.04         2972           1527           9014.00        39340.21       
122.07         2973           1530           5987.00        26118.98       
122.09         2973           1533           2810.00        12253.85       
122.12         2973           1537           661.00         2881.68        
122.15         2973           1540           274.00         1194.46        
122.18         2974           1543           180.00         784.67         
122.20         2974           1547           174.00         758.52         
122.23         2974           1550           144.00         627.74         
122.26         2974           1553           141.00         614.66         
122.29         2975           1557           148.00         645.17         
122.31         2975           1560           129.00         562.35         
122.34         2975           1563           127.00         553.63         
122.37         2975           1567           121.00         527.47         
122.40         2976           1570           112.00         488.24         
122.42         2976           1573           114.00         496.96         
122.45         2976           1577           125.00         544.91         
122.48         2976           1580           121.00         527.47         
122.51         2977           1583           125.00         544.91         
122.53         2977           1587           122.00         531.83         
122.56         2977           1590           126.00         549.27         
122.59         2977           1593           118.00         514.39         
122.62         2978           1597           129.00         562.35         
122.64         2978           1600           108.00         470.80         
122.67         2978           1603           108.00         470.80         
122.70         2978           1607           120.00         523.11         
122.73         2979           1610           113.00         492.60         
122.75         2979           1613           118.00         514.39         
122.78         2979           1617           117.00         510.03         
122.81         2979           1620           104.00         453.36         
122.84         2980           1623           124.00         540.55         
122.86         2980           1627           111.00         483.88         
122.89         2980           1630           116.00         505.67         
122.92         2980           1633           107.00         466.44         
122.95         2981           1637           108.00         470.80         
122.97         2981           1640           107.00         466.44         
123.00         2981           1643           119.00         518.75         
123.03         2981           1647           109.00         475.16         
123.06         2982           1650           115.00         501.32         
123.09         2982           1653           107.00         466.44         
123.11         2982           1657           114.00         496.96         
123.14         2982           1660           101.00         440.28         
123.17         2983           1663           103.00         449.00         
123.20         2983           1667           105.00         457.72         
123.22         2983           1670           105.00         457.72         
123.25         2983           1673           107.00         466.44         
123.28         2984           1677           108.00         470.80         
123.31         2984           1680           108.00         470.80         
123.33         2984           1683           112.00         488.24         
HS scan finished at 2:03:20
end
************************************************************
HS Scan of 
************************************************************
Integration time is 0.2294 seconds per sample
dh27619El Arenosillo 37.1  6.73  3.21pr1000
************************************************************
Dead Time -------------------------  3E-8
Number of Cycles Used -------------  4
Starting Wavelength (Angstroms) ---  2950
Final Wavelength (Angstoms) -------  2984
Wavelength Increment (Angstroms) --  0.25
Filter Wheel #1 Position ---------- (1) Ground quartz diffuser (ND = 2.32)
Filter Wheel #2 Position ---------- (1) Neutral density 0.494
 
 
 
************************************************************
HS scan start time = 20:57:11
Dark Count =  0.1
 
 
Time (GMT)  Wavelength (Ang)  Step Number  Raw Counts  Counts/Second
 
1253.45        2950           1232           148.00         645.17         
1253.47        2950           1235           141.00         614.66         
1253.50        2951           1238           145.00         632.10         
1253.53        2951           1242           144.00         627.74         
1253.56        2951           1245           141.00         614.66         
1253.58        2951           1248           133.00         579.78         
1253.61        2952           1251           142.00         619.02         
1253.64        2952           1255           138.00         601.58         
1253.67        2952           1258           136.00         592.86         
1253.69        2952           1261           144.00         627.74         
1253.72        2953           1265           142.00         619.02         
1253.75        2953           1268           138.00         601.58         
1253.78        2953           1271           137.00         597.22         
1253.80        2953           1275           137.00         597.22         
1253.83        2954           1278           144.00         627.74         
1253.86        2954           1281           134.00         584.14         
1253.89        2954           1285           131.00         571.06         
1253.91        2954           1288           137.00         597.22         
1253.94        2955           1291           124.00         540.55         
1253.97        2955           1294           132.00         575.42         
1254.00        2955           1298           132.00         575.42         
1254.02        2955           1301           128.00         557.99         
1254.05        2956           1304           137.00         597.22         
1254.08        2956           1308           126.00         549.27         
1254.11        2956           1311           135.00         588.50         
1254.13        2956           1314           137.00         597.22         
1254.16        2957           1318           126.00         549.27         
1254.19        2957           1321           128.00         557.99         
1254.22        2957           1324           133.00         579.78         
1254.24        2957           1328           129.00         562.35         
1254.27        2958           1331           137.00         597.22         
1254.30        2958           1334           125.00         544.91         
1254.32        2958           1338           129.00         562.35         
1254.35        2958           1341           130.00         566.71         
1254.38        2959           1344           127.00         553.63         
1254.41        2959           1347           144.00         627.74         
1254.43        2959           1351           126.00         549.27         
1254.46        2959           1354           131.00         571.06         
1254.49        2960           1357           129.00         562.35         
1254.52        2960           1361           129.00         562.35         
1254.55        2960           1364           139.00         605.94         
1254.57        2960           1367           140.00         610.30         
1254.60        2961           1371           132.00         575.42         
1254.63        2961           1374           144.00         627.74         
1254.66        2961           1377           151.00         658.25         
1254.68        2961           1381           173.00         754.16         
1254.71        2962           1384           215.00         937.25         
1254.74        2962           1387           737.00         3213.04        
1254.77        2962           1391           2747.00        11979.02       
1254.79        2962           1394           5277.00        23019.38       
1254.82        2963           1397           8174.00        35670.23       
1254.85        2963           1401           11783.00       51443.76       
1254.88        2963           1404           14324.00       62558.45       
1254.90        2963           1407           17515.00       76526.84       
1254.93        2964           1410           20836.00       91076.76       
1254.96        2964           1414           24837.00       108622.79      
1254.99        2964           1417           28204.00       123402.82      
1255.02        2964           1420           31673.00       138644.35      
1255.04        2965           1424           35744.00       156548.67      
1255.07        2965           1427           39395.00       172622.24      
1255.10        2965           1430           42720.00       187274.13      
1255.13        2965           1434           47167.00       206890.42      
1255.15        2966           1437           50262.00       220556.54      
1255.18        2966           1440           53089.00       233049.13      
1255.21        2966           1444           56783.00       249387.19      
1255.24        2966           1447           59985.00       263562.22      
1255.27        2967           1450           63062.00       277195.30      
1255.29        2967           1454           65891.00       289739.46      
1255.32        2967           1457           66510.00       292485.46      
1255.35        2967           1460           66720.00       293417.16      
1255.38        2968           1464           66759.00       293590.19      
1255.40        2968           1467           67002.00       294668.38      
1255.43        2968           1470           66219.00       291194.47      
1255.46        2968           1474           64544.00       283765.50      
1255.49        2969           1477           62535.00       274859.56      
1255.51        2969           1480           59801.00       262747.34      
1255.54        2969           1484           55829.00       245166.24      
1255.57        2969           1487           52882.00       232134.07      
1255.60        2970           1490           49725.00       218184.59      
1255.62        2970           1494           44751.00       196230.26      
1255.65        2970           1497           41433.00       181601.33      
1255.68        2970           1500           38916.00       170512.55      
1255.71        2971           1504           34565.00       151361.43      
1255.73        2971           1507           31235.00       136719.16      
1255.76        2971           1510           28282.00       123745.37      
1255.79        2971           1513           25678.00       112313.28      
1255.82        2972           1517           22170.00       96924.84       
1255.84        2972           1520           18768.00       82014.97       
1255.87        2972           1523           15437.00       67429.20       
1255.90        2972           1527           10795.00       47124.11       
1255.93        2973           1530           6984.00        30472.48       
1255.96        2973           1533           3927.00        17127.37       
1255.98        2973           1537           1436.00        6260.98        
1256.01        2973           1540           472.00         2057.67        
1256.04        2974           1543           227.00         989.57         
1256.07        2974           1547           175.00         762.88         
1256.09        2974           1550           179.00         780.31         
1256.12        2974           1553           145.00         632.10         
1256.15        2975           1557           143.00         623.38         
1256.18        2975           1560           133.00         579.78         
