************************************************************
HS Scan of 
************************************************************
Integration time is 0.2294 seconds per sample
dh26619El Arenosillo 37.1  6.73  3.04pr1000
************************************************************
Dead Time -------------------------  3E-8
Number of Cycles Used -------------  4
Starting Wavelength (Angstroms) ---  2950
Final Wavelength (Angstoms) -------  2984
Wavelength Increment (Angstroms) --  0.25
Filter Wheel #1 Position ---------- (1) Ground quartz diffuser (ND = 2.32)
Filter Wheel #2 Position ---------- (1) Neutral density 0.494
 
 
 
************************************************************
HS scan start time = 2:03:13
Dark Count =  0
 
 
Time (GMT)  Wavelength (Ang)  Step Number  Raw Counts  Counts/Second
 
119.48         2950           1232           136.00         592.86         
119.51         2950           1236           136.00         592.86         
119.54         2951           1239           139.00         605.94         
119.57         2951           1242           131.00         571.06         
119.59         2951           1246           139.00         605.94         
119.62         2951           1249           142.00         619.02         
119.65         2952           1252           138.00         601.58         
119.68         2952           1256           148.00         645.17         
119.70         2952           1259           127.00         553.63         
119.73         2952           1262           132.00         575.42         
119.76         2953           1266           137.00         597.22         
119.79         2953           1269           146.00         636.46         
119.81         2953           1272           139.00         605.94         
119.84         2953           1276           139.00         605.94         
119.87         2954           1279           143.00         623.38         
119.90         2954           1282           131.00         571.06         
119.92         2954           1285           142.00         619.02         
119.95         2954           1289           137.00         597.22         
119.98         2955           1292           141.00         614.66         
120.01         2955           1295           132.00         575.42         
120.03         2955           1299           133.00         579.78         
120.06         2955           1302           137.00         597.22         
120.09         2956           1305           140.00         610.30         
120.12         2956           1309           138.00         601.58         
120.14         2956           1312           146.00         636.46         
120.17         2956           1315           139.00         605.94         
120.20         2957           1319           126.00         549.27         
120.23         2957           1322           133.00         579.78         
120.25         2957           1325           133.00         579.78         
120.28         2957           1329           128.00         557.99         
120.31         2958           1332           143.00         623.38         
120.34         2958           1335           135.00         588.50         
120.36         2958           1339           134.00         584.14         
120.39         2958           1342           130.00         566.71         
120.42         2959           1345           132.00         575.42         
120.45         2959           1349           135.00         588.50         
120.47         2959           1352           126.00         549.27         
120.50         2959           1355           126.00         549.27         
120.53         2960           1358           126.00         549.27         
120.56         2960           1362           132.00         575.42         
120.58         2960           1365           122.00         531.83         
120.61         2960           1368           139.00         605.94         
120.64         2961           1372           138.00         601.58         
120.67         2961           1375           151.00         658.25         
120.69         2961           1378           163.00         710.56         
120.72         2961           1382           194.00         845.71         
120.75         2962           1385           610.00         2659.32        
120.78         2962           1388           1806.00        7874.57        
120.80         2962           1392           4501.00        19632.31       
120.83         2962           1395           7385.00        32223.81       
120.86         2963           1398           10293.00       44929.74       
120.89         2963           1402           13980.00       61053.31       
120.91         2963           1405           17036.00       74429.30       
120.94         2963           1408           19892.00       86939.62       
120.97         2964           1412           23674.00       103520.65      
121.00         2964           1415           26790.00       117194.22      
121.03         2964           1418           29635.00       129688.42      
121.05         2964           1422           33122.00       145014.86      
121.08         2965           1425           36196.00       158537.76      
121.11         2965           1428           39337.00       172366.78      
121.14         2965           1432           43675.00       191484.81      
121.16         2965           1435           46737.00       204992.62      
121.19         2966           1438           49147.00       215631.91      
121.22         2966           1442           53256.00       233787.40      
121.25         2966           1445           55946.00       245683.85      
121.28         2966           1448           59301.00       260533.18      
121.30         2967           1452           61741.00       271341.05      
121.33         2967           1455           62229.00       273503.47      
121.36         2967           1458           62733.00       275737.08      
121.39         2967           1462           62721.00       275683.90      
121.41         2968           1465           63041.00       277102.22      
121.44         2968           1468           62859.00       276295.53      
121.47         2968           1472           60559.00       266104.56      
121.50         2968           1475           58208.00       255694.07      
121.52         2969           1478           55326.00       242941.16      
121.55         2969           1482           51777.00       227250.20      
121.58         2969           1485           48636.00       213375.46      
121.61         2969           1488           46269.00       202927.36      
121.63         2970           1492           42583.00       186670.18      
121.66         2970           1495           39877.00       174745.42      
121.69         2970           1498           37198.00       162948.06      
121.72         2970           1502           33179.00       145265.51      
121.74         2971           1505           30020.00       131379.92      
121.77         2971           1508           27076.00       118449.81      
121.80         2971           1512           23424.00       102424.09      
121.83         2971           1515           20684.00       90410.54       
121.86         2972           1518           17639.00       77069.88       
121.88         2972           1522           13387.00       58459.02       
121.91         2972           1525           10163.00       44361.53       
121.94         2972           1528           7240.00        31590.52       
121.97         2973           1532           3704.00        16154.30       
121.99         2973           1535           1826.00        7961.80        
122.02         2973           1538           692.00         3016.84        
122.05         2973           1542           214.00         932.89         
122.08         2974           1545           183.00         797.75         
122.10         2974           1548           162.00         706.21         
122.13         2974           1552           155.00         675.69         
122.16         2974           1555           141.00         614.66         
122.19         2975           1558           142.00         619.02         
122.21         2975           1562           121.00         527.47         
122.24         2975           1565           123.00         536.19         
122.27         2975           1568           123.00         536.19         
122.30         2976           1572           114.00         496.96         
122.32         2976           1575           125.00         544.91         
122.35         2976           1578           118.00         514.39         
122.38         2976           1582           111.00         483.88         
122.41         2977           1585           110.00         479.52         
122.43         2977           1588           117.00         510.03         
122.46         2977           1592           114.00         496.96         
122.49         2977           1595           113.00         492.60         
122.51         2978           1598           121.00         527.47         
122.54         2978           1602           111.00         483.88         
122.57         2978           1605           114.00         496.96         
122.60         2978           1608           116.00         505.67         
122.62         2979           1612           112.00         488.24         
122.65         2979           1615           103.00         449.00         
122.68         2979           1618           119.00         518.75         
122.71         2979           1622           113.00         492.60         
122.73         2980           1625           106.00         462.08         
122.76         2980           1628           115.00         501.32         
122.79         2980           1632           101.00         440.28         
122.82         2980           1635           107.00         466.44         
122.84         2981           1638           115.00         501.32         
122.87         2981           1642           105.00         457.72         
122.90         2981           1645           108.00         470.80         
122.93         2981           1648           107.00         466.44         
122.95         2982           1652           108.00         470.80         
122.98         2982           1655           115.00         501.32         
123.01         2982           1658           111.00         483.88         
123.04         2982           1662           111.00         483.88         
123.06         2983           1665           115.00         501.32         
123.09         2983           1668           106.00         462.08         
123.12         2983           1672           103.00         449.00         
123.15         2983           1675           112.00         488.24         
123.17         2984           1678           106.00         462.08         
123.20         2984           1682           110.00         479.52         
123.23         2984           1685           104.00         453.36         
HS scan finished at 2:03:13
end
