************************************************************
HS Scan of 
************************************************************
Integration time is 0.2294 seconds per sample
dh28619El Arenosillo 37.1  6.73  3.12pr1000
************************************************************
Dead Time -------------------------  3E-8
Number of Cycles Used -------------  4
Starting Wavelength (Angstroms) ---  2950
Final Wavelength (Angstoms) -------  2984
Wavelength Increment (Angstroms) --  0.25
Filter Wheel #1 Position ---------- (1) Ground quartz diffuser (ND = 2.32)
Filter Wheel #2 Position ---------- (1) Neutral density 0.494
 
 
 
************************************************************
HS scan start time = 2:04:13
Dark Count =  0.05
 
 
Time (GMT)  Wavelength (Ang)  Step Number  Raw Counts  Counts/Second
 
120.49         2950           1232           140.00         610.30         
120.52         2950           1235           126.00         549.27         
120.54         2951           1238           137.00         597.22         
120.57         2951           1242           136.00         592.86         
120.60         2951           1245           130.00         566.71         
120.63         2951           1248           138.00         601.58         
120.65         2952           1251           135.00         588.50         
120.68         2952           1255           144.00         627.74         
120.71         2952           1258           126.00         549.27         
120.74         2952           1261           130.00         566.71         
120.76         2953           1265           134.00         584.14         
120.79         2953           1268           140.00         610.30         
120.82         2953           1271           132.00         575.42         
120.85         2953           1275           134.00         584.14         
120.87         2954           1278           122.00         531.83         
120.90         2954           1281           136.00         592.86         
120.93         2954           1285           128.00         557.99         
120.96         2954           1288           135.00         588.50         
120.98         2955           1291           132.00         575.42         
121.01         2955           1294           134.00         584.14         
121.04         2955           1298           129.00         562.35         
121.07         2955           1301           134.00         584.14         
121.09         2956           1304           138.00         601.58         
121.12         2956           1308           121.00         527.47         
121.15         2956           1311           133.00         579.78         
121.18         2956           1314           127.00         553.63         
121.20         2957           1318           140.00         610.30         
121.23         2957           1321           128.00         557.99         
121.26         2957           1324           123.00         536.19         
121.29         2957           1328           130.00         566.71         
121.31         2958           1331           133.00         579.78         
121.34         2958           1334           130.00         566.71         
121.37         2958           1338           139.00         605.94         
121.39         2958           1341           136.00         592.86         
121.42         2959           1344           127.00         553.63         
121.45         2959           1347           129.00         562.35         
121.48         2959           1351           129.00         562.35         
121.50         2959           1354           131.00         571.06         
121.53         2960           1357           131.00         571.06         
121.56         2960           1361           133.00         579.78         
121.59         2960           1364           141.00         614.66         
121.61         2960           1367           133.00         579.78         
121.64         2961           1371           135.00         588.50         
121.67         2961           1374           152.00         662.61         
121.70         2961           1377           165.00         719.28         
121.72         2961           1381           176.00         767.24         
121.75         2962           1384           501.00         2184.10        
121.78         2962           1387           1676.00        7307.62        
121.81         2962           1391           4363.00        19030.04       
121.84         2962           1394           6997.00        30529.26       
121.86         2963           1397           10109.00       44125.50       
121.89         2963           1401           14286.00       62392.18       
121.92         2963           1404           17111.00       74757.71       
121.95         2963           1407           19455.00       85024.80       
121.97         2964           1410           22364.00       97775.48       
122.00         2964           1414           26149.00       114380.48      
122.03         2964           1417           29102.00       127346.97      
122.06         2964           1420           32704.00       143176.88      
122.08         2965           1424           36590.00       160271.81      
122.11         2965           1427           39666.00       173815.94      
122.14         2965           1430           43288.00       189778.36      
122.17         2965           1434           47756.00       209490.31      
122.19         2966           1437           51070.00       224126.16      
122.22         2966           1440           54202.00       237970.09      
122.25         2966           1444           57886.00       254268.73      
122.28         2966           1447           60854.00       267411.31      
122.30         2967           1450           62974.00       276805.25      
122.33         2967           1454           64870.00       285211.12      
122.36         2967           1457           65034.00       285938.41      
122.39         2967           1460           65081.00       286146.85      
122.41         2968           1464           65029.00       285916.24      
122.44         2968           1467           64994.00       285761.02      
122.47         2968           1470           63551.00       279362.91      
122.50         2968           1474           60686.00       266667.11      
122.52         2969           1477           57867.00       254184.63      
122.55         2969           1480           55315.00       242892.50      
122.58         2969           1484           51896.00       227776.09      
122.61         2969           1487           48883.00       214466.11      
122.64         2970           1490           45941.00       201480.06      
122.66         2970           1494           41597.00       182324.10      
122.69         2970           1497           38182.00       167280.27      
122.72         2970           1500           35532.00       155615.82      
122.75         2971           1504           31695.00       138741.05      
122.77         2971           1507           28821.00       126112.67      
122.80         2971           1510           25788.00       112796.04      
122.83         2971           1513           22697.00       99235.71       
122.86         2972           1517           18941.00       82772.85       
122.88         2972           1520           15991.00       69854.17       
122.91         2972           1523           13166.00       57492.28       
122.94         2972           1527           9002.00        39287.78       
122.96         2973           1530           5486.00        23931.74       
122.99         2973           1533           2510.00        10945.18       
123.02         2973           1537           694.00         3025.56        
123.05         2973           1540           248.00         1081.12        
123.07         2974           1543           183.00         797.75         
123.10         2974           1547           170.00         741.08         
123.13         2974           1550           158.00         688.77         
123.16         2974           1553           140.00         610.30         
123.18         2975           1557           145.00         632.10         
123.21         2975           1560           130.00         566.71         
123.24         2975           1563           127.00         553.63         
123.27         2975           1567           118.00         514.39         
123.29         2976           1570           117.00         510.03         
123.32         2976           1573           121.00         527.47         
123.35         2976           1577           121.00         527.47         
123.38         2976           1580           108.00         470.80         
123.40         2977           1583           114.00         496.96         
123.43         2977           1587           113.00         492.60         
123.46         2977           1590           126.00         549.27         
123.49         2977           1593           125.00         544.91         
123.51         2978           1597           114.00         496.96         
123.54         2978           1600           112.00         488.24         
123.57         2978           1603           106.00         462.08         
123.60         2978           1607           116.00         505.67         
123.62         2979           1610           105.00         457.72         
123.65         2979           1613           117.00         510.03         
123.68         2979           1617           110.00         479.52         
123.71         2979           1620           113.00         492.60         
123.73         2980           1623           104.00         453.36         
123.76         2980           1627           107.00         466.44         
123.79         2980           1630           97.00          422.85         
123.82         2980           1633           111.00         483.88         
123.84         2981           1637           107.00         466.44         
123.87         2981           1640           112.00         488.24         
123.90         2981           1643           114.00         496.96         
123.93         2981           1647           100.00         435.93         
123.95         2982           1650           112.00         488.24         
123.98         2982           1653           106.00         462.08         
124.01         2982           1657           108.00         470.80         
124.04         2982           1660           102.00         444.64         
124.06         2983           1663           112.00         488.24         
124.09         2983           1667           106.00         462.08         
124.12         2983           1670           112.00         488.24         
124.15         2983           1673           108.00         470.80         
124.17         2984           1677           108.00         470.80         
124.20         2984           1680           114.00         496.96         
124.23         2984           1683           99.00          431.57         
HS scan finished at 2:04:13
end
