************************************************************
HS Scan of 
************************************************************
Integration time is 0.2294 seconds per sample
dh27619El Arenosillo 37.1  6.73  3.03pr1000
************************************************************
Dead Time -------------------------  3E-8
Number of Cycles Used -------------  4
Starting Wavelength (Angstroms) ---  2950
Final Wavelength (Angstoms) -------  2984
Wavelength Increment (Angstroms) --  0.25
Filter Wheel #1 Position ---------- (1) Ground quartz diffuser (ND = 2.32)
Filter Wheel #2 Position ---------- (1) Neutral density 0.494
 
 
 
************************************************************
HS scan start time = 2:03:20
Dark Count =  0.05
 
 
Time (GMT)  Wavelength (Ang)  Step Number  Raw Counts  Counts/Second
 
119.58         2950           1232           147.00         640.81         
119.61         2950           1235           142.00         619.02         
119.64         2951           1238           138.00         601.58         
119.67         2951           1242           129.00         562.35         
119.69         2951           1245           129.00         562.35         
119.72         2951           1248           137.00         597.22         
119.75         2952           1251           135.00         588.50         
119.78         2952           1255           135.00         588.50         
119.80         2952           1258           137.00         597.22         
119.83         2952           1261           125.00         544.91         
119.86         2953           1265           137.00         597.22         
119.89         2953           1268           136.00         592.86         
119.91         2953           1271           137.00         597.22         
119.94         2953           1275           132.00         575.42         
119.97         2954           1278           140.00         610.30         
120.00         2954           1281           137.00         597.22         
120.02         2954           1285           135.00         588.50         
120.05         2954           1288           143.00         623.38         
120.08         2955           1291           127.00         553.63         
120.11         2955           1294           129.00         562.35         
120.13         2955           1298           137.00         597.22         
120.16         2955           1301           137.00         597.22         
120.19         2956           1304           125.00         544.91         
120.22         2956           1308           142.00         619.02         
120.24         2956           1311           143.00         623.38         
120.27         2956           1314           144.00         627.74         
120.30         2957           1318           118.00         514.39         
120.33         2957           1321           129.00         562.35         
120.35         2957           1324           127.00         553.63         
120.38         2957           1328           126.00         549.27         
120.41         2958           1331           132.00         575.42         
120.44         2958           1334           131.00         571.06         
120.46         2958           1338           138.00         601.58         
120.49         2958           1341           136.00         592.86         
120.52         2959           1344           129.00         562.35         
120.55         2959           1347           131.00         571.06         
120.57         2959           1351           126.00         549.27         
120.60         2959           1354           131.00         571.06         
120.63         2960           1357           128.00         557.99         
120.66         2960           1361           124.00         540.55         
120.68         2960           1364           133.00         579.78         
120.71         2960           1367           130.00         566.71         
120.74         2961           1371           133.00         579.78         
120.77         2961           1374           140.00         610.30         
120.79         2961           1377           150.00         653.89         
120.82         2961           1381           189.00         823.91         
120.85         2962           1384           487.00         2123.06        
120.88         2962           1387           1575.00        6867.15        
120.90         2962           1391           3891.00        16970.28       
120.93         2962           1394           5998.00        26167.00       
120.96         2963           1397           8702.00        37976.98       
120.99         2963           1401           12500.00       54579.27       
121.01         2963           1404           15499.00       67700.57       
121.04         2963           1407           18189.00       79478.73       
121.07         2964           1410           20969.00       91659.72       
121.10         2964           1414           24297.00       106253.59      
121.13         2964           1417           27596.00       120732.93      
121.15         2964           1420           30711.00       134416.27      
121.18         2965           1424           34732.00       152096.08      
121.21         2965           1427           38435.00       168394.33      
121.24         2965           1430           41635.00       182491.57      
121.26         2965           1434           45864.00       201140.32      
121.29         2966           1437           48903.00       214554.43      
121.32         2966           1440           51824.00       227457.90      
121.35         2966           1444           55507.00       243741.80      
121.38         2966           1447           58304.00       256119.04      
121.40         2967           1450           59983.00       263553.36      
121.43         2967           1454           61626.00       270831.51      
121.46         2967           1457           62415.00       274327.74      
121.49         2967           1460           62457.00       274513.88      
121.51         2968           1464           62521.00       274797.51      
121.54         2968           1467           62416.00       274332.18      
121.57         2968           1470           61423.00       269932.09      
121.60         2968           1474           58639.00       257602.10      
121.62         2969           1477           55951.00       245705.97      
121.65         2969           1480           53159.00       233358.58      
121.68         2969           1484           50017.00       219474.32      
121.71         2969           1487           47331.00       207614.29      
121.73         2970           1490           44388.00       194629.18      
121.76         2970           1494           40696.00       178353.67      
121.79         2970           1497           37411.00       163885.73      
121.82         2970           1500           34398.00       150626.81      
121.84         2971           1504           30475.00       133379.19      
121.87         2971           1507           27766.00       121479.40      
121.90         2971           1510           25443.00       111281.96      
121.93         2971           1513           22651.00       99033.99       
121.95         2972           1517           18264.00       79807.24       
121.98         2972           1520           15478.00       67608.65       
122.01         2972           1523           13088.00       57151.09       
122.04         2972           1527           9014.00        39340.21       
122.07         2973           1530           5987.00        26118.98       
122.09         2973           1533           2810.00        12253.85       
122.12         2973           1537           661.00         2881.68        
122.15         2973           1540           274.00         1194.46        
122.18         2974           1543           180.00         784.67         
122.20         2974           1547           174.00         758.52         
122.23         2974           1550           144.00         627.74         
122.26         2974           1553           141.00         614.66         
122.29         2975           1557           148.00         645.17         
122.31         2975           1560           129.00         562.35         
122.34         2975           1563           127.00         553.63         
122.37         2975           1567           121.00         527.47         
122.40         2976           1570           112.00         488.24         
122.42         2976           1573           114.00         496.96         
122.45         2976           1577           125.00         544.91         
122.48         2976           1580           121.00         527.47         
122.51         2977           1583           125.00         544.91         
122.53         2977           1587           122.00         531.83         
122.56         2977           1590           126.00         549.27         
122.59         2977           1593           118.00         514.39         
122.62         2978           1597           129.00         562.35         
122.64         2978           1600           108.00         470.80         
122.67         2978           1603           108.00         470.80         
122.70         2978           1607           120.00         523.11         
122.73         2979           1610           113.00         492.60         
122.75         2979           1613           118.00         514.39         
122.78         2979           1617           117.00         510.03         
122.81         2979           1620           104.00         453.36         
122.84         2980           1623           124.00         540.55         
122.86         2980           1627           111.00         483.88         
122.89         2980           1630           116.00         505.67         
122.92         2980           1633           107.00         466.44         
122.95         2981           1637           108.00         470.80         
122.97         2981           1640           107.00         466.44         
123.00         2981           1643           119.00         518.75         
123.03         2981           1647           109.00         475.16         
123.06         2982           1650           115.00         501.32         
123.09         2982           1653           107.00         466.44         
123.11         2982           1657           114.00         496.96         
123.14         2982           1660           101.00         440.28         
123.17         2983           1663           103.00         449.00         
123.20         2983           1667           105.00         457.72         
123.22         2983           1670           105.00         457.72         
123.25         2983           1673           107.00         466.44         
123.28         2984           1677           108.00         470.80         
123.31         2984           1680           108.00         470.80         
123.33         2984           1683           112.00         488.24         
HS scan finished at 2:03:20
end
