************************************************************
HS Scan of 
************************************************************
Integration time is 0.2294 seconds per sample
dh23619El Arenosillo 37.1  6.73  2.96pr1000
************************************************************
Dead Time -------------------------  3E-8
Number of Cycles Used -------------  4
Starting Wavelength (Angstroms) ---  2950
Final Wavelength (Angstoms) -------  2984
Wavelength Increment (Angstroms) --  0.25
Filter Wheel #1 Position ---------- (1) Ground quartz diffuser (ND = 2.32)
Filter Wheel #2 Position ---------- (1) Neutral density 0.494
 
 
 
************************************************************
HS scan start time = 2:01:15
Dark Count =  0.05
 
 
Time (GMT)  Wavelength (Ang)  Step Number  Raw Counts  Counts/Second
 
117.51         2950           1232           133.00         579.78         
117.54         2950           1236           123.00         536.19         
117.57         2951           1239           140.00         610.30         
117.59         2951           1242           129.00         562.35         
117.62         2951           1246           127.00         553.63         
117.65         2951           1249           126.00         549.27         
117.68         2952           1252           125.00         544.91         
117.70         2952           1256           132.00         575.42         
117.73         2952           1259           127.00         553.63         
117.76         2952           1262           133.00         579.78         
117.79         2953           1265           127.00         553.63         
117.81         2953           1269           129.00         562.35         
117.84         2953           1272           121.00         527.47         
117.87         2953           1275           127.00         553.63         
117.90         2954           1279           131.00         571.06         
117.92         2954           1282           126.00         549.27         
117.95         2954           1285           129.00         562.35         
117.98         2954           1289           118.00         514.39         
118.01         2955           1292           128.00         557.99         
118.03         2955           1295           123.00         536.19         
118.06         2955           1299           122.00         531.83         
118.09         2955           1302           132.00         575.42         
118.12         2956           1305           127.00         553.63         
118.14         2956           1309           118.00         514.39         
118.17         2956           1312           130.00         566.71         
118.20         2956           1315           110.00         479.52         
118.23         2957           1318           126.00         549.27         
118.25         2957           1322           123.00         536.19         
118.28         2957           1325           126.00         549.27         
118.31         2957           1328           111.00         483.88         
118.34         2958           1332           117.00         510.03         
118.36         2958           1335           119.00         518.75         
118.39         2958           1338           136.00         592.86         
118.42         2958           1342           121.00         527.47         
118.45         2959           1345           129.00         562.35         
118.47         2959           1348           113.00         492.60         
118.50         2959           1352           126.00         549.27         
118.53         2959           1355           126.00         549.27         
118.56         2960           1358           114.00         496.96         
118.58         2960           1362           122.00         531.83         
118.61         2960           1365           129.00         562.35         
118.64         2960           1368           130.00         566.71         
118.67         2961           1372           133.00         579.78         
118.69         2961           1375           149.00         649.53         
118.72         2961           1378           148.00         645.17         
118.75         2961           1382           191.00         832.63         
118.78         2962           1385           555.00         2419.53        
118.80         2962           1388           1781.00        7765.54        
118.83         2962           1391           3586.00        15639.42       
118.86         2962           1395           7138.00        31145.04       
118.89         2963           1398           10350.00       45178.89       
118.91         2963           1401           14142.00       61762.11       
118.94         2963           1405           19166.00       83758.59       
118.97         2963           1408           21897.00       95727.88       
119.00         2964           1411           24960.00       109162.49      
119.02         2964           1415           29411.00       128704.36      
119.05         2964           1418           33049.00       144693.86      
119.08         2964           1421           37235.00       163110.94      
119.11         2965           1425           41660.00       182601.75      
119.13         2965           1428           44462.00       194955.56      
119.16         2965           1431           48463.00       212611.60      
119.19         2965           1435           53534.00       235016.46      
119.22         2966           1438           56869.00       249767.75      
119.24         2966           1441           60454.00       265639.47      
119.27         2966           1445           65746.00       289096.28      
119.30         2966           1448           69105.00       304002.29      
119.33         2967           1451           71110.00       312906.13      
119.36         2967           1455           72788.00       320361.49      
119.38         2967           1458           73039.00       321476.98      
119.41         2967           1461           73101.00       321752.53      
119.44         2968           1465           73062.00       321579.20      
119.47         2968           1468           72834.00       320565.92      
119.49         2968           1471           71955.00       316660.05      
119.52         2968           1475           68765.00       302492.88      
119.55         2969           1478           64858.00       285157.90      
119.58         2969           1481           61230.00       269077.02      
119.60         2969           1485           57104.00       250807.69      
119.63         2969           1488           53829.00       236320.76      
119.66         2970           1491           50577.00       221948.07      
119.69         2970           1495           46095.00       202159.57      
119.71         2970           1498           42587.00       186687.81      
119.74         2970           1501           39448.00       172855.69      
119.77         2971           1505           35631.00       156051.43      
119.80         2971           1508           32813.00       143656.14      
119.82         2971           1511           29459.00       128915.22      
119.85         2971           1515           24417.00       106780.05      
119.88         2972           1518           21375.00       93439.42       
119.91         2972           1521           17865.00       78059.66       
119.94         2972           1525           13278.00       57982.20       
119.96         2972           1528           10144.00       44278.48       
119.99         2973           1531           6577.00        28695.14       
120.02         2973           1535           2556.00        11145.84       
120.04         2973           1538           1014.00        4420.81        
120.07         2973           1541           393.00         1713.25        
120.10         2974           1544           198.00         863.14         
120.13         2974           1548           174.00         758.52         
120.16         2974           1551           150.00         653.89         
120.18         2974           1554           135.00         588.50         
120.21         2975           1558           142.00         619.02         
120.24         2975           1561           122.00         531.83         
120.26         2975           1564           115.00         501.32         
120.29         2975           1568           117.00         510.03         
120.32         2976           1571           119.00         518.75         
120.35         2976           1574           109.00         475.16         
120.37         2976           1578           113.00         492.60         
120.40         2976           1581           115.00         501.32         
120.43         2977           1584           110.00         479.52         
120.46         2977           1588           111.00         483.88         
120.48         2977           1591           106.00         462.08         
120.51         2977           1595           104.00         453.36         
120.54         2978           1598           111.00         483.88         
120.57         2978           1601           115.00         501.32         
120.59         2978           1605           106.00         462.08         
120.62         2978           1608           107.00         466.44         
120.65         2979           1611           118.00         514.39         
120.68         2979           1615           112.00         488.24         
120.70         2979           1618           110.00         479.52         
120.73         2979           1621           107.00         466.44         
120.76         2980           1625           111.00         483.88         
120.79         2980           1628           116.00         505.67         
120.81         2980           1631           110.00         479.52         
120.84         2980           1635           109.00         475.16         
120.87         2981           1638           110.00         479.52         
120.90         2981           1641           110.00         479.52         
120.92         2981           1645           106.00         462.08         
120.95         2981           1648           99.00          431.57         
120.98         2982           1651           102.00         444.64         
121.01         2982           1655           109.00         475.16         
121.03         2982           1658           105.00         457.72         
121.06         2982           1661           111.00         483.88         
121.09         2983           1665           107.00         466.44         
121.12         2983           1668           99.00          431.57         
121.14         2983           1671           109.00         475.16         
121.17         2983           1675           98.00          427.21         
121.20         2984           1678           107.00         466.44         
121.23         2984           1681           101.00         440.28         
121.25         2984           1685           107.00         466.44         
HS scan finished at 2:01:15
end
************************************************************
HS Scan of 
************************************************************
Integration time is 0.2294 seconds per sample
dh23619El Arenosillo 37.1  6.73  3.28pr1000
************************************************************
Dead Time -------------------------  3E-8
Number of Cycles Used -------------  4
Starting Wavelength (Angstroms) ---  2950
Final Wavelength (Angstoms) -------  2984
Wavelength Increment (Angstroms) --  0.25
Filter Wheel #1 Position ---------- (1) Ground quartz diffuser (ND = 2.32)
Filter Wheel #2 Position ---------- (1) Neutral density 0.494
 
 
 
************************************************************
HS scan start time = 7:49:29
Dark Count =  0.1
 
 
Time (GMT)  Wavelength (Ang)  Step Number  Raw Counts  Counts/Second
 
465.74         2950           1232           114.00         496.96         
465.77         2950           1236           125.00         544.91         
465.79         2951           1239           114.00         496.96         
465.82         2951           1242           123.00         536.19         
465.85         2951           1246           118.00         514.39         
465.88         2951           1249           114.00         496.96         
465.90         2952           1252           120.00         523.11         
465.93         2952           1256           104.00         453.36         
465.96         2952           1259           111.00         483.88         
465.99         2952           1262           113.00         492.60         
466.01         2953           1266           116.00         505.67         
466.04         2953           1269           107.00         466.44         
466.07         2953           1272           117.00         510.03         
466.10         2953           1276           110.00         479.52         
466.12         2954           1279           123.00         536.19         
466.15         2954           1282           116.00         505.67         
466.18         2954           1285           124.00         540.55         
466.21         2954           1289           114.00         496.96         
466.23         2955           1292           117.00         510.03         
466.26         2955           1295           115.00         501.32         
466.29         2955           1299           117.00         510.03         
466.32         2955           1302           116.00         505.67         
466.34         2956           1305           120.00         523.11         
466.37         2956           1309           115.00         501.32         
466.40         2956           1312           113.00         492.60         
466.43         2956           1315           118.00         514.39         
466.45         2957           1319           116.00         505.67         
466.48         2957           1322           112.00         488.24         
466.51         2957           1325           115.00         501.32         
466.54         2957           1329           110.00         479.52         
466.56         2958           1332           114.00         496.96         
466.59         2958           1335           110.00         479.52         
466.62         2958           1339           106.00         462.08         
466.65         2958           1342           111.00         483.88         
466.67         2959           1345           101.00         440.28         
466.70         2959           1349           116.00         505.67         
466.73         2959           1352           108.00         470.80         
466.76         2959           1355           106.00         462.08         
466.78         2960           1358           109.00         475.16         
466.81         2960           1362           114.00         496.96         
466.84         2960           1365           120.00         523.11         
466.87         2960           1368           126.00         549.27         
466.89         2961           1372           129.00         562.35         
466.92         2961           1375           130.00         566.71         
466.95         2961           1378           145.00         632.10         
466.98         2961           1382           151.00         658.25         
467.00         2962           1385           271.00         1181.38        
467.03         2962           1388           1278.00        5571.99        
467.06         2962           1392           4202.00        18327.42       
467.09         2962           1395           7219.00        31498.80       
467.11         2963           1398           11125.00       48566.79       
467.14         2963           1402           15837.00       69180.04       
467.17         2963           1405           19284.00       84275.57       
467.20         2963           1408           22904.00       100143.48      
467.23         2964           1412           27530.00       120443.13      
467.25         2964           1415           31122.00       136222.52      
467.28         2964           1418           34369.00       150499.24      
467.31         2964           1422           38563.00       168957.99      
467.34         2965           1425           42229.00       185109.69      
467.36         2965           1428           45626.00       200090.25      
467.39         2965           1432           51110.00       224302.89      
467.42         2965           1435           54725.00       240282.95      
467.45         2966           1438           57722.00       253542.82      
467.47         2966           1442           62418.00       274341.04      
467.50         2966           1445           66077.00       290564.55      
467.53         2966           1448           69397.00       305298.71      
467.56         2967           1452           73045.00       321503.64      
467.58         2967           1455           74370.00       327393.40      
467.61         2967           1458           75095.00       330616.99      
467.64         2967           1462           74674.00       328745.01      
467.67         2968           1465           75045.00       330394.65      
467.69         2968           1468           74717.00       328936.20      
467.72         2968           1472           73377.00       322979.22      
467.75         2968           1475           70419.00       309836.98      
467.78         2969           1478           67318.00       296070.57      
467.80         2969           1482           62605.00       275169.79      
467.83         2969           1485           59139.00       259815.86      
467.86         2969           1488           55863.00       245316.65      
467.89         2970           1492           51514.00       226088.01      
467.91         2970           1495           48415.00       212399.67      
467.94         2970           1498           45015.00       197394.78      
467.97         2970           1502           40649.00       178146.58      
468.00         2971           1505           36870.00       161504.24      
468.03         2971           1508           33166.00       145208.35      
468.05         2971           1512           28904.00       126477.24      
468.08         2971           1515           25699.00       112405.44      
468.11         2972           1518           22341.00       97674.63       
468.14         2972           1522           17733.00       77481.55       
468.16         2972           1525           13757.00       60077.67       
468.19         2972           1528           10245.00       44719.94       
468.22         2973           1532           5924.00        25843.92       
468.25         2973           1535           2978.00        12986.75       
468.27         2973           1538           1256.00        5476.05        
468.30         2973           1542           299.00         1303.45        
468.33         2974           1545           183.00         797.75         
468.36         2974           1548           157.00         684.41         
468.38         2974           1552           162.00         706.21         
468.41         2974           1555           143.00         623.38         
468.44         2975           1558           120.00         523.11         
468.47         2975           1562           113.00         492.60         
