************************************************************
HS Scan of 
************************************************************
Integration time is 0.2294 seconds per sample
dh25619El Arenosillo 37.1  6.73  3.05pr1000
************************************************************
Dead Time -------------------------  3E-8
Number of Cycles Used -------------  4
Starting Wavelength (Angstroms) ---  2950
Final Wavelength (Angstoms) -------  2984
Wavelength Increment (Angstroms) --  0.25
Filter Wheel #1 Position ---------- (1) Ground quartz diffuser (ND = 2.32)
Filter Wheel #2 Position ---------- (1) Neutral density 0.494
 
 
 
************************************************************
HS scan start time = 2:02:58
Dark Count =  0.1
 
 
Time (GMT)  Wavelength (Ang)  Step Number  Raw Counts  Counts/Second
 
119.20         2950           1232           129.00         562.35         
119.22         2950           1236           125.00         544.91         
119.25         2951           1239           128.00         557.99         
119.28         2951           1242           134.00         584.14         
119.31         2951           1246           129.00         562.35         
119.34         2951           1249           133.00         579.78         
119.36         2952           1252           143.00         623.38         
119.39         2952           1256           134.00         584.14         
119.42         2952           1259           133.00         579.78         
119.45         2952           1262           139.00         605.94         
119.47         2953           1266           136.00         592.86         
119.50         2953           1269           130.00         566.71         
119.53         2953           1272           119.00         518.75         
119.56         2953           1276           134.00         584.14         
119.58         2954           1279           137.00         597.22         
119.61         2954           1282           148.00         645.17         
119.64         2954           1285           128.00         557.99         
119.67         2954           1289           138.00         601.58         
119.69         2955           1292           139.00         605.94         
119.72         2955           1295           134.00         584.14         
119.75         2955           1299           136.00         592.86         
119.78         2955           1302           132.00         575.42         
119.81         2956           1305           129.00         562.35         
119.83         2956           1309           127.00         553.63         
119.86         2956           1312           124.00         540.55         
119.89         2956           1315           129.00         562.35         
119.92         2957           1319           123.00         536.19         
119.94         2957           1322           123.00         536.19         
119.97         2957           1325           130.00         566.71         
120.00         2957           1329           132.00         575.42         
120.03         2958           1332           124.00         540.55         
120.06         2958           1335           143.00         623.38         
120.08         2958           1339           132.00         575.42         
120.11         2958           1342           124.00         540.55         
120.14         2959           1345           129.00         562.35         
120.17         2959           1349           135.00         588.50         
120.19         2959           1352           131.00         571.06         
120.22         2959           1355           134.00         584.14         
120.25         2960           1358           134.00         584.14         
120.28         2960           1362           120.00         523.11         
120.31         2960           1365           132.00         575.42         
120.33         2960           1368           128.00         557.99         
120.36         2961           1372           136.00         592.86         
120.39         2961           1375           147.00         640.81         
120.42         2961           1378           157.00         684.41         
120.44         2961           1382           223.00         972.13         
120.47         2962           1385           726.00         3165.08        
120.50         2962           1388           1827.00        7966.16        
120.53         2962           1392           4517.00        19702.14       
120.55         2962           1395           7390.00        32245.65       
120.58         2963           1398           10466.00       45685.94       
120.61         2963           1402           13652.00       59618.30       
120.64         2963           1405           16155.00       70572.10       
120.67         2963           1408           19132.00       83609.63       
120.69         2964           1412           23164.00       101283.75      
120.72         2964           1415           26523.00       116022.14      
120.75         2964           1418           29582.00       129455.58      
120.78         2964           1422           32924.00       144144.21      
120.81         2965           1425           36277.00       158894.24      
120.83         2965           1428           39622.00       173622.13      
120.86         2965           1432           43984.00       192847.44      
120.89         2965           1435           47018.00       206232.79      
120.92         2966           1438           50492.00       221572.57      
120.95         2966           1442           54489.00       239239.25      
120.97         2966           1445           57464.00       252400.92      
121.00         2966           1448           60186.00       264452.44      
121.03         2967           1452           62310.00       273862.42      
121.06         2967           1455           62976.00       276814.11      
121.08         2967           1458           62907.00       276508.28      
121.11         2967           1462           63004.00       276938.22      
121.14         2968           1465           63255.00       278050.78      
121.17         2968           1468           62854.00       276273.37      
121.20         2968           1472           60400.00       265400.28      
121.22         2968           1475           57943.00       254521.03      
121.25         2969           1478           55714.00       244657.50      
121.28         2969           1482           51639.00       226640.37      
121.31         2969           1485           49036.00       215141.74      
121.34         2969           1488           46094.00       202155.16      
121.36         2970           1492           42245.00       185180.21      
121.39         2970           1495           39568.00       173384.26      
121.42         2970           1498           36781.00       161112.50      
121.45         2970           1502           33186.00       145296.29      
121.48         2971           1505           30412.00       133102.35      
121.50         2971           1508           27458.00       120126.99      
121.53         2971           1512           23372.00       102196.01      
121.56         2971           1515           20301.00       88731.96       
121.59         2972           1518           17485.00       76395.46       
121.61         2972           1522           13809.00       60305.17       
121.64         2972           1525           10565.00       46118.69       
121.67         2972           1528           7157.00        31228.02       
121.70         2973           1532           3631.00        15835.77       
121.73         2973           1535           1906.00        8310.70        
121.75         2973           1538           649.00         2829.36        
121.78         2973           1542           217.00         945.97         
121.81         2974           1545           179.00         780.31         
121.84         2974           1548           169.00         736.72         
121.86         2974           1552           151.00         658.25         
121.89         2974           1555           124.00         540.55         
121.92         2975           1558           126.00         549.27         
121.95         2975           1562           129.00         562.35         
121.98         2975           1565           129.00         562.35         
122.00         2975           1568           124.00         540.55         
122.03         2976           1572           119.00         518.75         
122.06         2976           1575           109.00         475.16         
122.09         2976           1578           114.00         496.96         
122.11         2976           1582           118.00         514.39         
122.14         2977           1585           118.00         514.39         
122.17         2977           1588           111.00         483.88         
122.20         2977           1592           113.00         492.60         
122.23         2977           1595           114.00         496.96         
122.25         2978           1598           115.00         501.32         
122.28         2978           1602           120.00         523.11         
122.31         2978           1605           117.00         510.03         
122.34         2978           1608           109.00         475.16         
122.36         2979           1612           115.00         501.32         
122.39         2979           1615           110.00         479.52         
122.42         2979           1618           113.00         492.60         
122.45         2979           1622           115.00         501.32         
122.48         2980           1625           110.00         479.52         
122.50         2980           1628           105.00         457.72         
122.53         2980           1632           110.00         479.52         
122.56         2980           1635           111.00         483.88         
122.59         2981           1638           111.00         483.88         
122.61         2981           1642           117.00         510.03         
122.64         2981           1645           110.00         479.52         
122.67         2981           1648           106.00         462.08         
122.70         2982           1652           108.00         470.80         
122.72         2982           1655           112.00         488.24         
122.75         2982           1658           112.00         488.24         
122.78         2982           1662           109.00         475.16         
122.81         2983           1665           106.00         462.08         
122.84         2983           1668           104.00         453.36         
122.86         2983           1672           111.00         483.88         
122.89         2983           1675           109.00         475.16         
122.92         2984           1678           102.00         444.64         
122.95         2984           1682           103.00         449.00         
122.97         2984           1685           108.00         470.80         
HS scan finished at 2:02:58
end
