************************************************************
HS Scan of 
************************************************************
Integration time is 0.2294 seconds per sample
dh20619El Arenosillo 37.1  6.73  2.86pr1000
************************************************************
Dead Time -------------------------  2.8E-8
Number of Cycles Used -------------  4
Starting Wavelength (Angstroms) ---  2950
Final Wavelength (Angstoms) -------  2984
Wavelength Increment (Angstroms) --  0.25
Filter Wheel #1 Position ---------- (1) Ground quartz diffuser (ND = 2.32)
Filter Wheel #2 Position ---------- (1) Neutral density 0.494
 
 
 
************************************************************
HS scan start time = 4:00:05
Dark Count =  0.05
 
 
Time (GMT)  Wavelength (Ang)  Step Number  Raw Counts  Counts/Second
 
236.32         2950           1232           96.00          418.49         
236.35         2950           1236           111.00         483.88         
236.37         2951           1239           107.00         466.44         
236.40         2951           1242           94.00          409.77         
236.43         2951           1246           102.00         444.64         
236.46         2951           1249           100.00         435.93         
236.49         2952           1252           103.00         449.00         
236.51         2952           1256           105.00         457.72         
236.54         2952           1259           106.00         462.08         
236.57         2952           1262           109.00         475.16         
236.60         2953           1265           101.00         440.28         
236.62         2953           1269           105.00         457.72         
236.65         2953           1272           110.00         479.52         
236.68         2953           1275           107.00         466.44         
236.71         2954           1279           106.00         462.08         
236.73         2954           1282           107.00         466.44         
236.76         2954           1285           107.00         466.44         
236.79         2954           1289           106.00         462.08         
236.82         2955           1292           96.00          418.49         
236.85         2955           1295           107.00         466.44         
236.87         2955           1299           108.00         470.80         
236.90         2955           1302           97.00          422.85         
236.93         2956           1305           97.00          422.85         
236.96         2956           1309           102.00         444.64         
236.98         2956           1312           103.00         449.00         
237.01         2956           1315           103.00         449.00         
237.04         2957           1318           108.00         470.80         
237.07         2957           1322           101.00         440.28         
237.10         2957           1325           115.00         501.31         
237.12         2957           1328           96.00          418.49         
237.15         2958           1332           102.00         444.64         
237.18         2958           1335           109.00         475.16         
237.21         2958           1338           108.00         470.80         
237.23         2958           1342           108.00         470.80         
237.26         2959           1345           100.00         435.93         
237.29         2959           1348           111.00         483.88         
237.32         2959           1352           96.00          418.49         
237.35         2959           1355           108.00         470.80         
237.37         2960           1358           106.00         462.08         
237.40         2960           1362           100.00         435.93         
237.43         2960           1365           100.00         435.93         
237.46         2960           1368           107.00         466.44         
237.48         2961           1372           110.00         479.52         
237.51         2961           1375           103.00         449.00         
237.54         2961           1378           125.00         544.91         
237.57         2961           1382           164.00         714.92         
237.59         2962           1385           439.00         1913.79        
237.62         2962           1388           1190.00        5188.20        
237.65         2962           1391           2609.00        11376.77       
237.68         2962           1395           5745.00        25061.17       
237.71         2963           1398           8608.00        37563.46       
237.73         2963           1401           12308.00       53733.79       
237.76         2963           1405           16461.00       71901.37       
237.79         2963           1408           19331.00       84467.19       
237.82         2964           1411           22585.00       98725.01       
237.85         2964           1415           27005.00       118110.09      
237.87         2964           1418           30667.00       134186.75      
237.90         2964           1421           34000.00       148831.66      
237.93         2965           1425           37881.00       165899.62      
237.96         2965           1428           40718.00       178386.61      
237.99         2965           1431           43954.00       192640.48      
238.01         2965           1435           48774.00       213892.69      
238.04         2966           1438           51518.00       226002.81      
238.07         2966           1441           54838.00       240666.01      
238.10         2966           1445           59269.00       260254.92      
238.13         2966           1448           62585.00       274928.68      
238.15         2967           1451           64965.00       285467.97      
238.18         2967           1455           67028.00       294608.56      
238.21         2967           1458           67242.00       295557.00      
238.24         2967           1461           67185.00       295304.38      
238.26         2968           1465           66514.00       292330.73      
238.29         2968           1468           66786.00       293536.08      
238.32         2968           1471           65754.00       288963.26      
238.35         2968           1475           63033.00       276912.07      
238.38         2969           1478           60134.00       264081.50      
238.40         2969           1481           57223.00       251207.12      
238.43         2969           1485           53268.00       233730.40      
238.46         2969           1488           50159.00       220004.09      
238.49         2970           1491           47058.00       206323.64      
238.51         2970           1495           42795.00       187534.03      
238.54         2970           1498           40051.00       175450.04      
238.57         2970           1501           37444.00       163976.96      
238.60         2971           1505           33187.00       145258.30      
238.63         2971           1508           30017.00       131332.10      
238.65         2971           1511           26706.00       116798.09      
238.68         2971           1515           22622.00       98887.20       
238.71         2972           1518           19295.00       84309.52       
238.74         2972           1521           16189.00       70710.92       
238.77         2972           1525           12606.00       55036.80       
238.79         2972           1528           9497.00        41447.38       
238.82         2973           1531           6442.00        28104.06       
238.85         2973           1535           2843.00        12397.50       
238.88         2973           1538           1391.00        6064.67        
238.90         2973           1541           537.00         2341.04        
238.93         2974           1544           219.00         954.69         
238.96         2974           1548           150.00         653.89         
238.99         2974           1551           143.00         623.38         
239.01         2974           1554           138.00         601.58         
239.04         2975           1558           124.00         540.55         
239.07         2975           1561           109.00         475.16         
239.10         2975           1564           106.00         462.08         
239.13         2975           1568           103.00         449.00         
239.15         2976           1571           97.00          422.85         
239.18         2976           1574           109.00         475.16         
239.21         2976           1578           107.00         466.44         
239.24         2976           1581           97.00          422.85         
239.26         2977           1584           95.00          414.13         
239.29         2977           1588           95.00          414.13         
239.32         2977           1591           101.00         440.28         
239.35         2977           1595           98.00          427.21         
239.38         2978           1598           99.00          431.57         
239.40         2978           1601           103.00         449.00         
239.43         2978           1605           93.00          405.41         
239.46         2978           1608           91.00          396.69         
239.49         2979           1611           98.00          427.21         
239.51         2979           1615           97.00          422.85         
239.54         2979           1618           99.00          431.57         
239.57         2979           1621           90.00          392.33         
239.60         2980           1625           105.00         457.72         
239.63         2980           1628           108.00         470.80         
239.65         2980           1631           104.00         453.36         
239.68         2980           1635           98.00          427.21         
239.71         2981           1638           98.00          427.21         
239.74         2981           1641           93.00          405.41         
239.76         2981           1645           97.00          422.85         
239.79         2981           1648           100.00         435.93         
239.82         2982           1651           99.00          431.57         
239.85         2982           1655           96.00          418.49         
239.87         2982           1658           96.00          418.49         
239.90         2982           1661           105.00         457.72         
239.93         2983           1665           92.00          401.05         
239.96         2983           1668           94.00          409.77         
239.98         2983           1671           90.00          392.33         
240.01         2983           1675           102.00         444.64         
240.04         2984           1678           100.00         435.93         
240.07         2984           1681           94.00          409.77         
240.09         2984           1685           88.00          383.61         
HS scan finished at 4:00:05
end
