************************************************************
  HS Scan of (1) Internal mercury lamp
************************************************************
Integration time is 0.2294 seconds per sample
dh040717Delft 51.997-4.386 3.018777pr1000
************************************************************
Dead Time -------------------------  3E-08 
Number of Cycles Used -------------  4 
Starting Wavelength (Angstroms) ---  2950 
Final Wavelength (Angstoms) -------  2984 
Wavelength Increment (Angstroms) --  .25 
Filter Wheel #1 Position ---------- (1) Ground quartz diffuser (ND=2.32)
Filter Wheel #2 Position ---------- (1) Neutral Density 0.494



************************************************************
HS scan start time = 02:47:39
Dark Count =  .1 


Time (GMT)  Wavelength (Ang)  Step Number  Raw Counts  Counts/Second

  168.11        2950.00           1229         110.00       479.08
  168.22        2950.25           1232         123.00       535.75
  168.24        2950.50           1236         122.00       531.39
  168.27        2950.75           1239         124.00       540.11
  168.30        2951.00           1242         116.00       505.24
  168.33        2951.25           1246         110.00       479.08
  168.35        2951.50           1249         120.00       522.68
  168.38        2951.75           1252         112.00       487.80
  168.41        2952.00           1255         121.00       527.04
  168.44        2952.25           1259         123.00       535.75
  168.46        2952.50           1262         113.00       492.16
  168.49        2952.75           1265         116.00       505.24
  168.53        2953.00           1269         115.00       500.88
  168.56        2953.25           1272         110.00       479.08
  168.58        2953.50           1275         106.00       461.65
  168.61        2953.75           1279         107.00       466.00
  168.64        2954.00           1282         119.00       518.32
  168.67        2954.25           1285         114.00       496.52
  168.70        2954.50           1289         104.00       452.93
  168.73        2954.75           1292         116.00       505.24
  168.76        2955.00           1295         115.00       500.88
  168.78        2955.25           1299         114.00       496.52
  168.81        2955.50           1302         116.00       505.24
  168.84        2955.75           1305         115.00       500.88
  168.87        2956.00           1309         117.00       509.60
  168.90        2956.25           1312         113.00       492.16
  168.93        2956.50           1315         118.00       513.96
  168.95        2956.75           1319         100.00       435.49
  168.98        2957.00           1322         117.00       509.60
  169.01        2957.25           1325         109.00       474.72
  169.04        2957.50           1329         113.00       492.16
  169.06        2957.75           1332         110.00       479.08
  169.10        2958.00           1335         115.00       500.88
  169.13        2958.25           1339         104.00       452.93
  169.15        2958.50           1342         116.00       505.24
  169.18        2958.75           1345         115.00       500.88
  169.21        2959.00           1349         109.00       474.72
  169.24        2959.25           1352         106.00       461.65
  169.27        2959.50           1355         107.00       466.00
  169.30        2959.75           1359         113.00       492.16
  169.32        2960.00           1362         111.00       483.44
  169.35        2960.25           1365         106.00       461.65
  169.38        2960.50           1369         122.00       531.39
  169.41        2960.75           1372         125.00       544.47
  169.44        2961.00           1375         132.00       574.99
  169.46        2961.25           1379         149.00       649.10
  169.49        2961.50           1382         194.00       845.27
  169.52        2961.75           1385         736.00      3208.24
  169.55        2962.00           1389        3121.00     13610.18
  169.57        2962.25           1392        5556.00     24236.89
  169.60        2962.50           1395        7757.00     33848.22
  169.63        2962.75           1399       11361.00     49598.16
  169.66        2963.00           1402       14658.00     64019.53
  169.69        2963.25           1405       17668.00     77196.46
  169.71        2963.50           1409       22342.00     97678.59
  169.74        2963.75           1412       25355.00    110895.40
  169.77        2964.00           1415       27935.00    122221.10
  169.80        2964.25           1419       31830.00    139334.10
  169.82        2964.50           1422       34985.00    153208.70
  169.85        2964.75           1425       37924.00    166143.90
  169.88        2965.00           1429       42205.00    185003.50
  169.91        2965.25           1432       45798.00    200848.70
  169.93        2965.50           1435       48789.00    214050.60
  169.96        2965.75           1439       52182.00    229039.60
  169.99        2966.00           1442       55403.00    243281.30
  170.02        2966.25           1445       58094.00    255189.00
  170.05        2966.50           1449       61281.00    269302.50
  170.07        2966.75           1452       62603.00    275160.50
  170.10        2967.00           1455       62986.00    276858.00
  170.13        2967.25           1459       63073.00    277243.60
  170.16        2967.50           1462       63170.00    277673.60
  170.19        2967.75           1465       63030.00    277053.00
  170.21        2968.00           1469       61508.00    270308.20
  170.24        2968.25           1472       59686.00    262237.60
  170.27        2968.50           1475       57457.00    252369.50
  170.30        2968.75           1479       53457.00    234675.60
  170.32        2969.00           1482       51111.00    224306.90
  170.35        2969.25           1485       47896.00    210107.90
  170.38        2969.50           1489       44518.00    195202.10
  170.41        2969.75           1492       42055.00    184342.30
  170.44        2970.00           1495       39271.00    172075.60
  170.46        2970.25           1499       35123.00    153815.80
  170.49        2970.50           1502       31976.00    139975.90
  170.52        2970.75           1505       28635.00    125295.30
  170.55        2971.00           1509       24554.00    107380.70
  170.58        2971.25           1512       21991.00     96139.57
  170.61        2971.50           1515       19204.00     83924.64
  170.64        2971.75           1519       15190.00     66347.71
  170.67        2972.00           1522       12138.00     52995.70
  170.70        2972.25           1525        9770.00     42643.45
  170.72        2972.50           1529        6327.00     27603.06
  170.75        2972.75           1532        3645.00     15896.42
  170.78        2973.00           1536        1176.00      5126.77
  170.81        2973.25           1539         372.00      1621.26
  170.84        2973.50           1542         171.00       745.00
  170.87        2973.75           1546         143.00       622.94
  170.90        2974.00           1549         134.00       583.71
  170.93        2974.25           1552         122.00       531.39
  170.96        2974.50           1556         119.00       518.32
  170.98        2974.75           1559         123.00       535.75
  171.01        2975.00           1562         104.00       452.93
  171.04        2975.25           1566         107.00       466.00
  171.07        2975.50           1569         101.00       439.85
  171.09        2975.75           1572          99.00       431.13
  171.12        2976.00           1576         100.00       435.49
  171.15        2976.25           1579         112.00       487.80
  171.18        2976.50           1582         102.00       444.21
  171.21        2976.75           1586         110.00       479.08
  171.24        2977.00           1589         103.00       448.57
  171.26        2977.25           1592         102.00       444.21
  171.29        2977.50           1596         100.00       435.49
  171.32        2977.75           1599          98.00       426.77
  171.35        2978.00           1602          98.00       426.77
  171.37        2978.25           1606          98.00       426.77
  171.40        2978.50           1609          98.00       426.77
  171.43        2978.75           1612         103.00       448.57
  171.46        2979.00           1616         107.00       466.00
  171.48        2979.25           1619         106.00       461.65
  171.51        2979.50           1623         109.00       474.72
  171.54        2979.75           1626         100.00       435.49
  171.57        2980.00           1629         105.00       457.29
  171.59        2980.25           1633         103.00       448.57
  171.62        2980.50           1636         104.00       452.93
  171.65        2980.75           1639         111.00       483.44
  171.68        2981.00           1643          97.00       422.41
  171.70        2981.25           1646          99.00       431.13
  171.73        2981.50           1649          97.00       422.41
  171.76        2981.75           1653          93.00       404.97
  171.79        2982.00           1656          95.00       413.69
  171.82        2982.25           1659          95.00       413.69
  171.84        2982.50           1663          96.00       418.05
  171.87        2982.75           1666          97.00       422.41
  171.90        2983.00           1669          92.00       400.62
  171.93        2983.25           1673          98.00       426.77
  171.95        2983.50           1676          97.00       422.41
  171.98        2983.75           1679          90.00       391.90
  172.01        2984.00           1683          85.00       370.10
HS scan finished at 02:52:18
end
