************************************************************
  HS Scan of (1) Internal mercury lamp
************************************************************
Integration time is 0.2294 seconds per sample
dh040818Arosa 46.78-9.675 2.911481pr1000
************************************************************
Dead Time -------------------------  2.7E-08 
Number of Cycles Used -------------  4 
Starting Wavelength (Angstroms) ---  2950 
Final Wavelength (Angstoms) -------  2984 
Wavelength Increment (Angstroms) --  .25 
Filter Wheel #1 Position ---------- (1) Ground quartz diffuser (ND=2.32)
Filter Wheel #2 Position ---------- (1) Neutral Density 0.494



************************************************************
HS scan start time = 00:16:37
Dark Count =  .3 


Time (GMT)  Wavelength (Ang)  Step Number  Raw Counts  Counts/Second

   17.07        2950.00           1232          98.00       425.90
   17.17        2950.25           1236         103.00       447.70
   17.20        2950.50           1239         100.00       434.62
   17.23        2950.75           1242         101.00       438.98
   17.26        2951.00           1246         104.00       452.05
   17.29        2951.25           1249         111.00       482.57
   17.32        2951.50           1252         105.00       456.41
   17.35        2951.75           1256         111.00       482.57
   17.38        2952.00           1259          95.00       412.82
   17.41        2952.25           1262         106.00       460.77
   17.44        2952.50           1265         101.00       438.98
   17.47        2952.75           1269         111.00       482.57
   17.50        2953.00           1272         104.00       452.05
   17.53        2953.25           1275         100.00       434.62
   17.56        2953.50           1279         100.00       434.62
   17.59        2953.75           1282          97.00       421.54
   17.62        2954.00           1285         108.00       469.49
   17.65        2954.25           1289         105.00       456.41
   17.68        2954.50           1292         102.00       443.34
   17.71        2954.75           1295          89.00       386.66
   17.74        2955.00           1299          96.00       417.18
   17.77        2955.25           1302         102.00       443.34
   17.80        2955.50           1305         103.00       447.70
   17.83        2955.75           1309         104.00       452.05
   17.86        2956.00           1312          98.00       425.90
   17.89        2956.25           1315          95.00       412.82
   17.92        2956.50           1318         103.00       447.70
   17.95        2956.75           1322          98.00       425.90
   17.98        2957.00           1325          96.00       417.18
   18.01        2957.25           1328          99.00       430.26
   18.04        2957.50           1332         100.00       434.62
   18.07        2957.75           1335         102.00       443.34
   18.10        2958.00           1338         100.00       434.62
   18.13        2958.25           1342          95.00       412.82
   18.16        2958.50           1345          93.00       404.10
   18.19        2958.75           1348         102.00       443.34
   18.22        2959.00           1352         102.00       443.34
   18.25        2959.25           1355          98.00       425.90
   18.28        2959.50           1358         101.00       438.98
   18.31        2959.75           1362         100.00       434.62
   18.34        2960.00           1365         109.00       473.85
   18.37        2960.25           1368         103.00       447.70
   18.40        2960.50           1372         112.00       486.93
   18.43        2960.75           1375         121.00       526.16
   18.46        2961.00           1378         117.00       508.73
   18.49        2961.25           1382         180.00       783.36
   18.52        2961.50           1385         750.00      3268.38
   18.55        2961.75           1388        2163.00      9430.04
   18.58        2962.00           1391        4188.00     18264.02
   18.60        2962.25           1395        6785.00     29599.50
   18.63        2962.50           1398        9222.00     40242.92
   18.66        2962.75           1401       12163.00     53095.68
   18.70        2963.00           1405       16038.00     70043.85
   18.72        2963.25           1408       19106.00     83473.44
   18.76        2963.50           1411       21984.00     96080.22
   18.78        2963.75           1415       25066.00    109590.10
   18.81        2964.00           1418       27579.00    120613.10
   18.84        2964.25           1421       30705.00    134334.20
   18.87        2964.50           1425       34623.00    151546.00
   18.90        2964.75           1428       37202.00    162884.40
   18.93        2965.00           1431       39665.00    173719.20
   18.97        2965.25           1435       42939.00    188131.50
   19.00        2965.50           1438       45723.00    200395.60
   19.03        2965.75           1441       48575.00    212967.80
   19.06        2966.00           1445       52049.00    228293.50
   19.08        2966.25           1448       55013.00    241379.30
   19.12        2966.50           1451       56339.00    247236.50
   19.14        2966.75           1455       57490.00    252322.10
   19.18        2967.00           1458       57496.00    252348.70
   19.21        2967.25           1461       57364.00    251765.30
   19.24        2967.50           1465       56855.00    249516.20
   19.26        2967.75           1468       56435.00    247660.60
   19.29        2968.00           1471       55047.00    241529.40
   19.33        2968.25           1475       52986.00    232429.20
   19.36        2968.50           1478       50171.00    220007.00
   19.39        2968.75           1481       47232.00    207046.60
   19.41        2969.00           1485       43787.00    191866.30
   19.44        2969.25           1488       41296.00    180897.50
   19.47        2969.50           1491       38722.00    169570.10
   19.50        2969.75           1495       35496.00    155383.30
   19.54        2970.00           1498       32339.00    141510.40
   19.56        2970.25           1501       29607.00    129513.60
   19.60        2970.50           1505       26591.00    116278.60
   19.62        2970.75           1508       23905.00    104499.80
   19.65        2971.00           1511       21450.00     93740.44
   19.69        2971.25           1515       18040.00     78806.13
   19.72        2971.50           1518       15235.00     66530.48
   19.75        2971.75           1521       12551.00     54791.99
   19.78        2972.00           1525        8961.00     39102.73
   19.81        2972.25           1528        6489.00     28307.16
   19.84        2972.50           1531        4072.00     17757.86
   19.87        2972.75           1535        1430.00      6233.39
   19.90        2973.00           1538         523.00      2278.69
   19.93        2973.25           1541         218.00       949.02
   19.96        2973.50           1544         161.00       700.54
   19.99        2973.75           1548         137.00       595.91
   20.02        2974.00           1551         119.00       517.44
   20.05        2974.25           1554         125.00       543.60
   20.08        2974.50           1558         108.00       469.49
   20.11        2974.75           1561         104.00       452.05
   20.14        2975.00           1564          94.00       408.46
   20.17        2975.25           1568          94.00       408.46
   20.20        2975.50           1571          93.00       404.10
   20.23        2975.75           1574          93.00       404.10
   20.26        2976.00           1578          92.00       399.74
   20.29        2976.25           1581          94.00       408.46
   20.32        2976.50           1584         100.00       434.62
   20.35        2976.75           1588          91.00       395.38
   20.38        2977.00           1591          87.00       377.95
   20.41        2977.25           1595          93.00       404.10
   20.44        2977.50           1598         100.00       434.62
   20.47        2977.75           1601          94.00       408.46
   20.50        2978.00           1605          96.00       417.18
   20.53        2978.25           1608          96.00       417.18
   20.56        2978.50           1611          89.00       386.66
   20.59        2978.75           1615          94.00       408.46
   20.62        2979.00           1618          84.00       364.87
   20.65        2979.25           1621          91.00       395.38
   20.68        2979.50           1625          92.00       399.74
   20.71        2979.75           1628          95.00       412.82
   20.74        2980.00           1631          93.00       404.10
   20.77        2980.25           1635          91.00       395.38
   20.80        2980.50           1638          97.00       421.54
   20.83        2980.75           1641          94.00       408.46
   20.86        2981.00           1645          90.00       391.02
   20.89        2981.25           1648          86.00       373.59
   20.92        2981.50           1651          84.00       364.87
   20.95        2981.75           1655          87.00       377.95
   20.97        2982.00           1658          92.00       399.74
   21.00        2982.25           1661          86.00       373.59
   21.03        2982.50           1665          93.00       404.10
   21.06        2982.75           1668          88.00       382.31
   21.10        2983.00           1671          88.00       382.31
   21.13        2983.25           1675          86.00       373.59
   21.16        2983.50           1678          89.00       386.66
   21.18        2983.75           1681          87.00       377.95
   21.21        2984.00           1685          95.00       412.82
HS scan finished at 00:21:31
end
************************************************************
  HS Scan of (1) Internal mercury lamp
************************************************************
Integration time is 0.2294 seconds per sample
dh040818Arosa 46.78-9.675 2.965129pr1000
************************************************************
Dead Time -------------------------  2.7E-08 
Number of Cycles Used -------------  4 
Starting Wavelength (Angstroms) ---  2950 
Final Wavelength (Angstoms) -------  2984 
Wavelength Increment (Angstroms) --  .25 
Filter Wheel #1 Position ---------- (1) Ground quartz diffuser (ND=2.32)
Filter Wheel #2 Position ---------- (1) Neutral Density 0.494



************************************************************
HS scan start time = 04:08:38
Dark Count =  .2 


Time (GMT)  Wavelength (Ang)  Step Number  Raw Counts  Counts/Second

  249.09        2950.00           1232          99.00       430.69
  249.19        2950.25           1236         109.00       474.29
  249.23        2950.50           1239         107.00       465.57
  249.26        2950.75           1242         112.00       487.36
  249.29        2951.00           1246         116.00       504.80
  249.32        2951.25           1249         110.00       478.65
  249.35        2951.50           1252         112.00       487.36
  249.38        2951.75           1256         107.00       465.57
  249.41        2952.00           1259         111.00       483.01
  249.44        2952.25           1262         110.00       478.65
  249.47        2952.50           1265         115.00       500.44
  249.50        2952.75           1269         114.00       496.08
  249.53        2953.00           1272         101.00       439.41
  249.56        2953.25           1275         108.00       469.93
  249.59        2953.50           1279         110.00       478.65
  249.62        2953.75           1282         114.00       496.08
  249.66        2954.00           1285         109.00       474.29
  249.69        2954.25           1289         113.00       491.72
  249.72        2954.50           1292         117.00       509.16
  249.75        2954.75           1295         101.00       439.41
  249.78        2955.00           1299         107.00       465.57
  249.82        2955.25           1302         102.00       443.77
  249.85        2955.50           1305         102.00       443.77
  249.88        2955.75           1309         108.00       469.93
  249.91        2956.00           1312         101.00       439.41
  249.94        2956.25           1315         112.00       487.36
  249.97        2956.50           1318         108.00       469.93
  250.00        2956.75           1322         111.00       483.01
  250.04        2957.00           1325         103.00       448.13
  250.07        2957.25           1328         111.00       483.01
  250.10        2957.50           1332         106.00       461.21
  250.13        2957.75           1335          95.00       413.26
  250.16        2958.00           1338         107.00       465.57
  250.19        2958.25           1342         107.00       465.57
  250.23        2958.50           1345         103.00       448.13
  250.26        2958.75           1348         100.00       435.05
  250.29        2959.00           1352          96.00       417.62
  250.32        2959.25           1355         112.00       487.36
  250.35        2959.50           1358          98.00       426.33
  250.38        2959.75           1362         112.00       487.36
  250.41        2960.00           1365          98.00       426.33
  250.44        2960.25           1368         102.00       443.77
  250.47        2960.50           1372         103.00       448.13
  250.51        2960.75           1375         129.00       561.47
  250.54        2961.00           1378         130.00       565.83
  250.57        2961.25           1382         186.00       809.96
  250.60        2961.50           1385         656.00      2858.98
  250.63        2961.75           1388        2045.00      8915.84
  250.66        2962.00           1391        4102.00     17889.20
  250.69        2962.25           1395        6802.00     29674.16
  250.73        2962.50           1398        8965.00     39120.63
  250.76        2962.75           1401       11821.00     51601.05
  250.79        2963.00           1405       15763.00     68841.00
  250.82        2963.25           1408       18590.00     81214.52
  250.85        2963.50           1411       21025.00     91878.92
  250.89        2963.75           1415       23988.00    104864.10
  250.92        2964.00           1418       26624.00    116423.80
  250.95        2964.25           1421       29806.00    130387.60
  250.98        2964.50           1425       33130.00    144985.80
  251.01        2964.75           1428       35886.00    157098.30
  251.05        2965.00           1431       38813.00    169970.90
  251.08        2965.25           1435       42362.00    185591.10
  251.11        2965.50           1438       44735.00    196042.80
  251.14        2965.75           1441       47309.00    207386.40
  251.17        2966.00           1445       50855.00    223025.10
  251.20        2966.25           1448       53266.00    233665.70
  251.23        2966.50           1451       54191.00    237749.70
  251.26        2966.75           1455       55252.00    242435.30
  251.29        2967.00           1458       54997.00    241309.00
  251.32        2967.25           1461       55281.00    242563.40
  251.35        2967.50           1465       54927.00    240999.90
  251.38        2967.75           1468       54559.00    239374.70
  251.41        2968.00           1471       52920.00    232138.30
  251.44        2968.25           1475       50188.00    220082.50
  251.47        2968.50           1478       47796.00    209533.40
  251.50        2968.75           1481       45510.00    199457.50
  251.53        2969.00           1485       42192.00    184842.60
  251.56        2969.25           1488       40104.00    175651.50
  251.59        2969.50           1491       37512.00    164248.20
  251.62        2969.75           1495       34645.00    151643.20
  251.65        2970.00           1498       31684.00    138633.90
  251.68        2970.25           1501       28885.00    126344.80
  251.71        2970.50           1505       25020.00    109388.90
  251.74        2970.75           1508       22326.00     97579.33
  251.77        2971.00           1511       20095.00     87805.14
  251.80        2971.25           1515       16910.00     73860.31
  251.83        2971.50           1518       14236.00     62160.92
  251.86        2971.75           1521       11568.00     50495.13
  251.90        2972.00           1525        8764.00     38242.61
  251.93        2972.25           1528        6512.00     28408.01
  251.96        2972.50           1531        4171.00     18190.27
  251.99        2972.75           1535        1434.00      6251.27
  252.02        2973.00           1538         510.00      2222.45
  252.05        2973.25           1541         199.00       866.63
  252.08        2973.50           1544         159.00       692.25
  252.11        2973.75           1548         136.00       591.99
  252.14        2974.00           1551         135.00       587.63
  252.17        2974.25           1554         114.00       496.08
  252.20        2974.50           1558         101.00       439.41
  252.23        2974.75           1561         107.00       465.57
  252.26        2975.00           1564         111.00       483.01
  252.29        2975.25           1568         101.00       439.41
  252.32        2975.50           1571         101.00       439.41
  252.35        2975.75           1574          99.00       430.69
  252.38        2976.00           1578         100.00       435.05
  252.41        2976.25           1581         101.00       439.41
  252.44        2976.50           1584          97.00       421.98
  252.47        2976.75           1588          92.00       400.18
  252.50        2977.00           1591          94.00       408.90
  252.53        2977.25           1595          98.00       426.33
  252.56        2977.50           1598         102.00       443.77
  252.59        2977.75           1601         104.00       452.49
  252.62        2978.00           1605         100.00       435.05
  252.65        2978.25           1608          87.00       378.38
  252.68        2978.50           1611          89.00       387.10
  252.71        2978.75           1615          93.00       404.54
  252.74        2979.00           1618          92.00       400.18
  252.77        2979.25           1621          97.00       421.98
  252.80        2979.50           1625          99.00       430.69
  252.83        2979.75           1628          92.00       400.18
  252.86        2980.00           1631          92.00       400.18
  252.89        2980.25           1635          96.00       417.62
  252.92        2980.50           1638          96.00       417.62
  252.95        2980.75           1641          98.00       426.33
  252.98        2981.00           1645         104.00       452.49
  253.01        2981.25           1648          88.00       382.74
  253.04        2981.50           1651         100.00       435.05
  253.07        2981.75           1655          88.00       382.74
  253.10        2982.00           1658          96.00       417.62
  253.13        2982.25           1661          92.00       400.18
