************************************************************
  HS Scan of (1) Internal mercury lamp
************************************************************
Integration time is 0.2294 seconds per sample
dh110818Delft 52.017-4.35 3.287017pr1000
************************************************************
Dead Time -------------------------  2.8E-08 
Number of Cycles Used -------------  4 
Starting Wavelength (Angstroms) ---  2950 
Final Wavelength (Angstoms) -------  2984 
Wavelength Increment (Angstroms) --  .25 
Filter Wheel #1 Position ---------- (1) Ground quartz diffuser (ND=2.32)
Filter Wheel #2 Position ---------- (1) Neutral Density 0.494



************************************************************
HS scan start time = 00:31:34
Dark Count =  .7 


Time (GMT)  Wavelength (Ang)  Step Number  Raw Counts  Counts/Second

   32.03        2950.00           1232         194.00       842.65
   32.13        2950.25           1236         183.00       794.70
   32.16        2950.50           1239         184.00       799.06
   32.19        2950.75           1242         184.00       799.06
   32.22        2951.00           1246         185.00       803.42
   32.24        2951.25           1249         192.00       833.93
   32.27        2951.50           1252         180.00       781.62
   32.30        2951.75           1256         179.00       777.26
   32.33        2952.00           1259         199.00       864.45
   32.36        2952.25           1262         189.00       820.86
   32.39        2952.50           1265         194.00       842.65
   32.42        2952.75           1269         175.00       759.82
   32.45        2953.00           1272         187.00       812.14
   32.48        2953.25           1275         174.00       755.46
   32.51        2953.50           1279         171.00       742.39
   32.54        2953.75           1282         192.00       833.93
   32.57        2954.00           1285         191.00       829.57
   32.60        2954.25           1289         184.00       799.06
   32.63        2954.50           1292         181.00       785.98
   32.66        2954.75           1295         179.00       777.26
   32.69        2955.00           1299         181.00       785.98
   32.72        2955.25           1302         175.00       759.82
   32.75        2955.50           1305         185.00       803.42
   32.78        2955.75           1309         180.00       781.62
   32.81        2956.00           1312         165.00       716.23
   32.84        2956.25           1315         184.00       799.06
   32.87        2956.50           1318         184.00       799.06
   32.90        2956.75           1322         184.00       799.06
   32.93        2957.00           1325         188.00       816.50
   32.96        2957.25           1328         186.00       807.78
   32.99        2957.50           1332         194.00       842.65
   33.02        2957.75           1335         179.00       777.26
   33.05        2958.00           1338         190.00       825.22
   33.08        2958.25           1342         178.00       772.90
   33.11        2958.50           1345         180.00       781.62
   33.14        2958.75           1348         178.00       772.90
   33.17        2959.00           1352         181.00       785.98
   33.20        2959.25           1355         183.00       794.70
   33.23        2959.50           1358         181.00       785.98
   33.26        2959.75           1362         187.00       812.14
   33.29        2960.00           1365         176.00       764.18
   33.32        2960.25           1368         187.00       812.14
   33.35        2960.50           1372         199.00       864.45
   33.38        2960.75           1375         203.00       881.89
   33.40        2961.00           1378         224.00       973.44
   33.43        2961.25           1382         298.00      1296.04
   33.46        2961.50           1385        1117.00      4866.84
   33.49        2961.75           1388        2998.00     13070.61
   33.52        2962.00           1391        5660.00     24687.07
   33.55        2962.25           1395       10466.00     45678.70
   33.58        2962.50           1398       15310.00     66861.32
   33.61        2962.75           1401       19570.00     85510.96
   33.64        2963.00           1405       26054.00    113934.40
   33.67        2963.25           1408       31128.00    136208.60
   33.70        2963.50           1411       35222.00    154201.00
   33.73        2963.75           1415       41842.00    183333.20
   33.76        2964.00           1418       46129.00    202224.20
   33.79        2964.25           1421       50944.00    223465.80
   33.82        2964.50           1425       56843.00    249524.10
   33.85        2964.75           1428       60569.00    266003.10
   33.88        2965.00           1431       64368.00    282820.60
   33.91        2965.25           1435       70005.00    307804.00
   33.94        2965.50           1438       74546.00    327955.50
   33.97        2965.75           1441       79544.00    350161.40
   34.00        2966.00           1445       84244.00    371068.60
   34.03        2966.25           1448       88519.00    390106.70
   34.06        2966.50           1451       91662.00    404116.70
   34.09        2966.75           1455       93657.00    413015.10
   34.12        2967.00           1458       93971.00    414416.10
   34.15        2967.25           1461       93867.00    413952.10
   34.18        2967.50           1465       93470.00    412180.90
   34.21        2967.75           1468       93314.00    411484.90
   34.24        2968.00           1471       91538.00    403563.70
   34.27        2968.25           1475       87884.00    387277.50
   34.30        2968.50           1478       83713.00    368705.30
   34.33        2968.75           1481       78471.00    345391.80
   34.36        2969.00           1485       72268.00    317843.60
   34.39        2969.25           1488       68878.00    302806.30
   34.42        2969.50           1491       64148.00    281846.30
   34.45        2969.75           1495       58182.00    255444.40
   34.48        2970.00           1498       53891.00    236479.20
   34.51        2970.25           1501       49932.00    218999.20
   34.54        2970.50           1505       44966.00    197097.40
   34.57        2970.75           1508       40306.00    176569.60
   34.60        2971.00           1511       35513.00    155480.60
   34.63        2971.25           1515       28836.00    126143.50
   34.66        2971.50           1518       24409.00    106719.00
   34.69        2971.75           1521       20348.00     88919.02
   34.71        2972.00           1525       15199.00     66375.65
   34.74        2972.25           1528       10658.00     46517.83
   34.77        2972.50           1531        6585.00     28725.36
   34.80        2972.75           1535        2057.00      8966.07
   34.83        2973.00           1538         765.00      3332.05
   34.86        2973.25           1541         367.00      1596.85
   34.89        2973.50           1544         269.00      1169.61
   34.92        2973.75           1548         248.00      1078.06
   34.95        2974.00           1551         205.00       890.61
   34.98        2974.25           1554         223.00       969.08
   35.01        2974.50           1558         216.00       938.56
   35.04        2974.75           1561         194.00       842.65
   35.07        2975.00           1564         176.00       764.18
   35.10        2975.25           1568         176.00       764.18
   35.13        2975.50           1571         170.00       738.03
   35.16        2975.75           1574         179.00       777.26
   35.19        2976.00           1578         175.00       759.82
   35.22        2976.25           1581         164.00       711.87
   35.25        2976.50           1584         176.00       764.18
   35.28        2976.75           1588         165.00       716.23
   35.31        2977.00           1591         162.00       703.15
   35.34        2977.25           1595         173.00       751.11
   35.37        2977.50           1598         180.00       781.62
   35.40        2977.75           1601         173.00       751.11
   35.43        2978.00           1605         179.00       777.26
   35.46        2978.25           1608         166.00       720.59
   35.49        2978.50           1611         179.00       777.26
   35.52        2978.75           1615         162.00       703.15
   35.55        2979.00           1618         169.00       733.67
   35.58        2979.25           1621         173.00       751.11
   35.61        2979.50           1625         149.00       646.48
   35.64        2979.75           1628         167.00       724.95
   35.67        2980.00           1631         161.00       698.79
   35.70        2980.25           1635         161.00       698.79
   35.72        2980.50           1638         163.00       707.51
   35.76        2980.75           1641         172.00       746.75
   35.79        2981.00           1645         175.00       759.82
   35.81        2981.25           1648         158.00       685.71
   35.84        2981.50           1651         170.00       738.03
   35.88        2981.75           1655         168.00       729.31
   35.90        2982.00           1658         161.00       698.79
   35.93        2982.25           1661         162.00       703.15
   35.96        2982.50           1665         157.00       681.36
   35.99        2982.75           1668         150.00       650.84
   36.02        2983.00           1671         158.00       685.71
   36.05        2983.25           1675         161.00       698.79
   36.08        2983.50           1678         161.00       698.79
   36.11        2983.75           1681         155.00       672.64
   36.14        2984.00           1685         146.00       633.40
HS scan finished at 00:36:27
end
************************************************************
  HS Scan of (1) Internal mercury lamp
************************************************************
Integration time is 0.2294 seconds per sample
dh110818Delft 52.017-4.35 3.340665pr1000
************************************************************
Dead Time -------------------------  2.8E-08 
Number of Cycles Used -------------  4 
Starting Wavelength (Angstroms) ---  2950 
Final Wavelength (Angstoms) -------  2984 
Wavelength Increment (Angstroms) --  .25 
Filter Wheel #1 Position ---------- (1) Ground quartz diffuser (ND=2.32)
Filter Wheel #2 Position ---------- (1) Neutral Density 0.494



************************************************************
HS scan start time = 04:54:01
Dark Count =  .7 


Time (GMT)  Wavelength (Ang)  Step Number  Raw Counts  Counts/Second

  294.48        2950.00           1232         180.00       781.62
  294.58        2950.25           1236         180.00       781.62
  294.61        2950.50           1239         202.00       877.53
  294.64        2950.75           1242         188.00       816.50
  294.67        2951.00           1246         188.00       816.50
  294.70        2951.25           1249         174.00       755.46
  294.73        2951.50           1252         184.00       799.06
  294.76        2951.75           1256         197.00       855.73
  294.79        2952.00           1259         164.00       711.87
  294.82        2952.25           1262         171.00       742.39
  294.85        2952.50           1265         195.00       847.01
  294.88        2952.75           1269         193.00       838.29
  294.91        2953.00           1272         170.00       738.03
  294.94        2953.25           1275         190.00       825.22
  294.96        2953.50           1279         180.00       781.62
  295.00        2953.75           1282         186.00       807.78
  295.02        2954.00           1285         187.00       812.14
  295.05        2954.25           1289         179.00       777.26
  295.08        2954.50           1292         177.00       768.54
  295.11        2954.75           1295         177.00       768.54
  295.14        2955.00           1299         172.00       746.75
  295.17        2955.25           1302         173.00       751.11
  295.20        2955.50           1305         181.00       785.98
  295.23        2955.75           1309         192.00       833.93
  295.26        2956.00           1312         180.00       781.62
  295.29        2956.25           1315         175.00       759.82
  295.32        2956.50           1318         177.00       768.54
  295.35        2956.75           1322         186.00       807.78
  295.38        2957.00           1325         169.00       733.67
  295.41        2957.25           1328         191.00       829.57
  295.44        2957.50           1332         179.00       777.26
  295.47        2957.75           1335         182.00       790.34
  295.50        2958.00           1338         172.00       746.75
  295.53        2958.25           1342         163.00       707.51
  295.56        2958.50           1345         180.00       781.62
  295.59        2958.75           1348         173.00       751.11
  295.62        2959.00           1352         187.00       812.14
  295.65        2959.25           1355         175.00       759.82
  295.68        2959.50           1358         189.00       820.86
  295.71        2959.75           1362         185.00       803.42
  295.74        2960.00           1365         174.00       755.46
  295.77        2960.25           1368         186.00       807.78
  295.80        2960.50           1372         184.00       799.06
  295.83        2960.75           1375         206.00       894.97
  295.86        2961.00           1378         207.00       899.33
  295.89        2961.25           1382         289.00      1256.80
  295.92        2961.50           1385         948.00      4129.95
  295.95        2961.75           1388        2662.00     11604.90
  295.98        2962.00           1391        6064.00     26450.71
  296.01        2962.25           1395       11680.00     50985.12
  296.04        2962.50           1398       16285.00     71128.00
  296.07        2962.75           1401       20632.00     90163.25
  296.10        2963.00           1405       27250.00    119182.20
  296.13        2963.25           1408       32150.00    140698.40
  296.16        2963.50           1411       36459.00    159641.00
  296.19        2963.75           1415       41932.00    183729.60
  296.22        2964.00           1418       45900.00    201214.60
  296.25        2964.25           1421       50173.00    220062.80
  296.28        2964.50           1425       56124.00    246346.00
  296.31        2964.75           1428       61155.00    268596.20
  296.34        2965.00           1431       65018.00    285699.70
  296.37        2965.25           1435       70725.00    310997.60
  296.40        2965.50           1438       75363.00    331583.50
  296.43        2965.75           1441       79547.00    350174.70
  296.46        2966.00           1445       85171.00    375195.20
  296.49        2966.25           1448       89452.00    394264.40
  296.52        2966.50           1451       92573.00    408179.50
  296.55        2966.75           1455       93859.00    413916.40
  296.58        2967.00           1458       94482.00    416696.20
  296.61        2967.25           1461       94004.00    414563.30
  296.64        2967.50           1465       94312.00    415937.60
  296.67        2967.75           1468       93118.00    410610.50
  296.70        2968.00           1471       90714.00    399889.80
  296.73        2968.25           1475       86535.00    381268.70
  296.76        2968.50           1478       82344.00    362613.80
  296.79        2968.75           1481       77770.00    342276.40
  296.82        2969.00           1485       72629.00    319445.70
  296.85        2969.25           1488       69037.00    303511.30
  296.88        2969.50           1491       64840.00    284911.20
  296.91        2969.75           1495       59757.00    262410.50
  296.94        2970.00           1498       54920.00    241025.30
  296.97        2970.25           1501       49903.00    218871.30
  297.00        2970.50           1505       43722.00    191615.10
  297.03        2970.75           1508       39665.00    173747.80
  297.06        2971.00           1511       35052.00    153453.50
  297.09        2971.25           1515       29336.00    128338.70
  297.12        2971.50           1518       24924.00    108977.60
  297.15        2971.75           1521       20372.00     89024.16
  297.18        2972.00           1525       15357.00     67066.98
  297.21        2972.25           1528       11330.00     49455.10
  297.24        2972.50           1531        7574.00     33044.07
  297.27        2972.75           1535        2705.00     11792.47
  297.30        2973.00           1538         864.00      3763.69
  297.33        2973.25           1541         347.00      1509.65
  297.36        2973.50           1544         261.00      1134.74
  297.39        2973.75           1548         245.00      1064.98
  297.42        2974.00           1551         211.00       916.76
  297.45        2974.25           1554         220.00       956.00
  297.48        2974.50           1558         192.00       833.93
  297.51        2974.75           1561         177.00       768.54
  297.54        2975.00           1564         169.00       733.67
  297.57        2975.25           1568         182.00       790.34
  297.60        2975.50           1571         176.00       764.18
  297.63        2975.75           1574         165.00       716.23
  297.66        2976.00           1578         161.00       698.79
  297.69        2976.25           1581         170.00       738.03
  297.72        2976.50           1584         160.00       694.43
  297.75        2976.75           1588         169.00       733.67
  297.78        2977.00           1591         179.00       777.26
  297.81        2977.25           1595         169.00       733.67
  297.84        2977.50           1598         161.00       698.79
  297.87        2977.75           1601         156.00       677.00
  297.90        2978.00           1605         174.00       755.46
  297.93        2978.25           1608         155.00       672.64
  297.96        2978.50           1611         158.00       685.71
  297.99        2978.75           1615         151.00       655.20
  298.02        2979.00           1618         167.00       724.95
  298.05        2979.25           1621         154.00       668.28
  298.08        2979.50           1625         151.00       655.20
  298.11        2979.75           1628         153.00       663.92
  298.14        2980.00           1631         163.00       707.51
  298.17        2980.25           1635         152.00       659.56
  298.20        2980.50           1638         152.00       659.56
  298.23        2980.75           1641         165.00       716.23
  298.26        2981.00           1645         162.00       703.15
  298.29        2981.25           1648         166.00       720.59
  298.32        2981.50           1651         161.00       698.79
  298.35        2981.75           1655         160.00       694.43
  298.38        2982.00           1658         142.00       615.97
  298.41        2982.25           1661         146.00       633.40
