************************************************************
  HS Scan of (1) Internal mercury lamp
************************************************************
Integration time is 0.2294 seconds per sample
dh120818Delft 52.017-4.35 3.394313pr1000
************************************************************
Dead Time -------------------------  2.8E-08 
Number of Cycles Used -------------  4 
Starting Wavelength (Angstroms) ---  2950 
Final Wavelength (Angstoms) -------  2984 
Wavelength Increment (Angstroms) --  .25 
Filter Wheel #1 Position ---------- (1) Ground quartz diffuser (ND=2.32)
Filter Wheel #2 Position ---------- (1) Neutral Density 0.494



************************************************************
HS scan start time = 04:55:38
Dark Count =  .8 


Time (GMT)  Wavelength (Ang)  Step Number  Raw Counts  Counts/Second

  296.08        2950.00           1232         175.00       759.39
  296.19        2950.25           1236         174.00       755.03
  296.21        2950.50           1239         178.00       772.47
  296.25        2950.75           1242         186.00       807.34
  296.27        2951.00           1246         170.00       737.59
  296.30        2951.25           1249         170.00       737.59
  296.33        2951.50           1252         186.00       807.34
  296.36        2951.75           1256         171.00       741.95
  296.39        2952.00           1259         178.00       772.47
  296.42        2952.25           1262         174.00       755.03
  296.45        2952.50           1265         171.00       741.95
  296.48        2952.75           1269         182.00       789.90
  296.51        2953.00           1272         173.00       750.67
  296.54        2953.25           1275         169.00       733.23
  296.57        2953.50           1279         181.00       785.54
  296.60        2953.75           1282         171.00       741.95
  296.63        2954.00           1285         169.00       733.23
  296.66        2954.25           1289         168.00       728.87
  296.69        2954.50           1292         182.00       789.90
  296.72        2954.75           1295         164.00       711.44
  296.75        2955.00           1299         174.00       755.03
  296.78        2955.25           1302         167.00       724.51
  296.81        2955.50           1305         161.00       698.36
  296.84        2955.75           1309         175.00       759.39
  296.87        2956.00           1312         161.00       698.36
  296.90        2956.25           1315         172.00       746.31
  296.93        2956.50           1318         161.00       698.36
  296.96        2956.75           1322         169.00       733.23
  296.99        2957.00           1325         174.00       755.03
  297.02        2957.25           1328         168.00       728.87
  297.05        2957.50           1332         166.00       720.15
  297.08        2957.75           1335         160.00       694.00
  297.11        2958.00           1338         176.00       763.75
  297.14        2958.25           1342         162.00       702.72
  297.17        2958.50           1345         163.00       707.08
  297.20        2958.75           1348         159.00       689.64
  297.23        2959.00           1352         169.00       733.23
  297.26        2959.25           1355         165.00       715.79
  297.29        2959.50           1358         170.00       737.59
  297.32        2959.75           1362         166.00       720.15
  297.35        2960.00           1365         173.00       750.67
  297.38        2960.25           1368         178.00       772.47
  297.41        2960.50           1372         180.00       781.19
  297.44        2960.75           1375         194.00       842.22
  297.47        2961.00           1378         211.00       916.33
  297.50        2961.25           1382         295.00      1282.52
  297.53        2961.50           1385        1063.00      4630.94
  297.56        2961.75           1388        3054.00     13314.47
  297.59        2962.00           1391        5856.00     25542.24
  297.62        2962.25           1395       10496.00     45809.38
  297.65        2962.50           1398       15541.00     67871.68
  297.68        2962.75           1401       19828.00     86640.62
  297.70        2963.00           1405       26043.00    113885.70
  297.73        2963.25           1408       31556.00    138088.20
  297.77        2963.50           1411       35988.00    157569.00
  297.79        2963.75           1415       42616.00    186742.00
  297.82        2964.00           1418       46959.00    205883.60
  297.86        2964.25           1421       51595.00    226339.20
  297.88        2964.50           1425       57522.00    252525.60
  297.91        2964.75           1428       61965.00    272180.60
  297.94        2965.00           1431       65588.00    288224.30
  297.98        2965.25           1435       71466.00    314284.50
  298.01        2965.50           1438       75788.00    333470.60
  298.04        2965.75           1441       80233.00    353224.30
  298.07        2966.00           1445       85811.00    378044.30
  298.10        2966.25           1448       89697.00    395355.90
  298.13        2966.50           1451       93407.00    411899.30
  298.16        2966.75           1455       95005.00    419029.80
  298.19        2967.00           1458       95479.00    421145.50
  298.22        2967.25           1461       94919.00    418646.00
  298.25        2967.50           1465       95095.00    419431.50
  298.28        2967.75           1468       94982.00    418927.20
  298.31        2968.00           1471       93066.00    410378.20
  298.34        2968.25           1475       88773.00    391238.10
  298.37        2968.50           1478       84945.00    374188.60
  298.40        2968.75           1481       80334.00    353673.50
  298.43        2969.00           1485       73800.00    324643.00
  298.46        2969.25           1488       69068.00    303648.40
  298.49        2969.50           1491       64979.00    285526.50
  298.52        2969.75           1495       59656.00    261963.30
  298.55        2970.00           1498       54772.00    240370.90
  298.58        2970.25           1501       50414.00    221126.00
  298.61        2970.50           1505       45507.00    199481.60
  298.64        2970.75           1508       40856.00    178990.70
  298.67        2971.00           1511       35984.00    157551.40
  298.70        2971.25           1515       29634.00    129646.80
  298.73        2971.50           1518       25086.00    109687.70
  298.76        2971.75           1521       20662.00     90294.25
  298.80        2972.00           1525       14963.00     65342.64
  298.83        2972.25           1528       10659.00     46521.77
  298.86        2972.50           1531        6606.00     28816.62
  298.89        2972.75           1535        2083.00      9079.03
  298.92        2973.00           1538         705.00      3070.01
  298.95        2973.25           1541         332.00      1443.82
  298.98        2973.50           1544         271.00      1177.89
  299.01        2973.75           1548         221.00       959.92
  299.04        2974.00           1551         216.00       938.12
  299.07        2974.25           1554         190.00       824.78
  299.10        2974.50           1558         191.00       829.14
  299.13        2974.75           1561         176.00       763.75
  299.16        2975.00           1564         182.00       789.90
  299.19        2975.25           1568         163.00       707.08
  299.22        2975.50           1571         162.00       702.72
  299.25        2975.75           1574         169.00       733.23
  299.28        2976.00           1578         156.00       676.56
  299.31        2976.25           1581         151.00       654.76
  299.34        2976.50           1584         151.00       654.76
  299.37        2976.75           1588         161.00       698.36
  299.40        2977.00           1591         161.00       698.36
  299.43        2977.25           1595         154.00       667.84
  299.46        2977.50           1598         163.00       707.08
  299.49        2977.75           1601         153.00       663.48
  299.52        2978.00           1605         159.00       689.64
  299.55        2978.25           1608         164.00       711.44
  299.59        2978.50           1611         159.00       689.64
  299.61        2978.75           1615         162.00       702.72
  299.64        2979.00           1618         150.00       650.40
  299.67        2979.25           1621         164.00       711.44
  299.70        2979.50           1625         151.00       654.76
  299.73        2979.75           1628         145.00       628.61
  299.77        2980.00           1631         151.00       654.76
  299.79        2980.25           1635         154.00       667.84
  299.82        2980.50           1638         138.00       598.09
  299.85        2980.75           1641         150.00       650.40
  299.88        2981.00           1645         161.00       698.36
  299.91        2981.25           1648         159.00       689.64
  299.94        2981.50           1651         150.00       650.40
  299.97        2981.75           1655         157.00       680.92
  300.00        2982.00           1658         147.00       637.33
  300.03        2982.25           1661         150.00       650.40
  300.06        2982.50           1665         157.00       680.92
  300.09        2982.75           1668         156.00       676.56
  300.12        2983.00           1671         145.00       628.61
  300.15        2983.25           1675         145.00       628.61
  300.18        2983.50           1678         143.00       619.89
  300.21        2983.75           1681         141.00       611.17
  300.24        2984.00           1685         150.00       650.40
HS scan finished at 05:00:33
end
************************************************************
  HS Scan of (1) Internal mercury lamp
************************************************************
Integration time is 0.2294 seconds per sample
dh120818Delft 52.017-4.35 3.394313pr1000
************************************************************
Dead Time -------------------------  2.8E-08 
Number of Cycles Used -------------  4 
Starting Wavelength (Angstroms) ---  2950 
Final Wavelength (Angstoms) -------  2984 
Wavelength Increment (Angstroms) --  .25 
Filter Wheel #1 Position ---------- (1) Ground quartz diffuser (ND=2.32)
Filter Wheel #2 Position ---------- (1) Neutral Density 0.494



************************************************************
HS scan start time = 06:42:55
Dark Count =  1 


Time (GMT)  Wavelength (Ang)  Step Number  Raw Counts  Counts/Second

  403.38        2950.00           1232         172.00       745.44
  403.48        2950.25           1236         162.00       701.84
  403.51        2950.50           1239         178.00       771.59
  403.54        2950.75           1242         176.00       762.88
  403.57        2951.00           1246         178.00       771.59
  403.60        2951.25           1249         180.00       780.31
  403.63        2951.50           1252         168.00       728.00
  403.66        2951.75           1256         177.00       767.24
  403.69        2952.00           1259         183.00       793.39
  403.72        2952.25           1262         172.00       745.44
  403.75        2952.50           1265         175.00       758.52
  403.77        2952.75           1269         162.00       701.84
  403.81        2953.00           1272         187.00       810.83
  403.83        2953.25           1275         177.00       767.24
  403.86        2953.50           1279         165.00       714.92
  403.90        2953.75           1282         184.00       797.75
  403.92        2954.00           1285         179.00       775.95
  403.95        2954.25           1289         175.00       758.52
  403.98        2954.50           1292         165.00       714.92
  404.01        2954.75           1295         176.00       762.88
  404.04        2955.00           1299         180.00       780.31
  404.07        2955.25           1302         178.00       771.59
  404.10        2955.50           1305         168.00       728.00
  404.13        2955.75           1309         180.00       780.31
  404.16        2956.00           1312         165.00       714.92
  404.19        2956.25           1315         174.00       754.16
  404.22        2956.50           1318         172.00       745.44
  404.25        2956.75           1322         165.00       714.92
  404.28        2957.00           1325         187.00       810.83
  404.31        2957.25           1328         167.00       723.64
  404.34        2957.50           1332         169.00       732.36
  404.37        2957.75           1335         162.00       701.84
  404.40        2958.00           1338         162.00       701.84
  404.43        2958.25           1342         173.00       749.80
  404.46        2958.50           1345         168.00       728.00
  404.49        2958.75           1348         160.00       693.13
  404.52        2959.00           1352         160.00       693.13
  404.55        2959.25           1355         162.00       701.84
  404.58        2959.50           1358         167.00       723.64
  404.61        2959.75           1362         175.00       758.52
  404.64        2960.00           1365         173.00       749.80
  404.67        2960.25           1368         170.00       736.72
  404.70        2960.50           1372         184.00       797.75
  404.73        2960.75           1375         200.00       867.50
  404.76        2961.00           1378         220.00       954.69
  404.79        2961.25           1382         244.00      1059.32
  404.82        2961.50           1385         820.00      3570.54
  404.85        2961.75           1388        2803.00     12218.65
  404.88        2962.00           1391        5744.00     25052.44
  404.91        2962.25           1395       11657.00     50883.26
  404.94        2962.50           1398       16179.00     70662.78
  404.97        2962.75           1401       20466.00     89434.66
  405.00        2963.00           1405       26922.00    117741.50
  405.03        2963.25           1408       32050.00    140257.70
  405.06        2963.50           1411       36736.00    160858.00
  405.09        2963.75           1415       42465.00    186076.00
  405.12        2964.00           1418       46560.00    204123.20
  405.15        2964.25           1421       50836.00    222987.70
  405.18        2964.50           1425       56722.00    248987.90
  405.21        2964.75           1428       61471.00    269993.30
  405.24        2965.00           1431       65973.00    289929.10
  405.27        2965.25           1435       71214.00    313165.60
  405.30        2965.50           1438       75346.00    331506.70
  405.33        2965.75           1441       80082.00    352552.00
  405.36        2966.00           1445       85700.00    377549.10
  405.39        2966.25           1448       90468.00    398791.80
  405.42        2966.50           1451       93222.00    411073.20
  405.45        2966.75           1455       94984.00    418935.20
  405.48        2967.00           1458       95162.00    419729.70
  405.51        2967.25           1461       94920.00    418649.50
  405.54        2967.50           1465       94956.00    418810.30
  405.57        2967.75           1468       94314.00    415945.20
  405.60        2968.00           1471       92037.00    405787.60
  405.63        2968.25           1475       87773.00    386781.70
  405.66        2968.50           1478       83249.00    366639.20
  405.69        2968.75           1481       79333.00    349222.00
  405.72        2969.00           1485       73053.00    321326.20
  405.75        2969.25           1488       69140.00    303966.70
  405.78        2969.50           1491       65297.00    286934.20
  405.81        2969.75           1495       60275.00    264700.90
  405.84        2970.00           1498       55894.00    245328.10
  405.87        2970.25           1501       51213.00    224652.00
  405.90        2970.50           1505       44334.00    194310.60
  405.93        2970.75           1508       39796.00    174323.10
  405.96        2971.00           1511       35350.00    154762.50
  405.99        2971.25           1515       29782.00    130295.80
  406.02        2971.50           1518       25488.00    111450.10
  406.05        2971.75           1521       21063.00     92050.38
  406.08        2972.00           1525       15057.00     65753.03
  406.11        2972.25           1528       11113.00     48505.24
  406.14        2972.50           1531        7157.00     31221.71
  406.17        2972.75           1535        2774.00     12092.15
  406.20        2973.00           1538        1084.00      4721.64
  406.23        2973.25           1541         368.00      1599.90
  406.26        2973.50           1544         270.00      1172.66
  406.29        2973.75           1548         209.00       906.74
  406.32        2974.00           1551         208.00       902.38
  406.35        2974.25           1554         203.00       880.58
  406.38        2974.50           1558         180.00       780.31
  406.41        2974.75           1561         169.00       732.36
  406.44        2975.00           1564         167.00       723.64
  406.47        2975.25           1568         160.00       693.13
  406.50        2975.50           1571         159.00       688.77
  406.53        2975.75           1574         165.00       714.92
  406.55        2976.00           1578         161.00       697.49
  406.59        2976.25           1581         157.00       680.05
  406.62        2976.50           1584         151.00       653.89
  406.64        2976.75           1588         173.00       749.80
  406.68        2977.00           1591         158.00       684.41
  406.70        2977.25           1595         160.00       693.13
  406.73        2977.50           1598         158.00       684.41
  406.76        2977.75           1601         164.00       710.56
  406.79        2978.00           1605         157.00       680.05
  406.82        2978.25           1608         147.00       636.45
  406.85        2978.50           1611         161.00       697.49
  406.88        2978.75           1615         156.00       675.69
  406.91        2979.00           1618         147.00       636.45
  406.94        2979.25           1621         152.00       658.25
  406.97        2979.50           1625         157.00       680.05
  407.00        2979.75           1628         145.00       627.74
  407.03        2980.00           1631         153.00       662.61
  407.06        2980.25           1635         148.00       640.81
  407.09        2980.50           1638         144.00       623.38
  407.12        2980.75           1641         150.00       649.53
  407.15        2981.00           1645         156.00       675.69
  407.18        2981.25           1648         143.00       619.02
  407.21        2981.50           1651         151.00       653.89
  407.24        2981.75           1655         151.00       653.89
  407.27        2982.00           1658         145.00       627.74
  407.30        2982.25           1661         148.00       640.81
