************************************************************
  HS Scan of (1) Internal mercury lamp
************************************************************
Integration time is 0.2294 seconds per sample
dh100818Arosa 46.78-9.675 2.804185pr1000
************************************************************
Dead Time -------------------------  2.8E-08 
Number of Cycles Used -------------  4 
Starting Wavelength (Angstroms) ---  2950 
Final Wavelength (Angstoms) -------  2984 
Wavelength Increment (Angstroms) --  .25 
Filter Wheel #1 Position ---------- (1) Ground quartz diffuser (ND=2.32)
Filter Wheel #2 Position ---------- (1) Neutral Density 0.494



************************************************************
HS scan start time = 08:35:12
Dark Count =  0 


Time (GMT)  Wavelength (Ang)  Step Number  Raw Counts  Counts/Second

  515.65        2950.00           1232         186.00       810.83
  515.75        2950.25           1236         190.00       828.27
  515.78        2950.50           1239         197.00       858.78
  515.80        2950.75           1242         203.00       884.94
  515.83        2951.00           1246         193.00       841.35
  515.86        2951.25           1249         190.00       828.27
  515.89        2951.50           1252         187.00       815.19
  515.92        2951.75           1256         193.00       841.35
  515.95        2952.00           1259         196.00       854.42
  515.98        2952.25           1262         169.00       736.72
  516.01        2952.50           1265         182.00       793.39
  516.04        2952.75           1269         180.00       784.67
  516.07        2953.00           1272         189.00       823.91
  516.10        2953.25           1275         193.00       841.35
  516.13        2953.50           1279         173.00       754.16
  516.16        2953.75           1282         201.00       876.22
  516.19        2954.00           1285         188.00       819.55
  516.22        2954.25           1289         174.00       758.52
  516.25        2954.50           1292         194.00       845.70
  516.28        2954.75           1295         179.00       780.31
  516.31        2955.00           1299         185.00       806.47
  516.34        2955.25           1302         178.00       775.95
  516.37        2955.50           1305         188.00       819.55
  516.40        2955.75           1309         181.00       789.03
  516.43        2956.00           1312         172.00       749.80
  516.45        2956.25           1315         172.00       749.80
  516.48        2956.50           1318         174.00       758.52
  516.51        2956.75           1322         182.00       793.39
  516.54        2957.00           1325         193.00       841.35
  516.57        2957.25           1328         172.00       749.80
  516.60        2957.50           1332         192.00       836.99
  516.63        2957.75           1335         187.00       815.19
  516.66        2958.00           1338         183.00       797.75
  516.69        2958.25           1342         191.00       832.63
  516.72        2958.50           1345         186.00       810.83
  516.75        2958.75           1348         175.00       762.88
  516.78        2959.00           1352         175.00       762.88
  516.81        2959.25           1355         179.00       780.31
  516.84        2959.50           1358         177.00       771.59
  516.87        2959.75           1362         193.00       841.35
  516.90        2960.00           1365         179.00       780.31
  516.93        2960.25           1368         188.00       819.55
  516.96        2960.50           1372         194.00       845.70
  516.98        2960.75           1375         223.00       972.13
  517.01        2961.00           1378         229.00       998.28
  517.04        2961.25           1382         284.00      1238.06
  517.07        2961.50           1385         813.00      3544.38
  517.10        2961.75           1388        2440.00     10639.61
  517.13        2962.00           1391        4509.00     19666.45
  517.16        2962.25           1395        8811.00     38450.27
  517.19        2962.50           1398       12605.00     55032.43
  517.22        2962.75           1401       16142.00     70505.23
  517.25        2963.00           1405       21142.00     92400.91
  517.28        2963.25           1408       25041.00    109493.90
  517.31        2963.50           1411       28832.00    126129.10
  517.34        2963.75           1415       33692.00    147477.80
  517.37        2964.00           1418       36654.00    160501.70
  517.40        2964.25           1421       40256.00    176352.50
  517.43        2964.50           1425       44577.00    195386.00
  517.46        2964.75           1428       48417.00    212317.80
  517.49        2965.00           1431       51896.00    227671.70
  517.52        2965.25           1435       55987.00    245743.60
  517.55        2965.50           1438       59742.00    262347.30
  517.58        2965.75           1441       62766.00    275730.00
  517.61        2966.00           1445       67532.00    296842.40
  517.64        2966.25           1448       71063.00    312500.10
  517.67        2966.50           1451       73105.00    321561.40
  517.70        2966.75           1455       74629.00    328327.10
  517.73        2967.00           1458       74953.00    329765.80
  517.76        2967.25           1461       74850.00    329308.50
  517.79        2967.50           1465       74779.00    328993.20
  517.82        2967.75           1468       74245.00    326622.10
  517.85        2968.00           1471       72139.00    317274.30
  517.87        2968.25           1475       68527.00    301253.20
  517.90        2968.50           1478       65652.00    288511.40
  517.94        2968.75           1481       62323.00    273768.90
  517.96        2969.00           1485       57545.00    252630.80
  517.99        2969.25           1488       54376.00    238624.80
  518.02        2969.50           1491       51493.00    225892.50
  518.05        2969.75           1495       46957.00    205878.30
  518.08        2970.00           1498       43493.00    190609.20
  518.11        2970.25           1501       39869.00    174648.80
  518.14        2970.50           1505       34330.00    150282.30
  518.17        2970.75           1508       30936.00    135368.30
  518.20        2971.00           1511       27516.00    120352.60
  518.23        2971.25           1515       23236.00    101578.80
  518.26        2971.50           1518       19758.00     86337.50
  518.29        2971.75           1521       16248.00     70969.13
  518.32        2972.00           1525       11375.00     49654.87
  518.35        2972.25           1528        8349.00     36432.10
  518.38        2972.50           1531        5614.00     24489.33
  518.41        2972.75           1535        2532.00     11040.90
  518.44        2973.00           1538         974.00      4246.36
  518.47        2973.25           1541         325.00      1416.80
  518.50        2973.50           1544         244.00      1063.68
  518.53        2973.75           1548         218.00       950.33
  518.56        2974.00           1551         201.00       876.22
  518.59        2974.25           1554         195.00       850.06
  518.61        2974.50           1558         186.00       810.83
  518.64        2974.75           1561         181.00       789.03
  518.67        2975.00           1564         162.00       706.20
  518.70        2975.25           1568         170.00       741.08
  518.73        2975.50           1571         170.00       741.08
  518.76        2975.75           1574         164.00       714.92
  518.79        2976.00           1578         169.00       736.72
  518.82        2976.25           1581         169.00       736.72
  518.85        2976.50           1584         154.00       671.33
  518.88        2976.75           1588         172.00       749.80
  518.91        2977.00           1591         163.00       710.56
  518.94        2977.25           1595         157.00       684.41
  518.97        2977.50           1598         166.00       723.64
  519.00        2977.75           1601         166.00       723.64
  519.03        2978.00           1605         156.00       680.05
  519.06        2978.25           1608         163.00       710.56
  519.09        2978.50           1611         151.00       658.25
  519.12        2978.75           1615         163.00       710.56
  519.15        2979.00           1618         161.00       701.84
  519.18        2979.25           1621         159.00       693.13
  519.20        2979.50           1625         146.00       636.45
  519.23        2979.75           1628         152.00       662.61
  519.26        2980.00           1631         160.00       697.49
  519.29        2980.25           1635         154.00       671.33
  519.32        2980.50           1638         163.00       710.56
  519.35        2980.75           1641         158.00       688.77
  519.38        2981.00           1645         153.00       666.97
  519.41        2981.25           1648         161.00       701.84
  519.44        2981.50           1651         152.00       662.61
  519.47        2981.75           1655         150.00       653.89
  519.50        2982.00           1658         156.00       680.05
  519.53        2982.25           1661         159.00       693.13
  519.56        2982.50           1665         156.00       680.05
  519.59        2982.75           1668         144.00       627.74
  519.62        2983.00           1671         150.00       653.89
  519.65        2983.25           1675         148.00       645.17
  519.68        2983.50           1678         144.00       627.74
  519.71        2983.75           1681         152.00       662.61
  519.74        2984.00           1685         156.00       680.05
HS scan finished at 08:40:03
end
************************************************************
  HS Scan of (1) Internal mercury lamp
************************************************************
Integration time is 0.2294 seconds per sample
dh100818Arosa 46.78-9.675 3.179721pr1000
************************************************************
Dead Time -------------------------  2.8E-08 
Number of Cycles Used -------------  4 
Starting Wavelength (Angstroms) ---  2950 
Final Wavelength (Angstoms) -------  2984 
Wavelength Increment (Angstroms) --  .25 
Filter Wheel #1 Position ---------- (1) Ground quartz diffuser (ND=2.32)
Filter Wheel #2 Position ---------- (1) Neutral Density 0.494



************************************************************
HS scan start time = 10:21:16
Dark Count =  .2 


Time (GMT)  Wavelength (Ang)  Step Number  Raw Counts  Counts/Second

  621.73        2950.00           1232         180.00       783.80
  621.83        2950.25           1236         181.00       788.16
  621.86        2950.50           1239         164.00       714.05
  621.89        2950.75           1242         167.00       727.13
  621.92        2951.00           1246         181.00       788.16
  621.95        2951.25           1249         188.00       818.68
  621.98        2951.50           1252         168.00       731.49
  622.01        2951.75           1256         164.00       714.05
  622.04        2952.00           1259         170.00       740.21
  622.07        2952.25           1262         169.00       735.85
  622.10        2952.50           1265         168.00       731.49
  622.12        2952.75           1269         159.00       692.25
  622.15        2953.00           1272         162.00       705.33
  622.18        2953.25           1275         159.00       692.25
  622.21        2953.50           1279         156.00       679.18
  622.24        2953.75           1282         168.00       731.49
  622.27        2954.00           1285         164.00       714.05
  622.30        2954.25           1289         167.00       727.13
  622.33        2954.50           1292         156.00       679.18
  622.36        2954.75           1295         167.00       727.13
  622.39        2955.00           1299         167.00       727.13
  622.42        2955.25           1302         171.00       744.57
  622.45        2955.50           1305         173.00       753.29
  622.48        2955.75           1309         163.00       709.69
  622.51        2956.00           1312         151.00       657.38
  622.54        2956.25           1315         157.00       683.54
  622.57        2956.50           1318         163.00       709.69
  622.60        2956.75           1322         156.00       679.18
  622.63        2957.00           1325         163.00       709.69
  622.66        2957.25           1328         153.00       666.10
  622.69        2957.50           1332         158.00       687.89
  622.72        2957.75           1335         163.00       709.69
  622.75        2958.00           1338         155.00       674.82
  622.78        2958.25           1342         157.00       683.54
  622.80        2958.50           1345         169.00       735.85
  622.83        2958.75           1348         167.00       727.13
  622.86        2959.00           1352         158.00       687.89
  622.89        2959.25           1355         148.00       644.30
  622.92        2959.50           1358         158.00       687.89
  622.95        2959.75           1362         164.00       714.05
  622.98        2960.00           1365         164.00       714.05
  623.01        2960.25           1368         174.00       757.64
  623.04        2960.50           1372         182.00       792.52
  623.07        2960.75           1375         188.00       818.68
  623.10        2961.00           1378         194.00       844.83
  623.13        2961.25           1382         242.00      1054.09
  623.16        2961.50           1385         829.00      3613.27
  623.19        2961.75           1388        2219.00      9674.81
  623.22        2962.00           1391        4623.00     20163.08
  623.25        2962.25           1395        9260.00     40411.00
  623.28        2962.50           1398       13321.00     58162.65
  623.31        2962.75           1401       16957.00     74071.52
  623.34        2963.00           1405       21830.00     95414.99
  623.37        2963.25           1408       25303.00    110642.20
  623.40        2963.50           1411       28728.00    125671.60
  623.43        2963.75           1415       34181.00    149626.40
  623.46        2964.00           1418       38285.00    167676.40
  623.49        2964.25           1421       42084.00    184401.30
  623.51        2964.50           1425       46504.00    203879.80
  623.54        2964.75           1428       50624.00    222055.50
  623.57        2965.00           1431       54119.00    237488.50
  623.60        2965.25           1435       59347.00    260599.10
  623.63        2965.50           1438       63447.00    278744.30
  623.66        2965.75           1441       66695.00    293131.90
  623.69        2966.00           1445       70482.00    309922.00
  623.72        2966.25           1448       74863.00    329365.30
  623.75        2966.50           1451       77657.00    341776.50
  623.78        2966.75           1455       79172.00    348509.90
  623.81        2967.00           1458       79456.00    349772.40
  623.84        2967.25           1461       79561.00    350239.20
  623.87        2967.50           1465       79391.00    349483.50
  623.90        2967.75           1468       78860.00    347123.00
  623.93        2968.00           1471       76551.00    336862.50
  623.96        2968.25           1475       72470.00    318742.30
  623.99        2968.50           1478       69506.00    305593.20
  624.02        2968.75           1481       66274.00    291266.40
  624.05        2969.00           1485       62231.00    273360.70
  624.08        2969.25           1488       58431.00    256547.70
  624.11        2969.50           1491       54482.00    239092.20
  624.14        2969.75           1495       49605.00    217558.40
  624.17        2970.00           1498       45531.00    199590.10
  624.19        2970.25           1501       42213.00    184969.50
  624.22        2970.50           1505       37427.00    163901.30
  624.25        2970.75           1508       33407.00    146224.30
  624.28        2971.00           1511       29100.00    127304.80
  624.31        2971.25           1515       24359.00    106502.00
  624.34        2971.50           1518       21466.00     93819.81
  624.37        2971.75           1521       18077.00     78974.80
  624.40        2972.00           1525       13651.00     59605.94
  624.43        2972.25           1528        9672.00     42211.15
  624.46        2972.50           1531        6115.00     26675.54
  624.49        2972.75           1535        2088.00      9103.45
  624.52        2973.00           1538         667.00      2906.95
  624.55        2973.25           1541         321.00      1398.49
  624.58        2973.50           1544         231.00      1006.13
  624.61        2973.75           1548         207.00       901.50
  624.64        2974.00           1551         190.00       827.39
  624.67        2974.25           1554         195.00       849.19
  624.70        2974.50           1558         162.00       705.33
  624.73        2974.75           1561         151.00       657.38
  624.76        2975.00           1564         159.00       692.25
  624.79        2975.25           1568         156.00       679.18
  624.82        2975.50           1571         153.00       666.10
  624.85        2975.75           1574         150.00       653.02
  624.88        2976.00           1578         152.00       661.74
  624.91        2976.25           1581         144.00       626.86
  624.94        2976.50           1584         152.00       661.74
  624.96        2976.75           1588         143.00       622.50
  624.99        2977.00           1591         150.00       653.02
  625.02        2977.25           1595         133.00       578.91
  625.05        2977.50           1598         150.00       653.02
  625.08        2977.75           1601         149.00       648.66
  625.11        2978.00           1605         153.00       666.10
  625.14        2978.25           1608         151.00       657.38
  625.17        2978.50           1611         148.00       644.30
  625.20        2978.75           1615         146.00       635.58
  625.23        2979.00           1618         131.00       570.19
  625.26        2979.25           1621         142.00       618.14
  625.29        2979.50           1625         157.00       683.54
  625.32        2979.75           1628         143.00       622.50
  625.35        2980.00           1631         146.00       635.58
  625.38        2980.25           1635         135.00       587.63
  625.41        2980.50           1638         143.00       622.50
  625.44        2980.75           1641         142.00       618.14
  625.47        2981.00           1645         139.00       605.07
  625.50        2981.25           1648         144.00       626.86
  625.53        2981.50           1651         137.00       596.35
  625.56        2981.75           1655         147.00       639.94
  625.59        2982.00           1658         135.00       587.63
  625.62        2982.25           1661         138.00       600.71
