************************************************************
  HS Scan of 
************************************************************
Integration time is 0.2294 seconds per sample
dh191017Izana 28.3081 16.4992 2.482296pr770
************************************************************
Dead Time -------------------------  3E-08 
Number of Cycles Used -------------  4 
Starting Wavelength (Angstroms) ---  2950 
Final Wavelength (Angstoms) -------  2984 
Wavelength Increment (Angstroms) --  .25 
Filter Wheel #1 Position ---------- (1) Ground quartz diffuser (ND=2.32)
Filter Wheel #2 Position ---------- (1) Neutral Density 0.494



************************************************************
HS scan start time = 04:14:40
Dark Count =  .1 


Time (GMT)  Wavelength (Ang)  Step Number  Raw Counts  Counts/Second

  255.12        2950.00           1229         124.00       540.11
  255.23        2950.25           1232         127.00       553.19
  255.26        2950.50           1236         131.00       570.63
  255.28        2950.75           1239         129.00       561.91
  255.31        2951.00           1242         128.00       557.55
  255.34        2951.25           1246         131.00       570.63
  255.37        2951.50           1249         119.00       518.32
  255.39        2951.75           1252         131.00       570.63
  255.42        2952.00           1255         122.00       531.39
  255.45        2952.25           1259         125.00       544.47
  255.48        2952.50           1262         119.00       518.32
  255.51        2952.75           1265         133.00       579.35
  255.53        2953.00           1269         128.00       557.55
  255.56        2953.25           1272         115.00       500.88
  255.59        2953.50           1275         131.00       570.63
  255.62        2953.75           1279         118.00       513.96
  255.64        2954.00           1282         121.00       527.04
  255.67        2954.25           1285         124.00       540.11
  255.70        2954.50           1289         126.00       548.83
  255.73        2954.75           1292         123.00       535.75
  255.75        2955.00           1295         118.00       513.96
  255.78        2955.25           1299         131.00       570.63
  255.81        2955.50           1302         120.00       522.68
  255.84        2955.75           1305         130.00       566.27
  255.87        2956.00           1309         126.00       548.83
  255.90        2956.25           1312         123.00       535.75
  255.93        2956.50           1315         119.00       518.32
  255.96        2956.75           1319         123.00       535.75
  255.99        2957.00           1322         134.00       583.71
  256.01        2957.25           1325         119.00       518.32
  256.04        2957.50           1329         123.00       535.75
  256.07        2957.75           1332         124.00       540.11
  256.10        2958.00           1335         125.00       544.47
  256.12        2958.25           1339         108.00       470.36
  256.15        2958.50           1342         135.00       588.07
  256.18        2958.75           1345         128.00       557.55
  256.21        2959.00           1349         123.00       535.75
  256.24        2959.25           1352         131.00       570.63
  256.27        2959.50           1355         120.00       522.68
  256.30        2959.75           1359         122.00       531.39
  256.33        2960.00           1362         122.00       531.39
  256.36        2960.25           1365         123.00       535.75
  256.38        2960.50           1369         123.00       535.75
  256.41        2960.75           1372         137.00       596.78
  256.44        2961.00           1375         136.00       592.43
  256.47        2961.25           1379         155.00       675.25
  256.50        2961.50           1382         281.00      1224.54
  256.52        2961.75           1385         886.00      3862.26
  256.55        2962.00           1389        2735.00     11926.24
  256.58        2962.25           1392        4918.00     21451.90
  256.61        2962.50           1395        7388.00     32236.48
  256.64        2962.75           1399       11032.00     48159.77
  256.67        2963.00           1402       13323.00     58178.62
  256.70        2963.25           1405       15884.00     69385.35
  256.73        2963.50           1409       20276.00     88621.97
  256.76        2963.75           1412       22797.00     99673.80
  256.79        2964.00           1415       25363.00    110930.50
  256.82        2964.25           1419       29239.00    127948.30
  256.84        2964.50           1422       32014.00    140142.90
  256.87        2964.75           1425       34678.00    151858.10
  256.90        2965.00           1429       38289.00    167751.00
  256.93        2965.25           1432       40949.00    179468.00
  256.95        2965.50           1435       43564.00    190994.90
  256.98        2965.75           1439       46527.00    204065.40
  257.01        2966.00           1442       48658.00    213472.20
  257.04        2966.25           1445       51018.00    223896.00
  257.06        2966.50           1449       54358.00    238659.50
  257.09        2966.75           1452       55750.00    244816.30
  257.12        2967.00           1455       55974.00    245807.30
  257.15        2967.25           1459       56043.00    246112.50
  257.18        2967.50           1462       56253.00    247041.70
  257.20        2967.75           1465       55878.00    245382.60
  257.23        2968.00           1469       54577.00    239628.00
  257.26        2968.25           1472       53050.00    232876.30
  257.29        2968.50           1475       51456.00    225831.30
  257.31        2968.75           1479       48286.00    211829.70
  257.34        2969.00           1482       46192.00    202587.10
  257.37        2969.25           1485       43350.00    190051.30
  257.40        2969.50           1489       39673.00    173846.30
  257.43        2969.75           1492       36881.00    161552.20
  257.45        2970.00           1495       33546.00    146879.00
  257.48        2970.25           1499       30608.00    133963.20
  257.51        2970.50           1502       27699.00    121184.80
  257.54        2970.75           1505       25032.00    109478.00
  257.57        2971.00           1509       21558.00     94241.22
  257.59        2971.25           1512       19513.00     85278.49
  257.62        2971.50           1515       17559.00     76719.10
  257.66        2971.75           1519       13817.00     60339.74
  257.69        2972.00           1522       11138.00     48623.19
  257.71        2972.25           1525        8298.00     36211.51
  257.74        2972.50           1529        4589.00     20015.94
  257.77        2972.75           1532        2602.00     11346.06
  257.80        2973.00           1536         888.00      3870.98
  257.82        2973.25           1539         367.00      1599.47
  257.85        2973.50           1542         198.00       862.71
  257.88        2973.75           1546         159.00       692.69
  257.91        2974.00           1549         141.00       614.22
  257.93        2974.25           1552         148.00       644.74
  257.96        2974.50           1556         130.00       566.27
  257.99        2974.75           1559         133.00       579.35
  258.02        2975.00           1562         119.00       518.32
  258.04        2975.25           1566         110.00       479.08
  258.07        2975.50           1569         108.00       470.36
  258.10        2975.75           1572         119.00       518.32
  258.13        2976.00           1576         116.00       505.24
  258.15        2976.25           1579         117.00       509.60
  258.18        2976.50           1582         120.00       522.68
  258.21        2976.75           1586         100.00       435.49
  258.24        2977.00           1589         103.00       448.57
  258.27        2977.25           1592         116.00       505.24
  258.29        2977.50           1596         108.00       470.36
  258.32        2977.75           1599         112.00       487.80
  258.35        2978.00           1602         106.00       461.65
  258.38        2978.25           1606         101.00       439.85
  258.40        2978.50           1609         103.00       448.57
  258.43        2978.75           1612         109.00       474.72
  258.46        2979.00           1616         116.00       505.24
  258.49        2979.25           1619         112.00       487.80
  258.52        2979.50           1623         111.00       483.44
  258.55        2979.75           1626         102.00       444.21
  258.57        2980.00           1629         110.00       479.08
  258.60        2980.25           1633         111.00       483.44
  258.63        2980.50           1636         109.00       474.72
  258.66        2980.75           1639          99.00       431.13
  258.69        2981.00           1643         102.00       444.21
  258.71        2981.25           1646         105.00       457.29
  258.74        2981.50           1649         105.00       457.29
  258.77        2981.75           1653         102.00       444.21
  258.80        2982.00           1656          98.00       426.77
  258.82        2982.25           1659         119.00       518.32
  258.86        2982.50           1663         100.00       435.49
  258.90        2982.75           1666         112.00       487.80
  258.93        2983.00           1669         104.00       452.93
  258.95        2983.25           1673         118.00       513.96
  258.98        2983.50           1676         118.00       513.96
  259.01        2983.75           1679         111.00       483.44
  259.04        2984.00           1683          93.00       404.97
HS scan finished at 04:19:20
end
************************************************************
  HS Scan of 
************************************************************
Integration time is 0.2294 seconds per sample
dh191017Izana 28.3081 16.4992 2.482296pr770
************************************************************
Dead Time -------------------------  3E-08 
Number of Cycles Used -------------  4 
Starting Wavelength (Angstroms) ---  2950 
Final Wavelength (Angstoms) -------  2984 
Wavelength Increment (Angstroms) --  .25 
Filter Wheel #1 Position ---------- (1) Ground quartz diffuser (ND=2.32)
Filter Wheel #2 Position ---------- (1) Neutral Density 0.494



************************************************************
HS scan start time = 05:23:02
Dark Count =  .1 


Time (GMT)  Wavelength (Ang)  Step Number  Raw Counts  Counts/Second

  323.48        2950.00           1229           1.00         3.92
  323.58        2950.25           1232           0.00         2.00
  323.61        2950.50           1236           0.00         2.00
  323.64        2950.75           1239           0.00         2.00
  323.67        2951.00           1242           0.00         2.00
  323.70        2951.25           1246           0.00         2.00
  323.73        2951.50           1249           0.00         2.00
  323.76        2951.75           1252           0.00         2.00
  323.79        2952.00           1255           0.00         2.00
  323.82        2952.25           1259           0.00         2.00
  323.84        2952.50           1262           0.00         2.00
  323.87        2952.75           1265           0.00         2.00
  323.90        2953.00           1269           1.00         3.92
  323.93        2953.25           1272           1.00         3.92
  323.95        2953.50           1275           0.00         2.00
  323.98        2953.75           1279           0.00         2.00
  324.01        2954.00           1282           0.00         2.00
  324.04        2954.25           1285           0.00         2.00
  324.06        2954.50           1289           0.00         2.00
  324.09        2954.75           1292           0.00         2.00
  324.12        2955.00           1295           1.00         3.92
  324.15        2955.25           1299           0.00         2.00
  324.17        2955.50           1302           0.00         2.00
  324.20        2955.75           1305           1.00         3.92
  324.23        2956.00           1309           0.00         2.00
  324.26        2956.25           1312           0.00         2.00
  324.29        2956.50           1315           0.00         2.00
  324.32        2956.75           1319           0.00         2.00
  324.35        2957.00           1322           1.00         3.92
  324.38        2957.25           1325           0.00         2.00
  324.40        2957.50           1329           0.00         2.00
  324.43        2957.75           1332           0.00         2.00
  324.46        2958.00           1335           0.00         2.00
  324.49        2958.25           1339           0.00         2.00
  324.51        2958.50           1342           0.00         2.00
  324.54        2958.75           1345           0.00         2.00
  324.57        2959.00           1349           0.00         2.00
  324.60        2959.25           1352           0.00         2.00
  324.62        2959.50           1355           1.00         3.92
  324.65        2959.75           1359           0.00         2.00
  324.68        2960.00           1362           0.00         2.00
  324.71        2960.25           1365           0.00         2.00
  324.73        2960.50           1369           0.00         2.00
  324.76        2960.75           1372           1.00         3.92
  324.79        2961.00           1375           0.00         2.00
  324.82        2961.25           1379           0.00         2.00
  324.84        2961.50           1382           0.00         2.00
  324.87        2961.75           1385           0.00         2.00
  324.90        2962.00           1389           0.00         2.00
  324.93        2962.25           1392           0.00         2.00
  324.95        2962.50           1395           0.00         2.00
  324.99        2962.75           1399           0.00         2.00
  325.01        2963.00           1402           0.00         2.00
  325.04        2963.25           1405           0.00         2.00
  325.07        2963.50           1409           0.00         2.00
  325.10        2963.75           1412           1.00         3.92
  325.13        2964.00           1415           0.00         2.00
  325.15        2964.25           1419           0.00         2.00
  325.18        2964.50           1422           0.00         2.00
  325.21        2964.75           1425           0.00         2.00
  325.24        2965.00           1429           0.00         2.00
  325.26        2965.25           1432           0.00         2.00
  325.29        2965.50           1435           0.00         2.00
  325.32        2965.75           1439           0.00         2.00
  325.35        2966.00           1442           0.00         2.00
  325.37        2966.25           1445           1.00         3.92
  325.40        2966.50           1449           0.00         2.00
  325.43        2966.75           1452           0.00         2.00
  325.46        2967.00           1455           0.00         2.00
  325.48        2967.25           1459           0.00         2.00
  325.51        2967.50           1462           0.00         2.00
  325.54        2967.75           1465           0.00         2.00
  325.57        2968.00           1469           0.00         2.00
  325.59        2968.25           1472           0.00         2.00
  325.62        2968.50           1475           0.00         2.00
  325.65        2968.75           1479           2.00         8.28
  325.68        2969.00           1482           0.00         2.00
  325.70        2969.25           1485           0.00         2.00
  325.73        2969.50           1489           0.00         2.00
  325.76        2969.75           1492           0.00         2.00
  325.79        2970.00           1495           0.00         2.00
  325.81        2970.25           1499           0.00         2.00
  325.84        2970.50           1502           0.00         2.00
  325.87        2970.75           1505           0.00         2.00
  325.89        2971.00           1509           0.00         2.00
  325.92        2971.25           1512           0.00         2.00
  325.95        2971.50           1515           0.00         2.00
  325.98        2971.75           1519           0.00         2.00
  326.01        2972.00           1522           0.00         2.00
  326.03        2972.25           1525           0.00         2.00
  326.06        2972.50           1529           0.00         2.00
  326.09        2972.75           1532           0.00         2.00
  326.12        2973.00           1536           0.00         2.00
  326.14        2973.25           1539           0.00         2.00
  326.17        2973.50           1542           0.00         2.00
  326.20        2973.75           1546           0.00         2.00
  326.23        2974.00           1549           0.00         2.00
  326.25        2974.25           1552           0.00         2.00
  326.28        2974.50           1556           0.00         2.00
  326.31        2974.75           1559           1.00         3.92
  326.33        2975.00           1562           0.00         2.00
  326.37        2975.25           1566           0.00         2.00
  326.40        2975.50           1569           0.00         2.00
  326.44        2975.75           1572           0.00         2.00
  326.47        2976.00           1576           0.00         2.00
  326.49        2976.25           1579           0.00         2.00
  326.52        2976.50           1582           0.00         2.00
  326.55        2976.75           1586           1.00         3.92
  326.58        2977.00           1589           0.00         2.00
  326.60        2977.25           1592           0.00         2.00
  326.63        2977.50           1596           0.00         2.00
  326.67        2977.75           1599           0.00         2.00
  326.70        2978.00           1602           0.00         2.00
  326.72        2978.25           1606           1.00         3.92
  326.75        2978.50           1609           0.00         2.00
  326.78        2978.75           1612           0.00         2.00
  326.81        2979.00           1616           0.00         2.00
  326.83        2979.25           1619           1.00         3.92
  326.86        2979.50           1623           0.00         2.00
  326.89        2979.75           1626           0.00         2.00
  326.92        2980.00           1629           0.00         2.00
  326.94        2980.25           1633           0.00         2.00
  326.97        2980.50           1636           1.00         3.92
  327.00        2980.75           1639           1.00         3.92
  327.02        2981.00           1643           0.00         2.00
  327.05        2981.25           1646           0.00         2.00
  327.08        2981.50           1649           0.00         2.00
  327.11        2981.75           1653           0.00         2.00
  327.13        2982.00           1656           0.00         2.00
  327.16        2982.25           1659           0.00         2.00
  327.19        2982.50           1663           0.00         2.00
