************************************************************
  HS Scan of (1) Internal mercury lamp
************************************************************
Integration time is 0.2294 seconds per sample
dh211117Delft 51.997-4.386 3.126073pr1000
************************************************************
Dead Time -------------------------  3E-08 
Number of Cycles Used -------------  4 
Starting Wavelength (Angstroms) ---  2950 
Final Wavelength (Angstoms) -------  2984 
Wavelength Increment (Angstroms) --  .25 
Filter Wheel #1 Position ---------- (1) Ground quartz diffuser (ND=2.32)
Filter Wheel #2 Position ---------- (1) Neutral Density 0.494



************************************************************
HS scan start time = 11:26:35
Dark Count =  .1 


Time (GMT)  Wavelength (Ang)  Step Number  Raw Counts  Counts/Second

  687.03        2950.00           1229         105.00       457.29
  687.13        2950.25           1232         106.00       461.65
  687.16        2950.50           1236         106.00       461.65
  687.19        2950.75           1239         107.00       466.00
  687.22        2951.00           1242          95.00       413.69
  687.25        2951.25           1246         113.00       492.16
  687.28        2951.50           1249          88.00       383.18
  687.31        2951.75           1252         104.00       452.93
  687.34        2952.00           1255         104.00       452.93
  687.37        2952.25           1259         104.00       452.93
  687.40        2952.50           1262         101.00       439.85
  687.43        2952.75           1265         100.00       435.49
  687.46        2953.00           1269         102.00       444.21
  687.49        2953.25           1272          97.00       422.41
  687.52        2953.50           1275         102.00       444.21
  687.54        2953.75           1279         107.00       466.00
  687.57        2954.00           1282         102.00       444.21
  687.60        2954.25           1285          97.00       422.41
  687.63        2954.50           1289         101.00       439.85
  687.66        2954.75           1292         114.00       496.52
  687.69        2955.00           1295          90.00       391.90
  687.72        2955.25           1299          97.00       422.41
  687.75        2955.50           1302         106.00       461.65
  687.78        2955.75           1305          93.00       404.97
  687.81        2956.00           1309         102.00       444.21
  687.84        2956.25           1312         104.00       452.93
  687.87        2956.50           1315          96.00       418.05
  687.90        2956.75           1319         102.00       444.21
  687.93        2957.00           1322          98.00       426.77
  687.96        2957.25           1325         109.00       474.72
  687.99        2957.50           1329          85.00       370.10
  688.02        2957.75           1332         105.00       457.29
  688.05        2958.00           1335         100.00       435.49
  688.08        2958.25           1339          97.00       422.41
  688.10        2958.50           1342          99.00       431.13
  688.13        2958.75           1345          98.00       426.77
  688.16        2959.00           1349         104.00       452.93
  688.19        2959.25           1352          99.00       431.13
  688.22        2959.50           1355          94.00       409.33
  688.25        2959.75           1359         101.00       439.85
  688.28        2960.00           1362         102.00       444.21
  688.31        2960.25           1365         102.00       444.21
  688.34        2960.50           1369          93.00       404.97
  688.37        2960.75           1372         118.00       513.96
  688.40        2961.00           1375         119.00       518.32
  688.43        2961.25           1379         126.00       548.83
  688.46        2961.50           1382         166.00       723.21
  688.49        2961.75           1385         541.00      2358.06
  688.52        2962.00           1389        2334.00     10177.04
  688.55        2962.25           1392        4819.00     21019.79
  688.58        2962.50           1395        8036.00     35066.95
  688.61        2962.75           1399       11611.00     50691.25
  688.64        2963.00           1402       14455.00     63131.23
  688.67        2963.25           1405       17827.00     77892.80
  688.70        2963.50           1409       22385.00     97867.12
  688.72        2963.75           1412       25993.00    113695.30
  688.75        2964.00           1415       29175.00    127667.20
  688.78        2964.25           1419       32744.00    143352.30
  688.81        2964.50           1422       35844.00    156988.30
  688.84        2964.75           1425       39452.00    172872.90
  688.87        2965.00           1429       43610.00    191197.80
  688.90        2965.25           1432       46737.00    204992.20
  688.93        2965.50           1435       50396.00    221148.10
  688.96        2965.75           1439       54591.00    239689.90
  688.99        2966.00           1442       57508.00    252595.20
  689.02        2966.25           1445       60548.00    266055.40
  689.05        2966.50           1449       64343.00    282873.80
  689.08        2966.75           1452       65766.00    289184.50
  689.11        2967.00           1455       66567.00    292737.90
  689.14        2967.25           1459       66576.00    292777.80
  689.17        2967.50           1462       66706.00    293354.60
  689.20        2967.75           1465       66602.00    292893.20
  689.23        2968.00           1469       65297.00    287104.40
  689.26        2968.25           1472       63393.00    278662.10
  689.29        2968.50           1475       61103.00    268514.00
  689.32        2968.75           1479       57382.00    252037.60
  689.35        2969.00           1482       54129.00    237646.80
  689.38        2969.25           1485       51502.00    226034.50
  689.41        2969.50           1489       47324.00    207583.00
  689.44        2969.75           1492       44784.00    196375.40
  689.47        2970.00           1495       42056.00    184346.70
  689.50        2970.25           1499       37761.00    165426.20
  689.52        2970.50           1502       34626.00    151629.30
  689.55        2970.75           1505       30829.00    134934.40
  689.58        2971.00           1509       26664.00    116640.70
  689.61        2971.25           1512       23379.00    102226.30
  689.64        2971.50           1515       20549.00     89818.42
  689.67        2971.75           1519       16937.00     73995.38
  689.70        2972.00           1522       13622.00     59486.63
  689.73        2972.25           1525       10452.00     45624.31
  689.76        2972.50           1529        6994.00     30515.72
  689.79        2972.75           1532        4587.00     20007.21
  689.82        2973.00           1536        1590.00      6932.13
  689.85        2973.25           1539         561.00      2445.25
  689.88        2973.50           1542         209.00       910.66
  689.91        2973.75           1546         162.00       705.77
  689.94        2974.00           1549         146.00       636.02
  689.97        2974.25           1552         138.00       601.14
  690.00        2974.50           1556         131.00       570.63
  690.03        2974.75           1559         109.00       474.72
  690.06        2975.00           1562         115.00       500.88
  690.09        2975.25           1566         105.00       457.29
  690.12        2975.50           1569          93.00       404.97
  690.15        2975.75           1572         101.00       439.85
  690.18        2976.00           1576          91.00       396.26
  690.20        2976.25           1579         101.00       439.85
  690.23        2976.50           1582          99.00       431.13
  690.26        2976.75           1586          91.00       396.26
  690.29        2977.00           1589          91.00       396.26
  690.32        2977.25           1592          93.00       404.97
  690.35        2977.50           1596          93.00       404.97
  690.38        2977.75           1599          91.00       396.26
  690.41        2978.00           1602          92.00       400.62
  690.44        2978.25           1606          93.00       404.97
  690.47        2978.50           1609          90.00       391.90
  690.50        2978.75           1612         103.00       448.57
  690.53        2979.00           1616          89.00       387.54
  690.56        2979.25           1619          95.00       413.69
  690.59        2979.50           1623          90.00       391.90
  690.62        2979.75           1626         102.00       444.21
  690.64        2980.00           1629          92.00       400.62
  690.67        2980.25           1633          94.00       409.33
  690.70        2980.50           1636          92.00       400.62
  690.73        2980.75           1639          87.00       378.82
  690.76        2981.00           1643          95.00       413.69
  690.79        2981.25           1646          96.00       418.05
  690.82        2981.50           1649         101.00       439.85
  690.85        2981.75           1653          97.00       422.41
  690.88        2982.00           1656          93.00       404.97
  690.91        2982.25           1659          89.00       387.54
  690.94        2982.50           1663          85.00       370.10
  690.97        2982.75           1666          82.00       357.02
  691.00        2983.00           1669          88.00       383.18
  691.03        2983.25           1673          90.00       391.90
  691.06        2983.50           1676          89.00       387.54
  691.09        2983.75           1679          90.00       391.90
  691.12        2984.00           1683          88.00       383.18
HS scan finished at 11:31:25
end
************************************************************
  HS Scan of (1) Internal mercury lamp
************************************************************
Integration time is 0.2294 seconds per sample
dh211117Delft 51.997-4.386 3.287017pr1000
************************************************************
Dead Time -------------------------  3E-08 
Number of Cycles Used -------------  4 
Starting Wavelength (Angstroms) ---  2950 
Final Wavelength (Angstoms) -------  2984 
Wavelength Increment (Angstroms) --  .25 
Filter Wheel #1 Position ---------- (1) Ground quartz diffuser (ND=2.32)
Filter Wheel #2 Position ---------- (1) Neutral Density 0.494



************************************************************
HS scan start time = 13:13:43
Dark Count =  .2 


Time (GMT)  Wavelength (Ang)  Step Number  Raw Counts  Counts/Second

  794.16        2950.00           1229         100.00       435.05
  794.26        2950.25           1232          99.00       430.69
  794.29        2950.50           1236         110.00       478.65
  794.32        2950.75           1239          96.00       417.62
  794.35        2951.00           1242          91.00       395.82
  794.38        2951.25           1246         105.00       456.85
  794.41        2951.50           1249          99.00       430.69
  794.44        2951.75           1252         110.00       478.65
  794.47        2952.00           1255          98.00       426.34
  794.50        2952.25           1259          92.00       400.18
  794.53        2952.50           1262          97.00       421.98
  794.56        2952.75           1265          90.00       391.46
  794.59        2953.00           1269          98.00       426.34
  794.62        2953.25           1272          96.00       417.62
  794.65        2953.50           1275         105.00       456.85
  794.68        2953.75           1279         101.00       439.41
  794.71        2954.00           1282          99.00       430.69
  794.74        2954.25           1285          99.00       430.69
  794.77        2954.50           1289          98.00       426.34
  794.79        2954.75           1292          96.00       417.62
  794.82        2955.00           1295          96.00       417.62
  794.85        2955.25           1299          96.00       417.62
  794.88        2955.50           1302          96.00       417.62
  794.91        2955.75           1305          99.00       430.69
  794.94        2956.00           1309          93.00       404.54
  794.97        2956.25           1312          93.00       404.54
  795.00        2956.50           1315          87.00       378.38
  795.03        2956.75           1319         104.00       452.49
  795.06        2957.00           1322         102.00       443.77
  795.09        2957.25           1325          99.00       430.69
  795.12        2957.50           1329          92.00       400.18
  795.15        2957.75           1332          91.00       395.82
  795.18        2958.00           1335          96.00       417.62
  795.21        2958.25           1339          95.00       413.26
  795.24        2958.50           1342         103.00       448.13
  795.27        2958.75           1345         101.00       439.41
  795.30        2959.00           1349          92.00       400.18
  795.33        2959.25           1352          97.00       421.98
  795.35        2959.50           1355          92.00       400.18
  795.38        2959.75           1359         100.00       435.05
  795.42        2960.00           1362          95.00       413.26
  795.44        2960.25           1365         101.00       439.41
  795.47        2960.50           1369         106.00       461.21
  795.50        2960.75           1372         100.00       435.05
  795.53        2961.00           1375         117.00       509.16
  795.56        2961.25           1379         133.00       578.91
  795.59        2961.50           1382         192.00       836.12
  795.62        2961.75           1385         714.00      3111.89
  795.65        2962.00           1389        2603.00     11349.99
  795.68        2962.25           1392        4927.00     21490.75
  795.71        2962.50           1395        7868.00     34332.64
  795.74        2962.75           1399       12044.00     52584.20
  795.77        2963.00           1402       15377.00     67165.72
  795.80        2963.25           1405       18410.00     80445.88
  795.83        2963.50           1409       22603.00     98822.62
  795.86        2963.75           1412       26296.00    115024.80
  795.89        2964.00           1415       29704.00    129990.70
  795.92        2964.25           1419       34214.00    149816.60
  795.95        2964.50           1422       37820.00    165685.50
  795.98        2964.75           1425       40747.00    178577.50
  796.01        2965.00           1429       45194.00    198183.50
  796.04        2965.25           1432       48643.00    213405.50
  796.07        2965.50           1435       51532.00    226166.70
  796.10        2965.75           1439       55877.00    245377.70
  796.12        2966.00           1442       58820.00    258402.60
  796.15        2966.25           1445       61102.00    268509.10
  796.18        2966.50           1449       65057.00    286039.50
  796.21        2966.75           1452       67281.00    295905.50
  796.24        2967.00           1455       67934.00    298803.40
  796.27        2967.25           1459       68118.00    299620.10
  796.30        2967.50           1462       68044.00    299291.60
  796.33        2967.75           1465       68019.00    299180.70
  796.36        2968.00           1469       67073.00    294982.50
  796.39        2968.25           1472       65250.00    286895.50
  796.42        2968.50           1475       62870.00    276343.40
  796.45        2968.75           1479       59716.00    262370.00
  796.48        2969.00           1482       56617.00    248651.80
  796.51        2969.25           1485       53586.00    235245.50
  796.54        2969.50           1489       49422.00    216845.50
  796.57        2969.75           1492       46141.00    202361.70
  796.60        2970.00           1495       42912.00    188119.70
  796.63        2970.25           1499       37835.00    165751.60
  796.66        2970.50           1502       34880.00    152746.30
  796.69        2970.75           1505       31850.00    139421.50
  796.72        2971.00           1509       27304.00    119450.00
  796.75        2971.25           1512       23925.00    104620.80
  796.78        2971.50           1515       20697.00     90466.65
  796.81        2971.75           1519       17599.00     76893.83
  796.84        2972.00           1522       14530.00     63458.97
  796.87        2972.25           1525       11499.00     50201.10
  796.90        2972.50           1529        7095.00     30956.37
  796.93        2972.75           1532        3652.00     15926.53
  796.96        2973.00           1536        1128.00      4917.03
  796.99        2973.25           1539         434.00      1891.13
  797.02        2973.50           1542         193.00       840.47
  797.05        2973.75           1546         153.00       666.10
  797.08        2974.00           1549         144.00       626.86
  797.10        2974.25           1552         137.00       596.35
  797.14        2974.50           1556         115.00       500.44
  797.16        2974.75           1559         109.00       474.29
  797.19        2975.00           1562         108.00       469.93
  797.22        2975.25           1566          92.00       400.18
  797.25        2975.50           1569         101.00       439.41
  797.28        2975.75           1572          88.00       382.74
  797.31        2976.00           1576          99.00       430.69
  797.34        2976.25           1579          90.00       391.46
  797.37        2976.50           1582          89.00       387.10
  797.40        2976.75           1586          93.00       404.54
  797.43        2977.00           1589         100.00       435.05
  797.46        2977.25           1592          96.00       417.62
  797.49        2977.50           1596          86.00       374.02
  797.52        2977.75           1599          99.00       430.69
  797.55        2978.00           1602          96.00       417.62
  797.58        2978.25           1606          90.00       391.46
  797.61        2978.50           1609          94.00       408.90
  797.64        2978.75           1612          91.00       395.82
  797.67        2979.00           1616          83.00       360.95
  797.69        2979.25           1619          91.00       395.82
  797.72        2979.50           1623          90.00       391.46
  797.75        2979.75           1626          89.00       387.10
  797.78        2980.00           1629         100.00       435.05
  797.81        2980.25           1633          96.00       417.62
  797.84        2980.50           1636          88.00       382.74
  797.87        2980.75           1639          95.00       413.26
  797.90        2981.00           1643          87.00       378.38
  797.93        2981.25           1646          87.00       378.38
  797.96        2981.50           1649          88.00       382.74
  797.99        2981.75           1653          80.00       347.87
  798.02        2982.00           1656          85.00       369.66
  798.05        2982.25           1659          93.00       404.54
