************************************************************
  HS Scan of (1) Internal mercury lamp
************************************************************
Integration time is 0.2294 seconds per sample
dh310517Arenosillo 37.1 6.73 3.41pr1000
************************************************************
Dead Time -------------------------  4E-08 
Number of Cycles Used -------------  4 
Starting Wavelength (Angstroms) ---  2950 
Final Wavelength (Angstoms) -------  2984 
Wavelength Increment (Angstroms) --  .25 
Filter Wheel #1 Position ---------- (1) Ground quartz diffuser (ND=2.32)
Filter Wheel #2 Position ---------- (1) Neutral Density 0.494



************************************************************
HS scan start time = 00:20:18
Dark Count =  19.1 


Time (GMT)  Wavelength (Ang)  Step Number  Raw Counts  Counts/Second

   21.38        2950.00           2800          55.00       156.50
   21.63        2950.25           2803          55.00       156.50
   21.65        2950.50           2807          72.00       230.60
   21.68        2950.75           2811          55.00       156.50
   21.74        2951.00           2814          55.00       156.50
   21.77        2951.25           2818          55.00       156.50
   21.81        2951.50           2821          54.00       152.14
   21.84        2951.75           2825          56.00       160.86
   21.88        2952.00           2828          53.00       147.78
   21.91        2952.25           2832          64.00       195.73
   21.95        2952.50           2835          58.00       169.57
   21.98        2952.75           2839          53.00       147.78
   22.02        2953.00           2843          57.00       165.21
   22.05        2953.25           2846          61.00       182.65
   22.11        2953.50           2850          58.00       169.57
   22.14        2953.75           2853          59.00       173.93
   22.18        2954.00           2857          69.00       217.53
   22.21        2954.25           2860          63.00       191.37
   22.25        2954.50           2864          59.00       173.93
   22.28        2954.75           2867          63.00       191.37
   22.32        2955.00           2871          62.00       187.01
   22.35        2955.25           2875          62.00       187.01
   22.39        2955.50           2878          69.00       217.53
   22.42        2955.75           2882          65.00       200.09
   22.48        2956.00           2885          74.00       239.32
   22.52        2956.25           2889          74.00       239.32
   22.55        2956.50           2892          71.00       226.24
   22.59        2956.75           2896          70.00       221.89
   22.62        2957.00           2899          69.00       217.53
   22.66        2957.25           2903          82.00       274.20
   22.69        2957.50           2907          85.00       287.27
   22.73        2957.75           2910          89.00       304.71
   22.76        2958.00           2914          76.00       248.04
   22.80        2958.25           2917          75.00       243.68
   22.86        2958.50           2921          79.00       261.12
   22.89        2958.75           2924          81.00       269.84
   22.93        2959.00           2928          87.00       295.99
   22.96        2959.25           2931          91.00       313.43
   23.00        2959.50           2935         107.00       383.18
   23.03        2959.75           2939          94.00       326.51
   23.07        2960.00           2942          94.00       326.51
   23.10        2960.25           2946         113.00       409.34
   23.14        2960.50           2949          90.00       309.07
   23.17        2960.75           2953         100.00       352.66
   23.23        2961.00           2956         118.00       431.13
   23.26        2961.25           2960         106.00       378.82
   23.30        2961.50           2963         125.00       461.65
   23.34        2961.75           2967         152.00       579.35
   23.37        2962.00           2971         350.00      1442.54
   23.40        2962.25           2974         566.00      2384.27
   23.44        2962.50           2978         919.00      3923.46
   23.47        2962.75           2981        1279.00      5493.36
   23.51        2963.00           2985        1746.00      7530.17
   23.55        2963.25           2988        2098.00      9065.62
   23.60        2963.50           2992        2780.00     12041.11
   23.64        2963.75           2996        3631.00     15754.91
   23.67        2964.00           2999        4248.00     18448.22
   23.71        2964.25           3003        4860.00     21120.28
   23.74        2964.50           3006        5393.00     23447.88
   23.78        2964.75           3010        5968.00     25959.38
   23.82        2965.00           3013        6385.00     27781.08
   23.85        2965.25           3017        6921.00     30123.02
   23.89        2965.50           3020        7346.00     31980.29
   23.92        2965.75           3024        8150.00     35494.56
   23.98        2966.00           3028        8657.00     37711.16
   24.01        2966.25           3031        8922.00     38869.89
   24.05        2966.50           3035        9497.00     41384.49
   24.08        2966.75           3038        9883.00     43072.84
   24.12        2967.00           3042       10474.00     45658.29
   24.15        2967.25           3045       10774.00     46970.91
   24.19        2967.50           3049       10850.00     47303.46
   24.22        2967.75           3053       10744.00     46839.65
   24.26        2968.00           3056       10891.00     47482.87
   24.30        2968.25           3060       10805.00     47106.55
   24.35        2968.50           3063       10512.00     45824.55
   24.39        2968.75           3067       10272.00     44774.54
   24.42        2969.00           3070        9988.00     43532.15
   24.46        2969.25           3074        9312.00     40575.40
   24.49        2969.50           3078        8772.00     38213.99
   24.53        2969.75           3081        8336.00     36307.71
   24.56        2970.00           3085        7711.00     33575.58
   24.60        2970.25           3088        7295.00     31757.41
   24.64        2970.50           3092        6543.00     28471.38
   24.67        2970.75           3095        5931.00     25797.75
   24.73        2971.00           3099        5370.00     23347.43
   24.77        2971.25           3103        4852.00     21085.35
   24.80        2971.50           3106        4421.00     19203.50
   24.84        2971.75           3110        3903.00     16942.17
   24.88        2972.00           3113        3566.00     15471.21
   24.91        2972.25           3117        2957.00     12813.45
   24.94        2972.50           3120        2467.00     10675.44
   24.98        2972.75           3124        1890.00      8158.29
   25.01        2973.00           3128        1477.00      6356.89
   25.05        2973.25           3131        1228.00      5270.95
   25.11        2973.50           3135         773.00      3286.83
   25.14        2973.75           3138         422.00      1756.44
   25.18        2974.00           3142         261.00      1054.53
   25.22        2974.25           3145         182.00       710.13
   25.25        2974.50           3149         129.00       479.09
   25.29        2974.75           3152         142.00       535.76
   25.32        2975.00           3156         114.00       413.69
   25.36        2975.25           3160          97.00       339.59
   25.39        2975.50           3163          99.00       348.30
   25.43        2975.75           3167         111.00       400.62
   25.48        2976.00           3170          88.00       300.35
   25.52        2976.25           3174         113.00       409.34
   25.55        2976.50           3177          86.00       291.63
   25.59        2976.75           3181          87.00       295.99
   25.62        2977.00           3185          72.00       230.60
   25.66        2977.25           3188          87.00       295.99
   25.69        2977.50           3192          80.00       265.48
   25.72        2977.75           3195          83.00       278.56
   25.76        2978.00           3199          81.00       269.84
   25.79        2978.25           3203          80.00       265.48
   25.85        2978.50           3206          67.00       208.81
   25.89        2978.75           3210          72.00       230.60
   25.92        2979.00           3213          80.00       265.48
   25.96        2979.25           3217          69.00       217.53
   25.99        2979.50           3220          68.00       213.17
   26.03        2979.75           3224          64.00       195.73
   26.06        2980.00           3228          63.00       191.37
   26.10        2980.25           3231          71.00       226.24
   26.13        2980.50           3235          67.00       208.81
   26.17        2980.75           3238          65.00       200.09
   26.22        2981.00           3242          71.00       226.24
   26.26        2981.25           3245          60.00       178.29
   26.29        2981.50           3249          61.00       182.65
   26.33        2981.75           3253          62.00       187.01
   26.36        2982.00           3256          60.00       178.29
   26.40        2982.25           3260          58.00       169.57
   26.43        2982.50           3263          59.00       173.93
   26.47        2982.75           3267          65.00       200.09
   26.50        2983.00           3270          68.00       213.17
   26.54        2983.25           3274          57.00       165.21
   26.59        2983.50           3278          55.00       156.50
   26.63        2983.75           3281          51.00       139.06
   26.66        2984.00           3285          58.00       169.57
HS scan finished at 00:26:53
end
