************************************************************
  HS Scan of (1) Internal mercury lamp
************************************************************
Integration time is 0.2294 seconds per sample
dh240619Arenosillo 37.1 6.73 3.31pr1000
************************************************************
Dead Time -------------------------  3.8E-08 
Number of Cycles Used -------------  4 
Starting Wavelength (Angstroms) ---  2950 
Final Wavelength (Angstoms) -------  2984 
Wavelength Increment (Angstroms) --  .25 
Filter Wheel #1 Position ---------- (1) Ground quartz diffuser (ND=2.32)
Filter Wheel #2 Position ---------- (1) Neutral Density 0.494



************************************************************
HS scan start time = 01:56:30
Dark Count =  8.899999 


Time (GMT)  Wavelength (Ang)  Step Number  Raw Counts  Counts/Second

  117.57        2950.00           2813         152.00       623.82
  117.81        2950.25           2816         140.00       571.50
  117.85        2950.50           2820         164.00       676.13
  117.88        2950.75           2823         164.00       676.13
  117.91        2951.00           2827         142.00       580.22
  117.95        2951.25           2830         149.00       610.74
  117.98        2951.50           2834         165.00       680.49
  118.02        2951.75           2837         155.00       636.89
  118.05        2952.00           2841         145.00       593.30
  118.08        2952.25           2845         154.00       632.53
  118.12        2952.50           2848         164.00       676.13
  118.15        2952.75           2852         152.00       623.82
  118.19        2953.00           2855         163.00       671.77
  118.22        2953.25           2859         165.00       680.49
  118.25        2953.50           2862         173.00       715.36
  118.29        2953.75           2866         172.00       711.00
  118.32        2954.00           2869         168.00       693.57
  118.36        2954.25           2873         173.00       715.36
  118.39        2954.50           2876         171.00       706.65
  118.42        2954.75           2880         185.00       767.68
  118.45        2955.00           2883         187.00       776.40
  118.49        2955.25           2887         186.00       772.04
  118.52        2955.50           2891         193.00       802.55
  118.56        2955.75           2894         199.00       828.71
  118.59        2956.00           2898         192.00       798.19
  118.62        2956.25           2901         198.00       824.35
  118.66        2956.50           2905         204.00       850.51
  118.69        2956.75           2908         196.00       815.63
  118.72        2957.00           2912         215.00       898.46
  118.76        2957.25           2915         229.00       959.49
  118.79        2957.50           2919         261.00      1099.00
  118.83        2957.75           2922         227.00       950.78
  118.86        2958.00           2926         235.00       985.65
  118.89        2958.25           2930         242.00      1016.17
  118.93        2958.50           2933         290.00      1225.43
  118.96        2958.75           2937         260.00      1094.64
  119.00        2959.00           2940         249.00      1046.69
  119.03        2959.25           2944         276.00      1164.39
  119.06        2959.50           2947         299.00      1264.66
  119.10        2959.75           2951         278.00      1173.11
  119.13        2960.00           2954         294.00      1242.87
  119.17        2960.25           2958         314.00      1330.06
  119.20        2960.50           2961         296.00      1251.59
  119.23        2960.75           2965         322.00      1364.94
  119.26        2961.00           2968         367.00      1561.12
  119.30        2961.25           2972         633.00      2720.86
  119.33        2961.50           2976        1439.00      6235.57
  119.36        2961.75           2979        2393.00     10396.87
  119.40        2962.00           2983        4203.00     18295.63
  119.43        2962.25           2986        5625.00     24504.50
  119.47        2962.50           2990        7499.00     32691.42
  119.50        2962.75           2993        9117.00     39764.05
  119.53        2963.00           2997       11178.00     48778.65
  119.57        2963.25           3000       12700.00     55439.69
  119.60        2963.50           3004       15195.00     66366.38
  119.64        2963.75           3007       17265.00     75438.71
  119.67        2964.00           3011       19641.00     85859.89
  119.71        2964.25           3015       22323.00     97633.13
  119.74        2964.50           3018       24265.00    106164.60
  119.77        2964.75           3022       26707.00    116900.50
  119.81        2965.00           3025       28633.00    125374.00
  119.84        2965.25           3029       30696.00    134456.40
  119.87        2965.50           3032       32605.00    142866.40
  119.91        2965.75           3036       34730.00    152234.30
  119.94        2966.00           3039       36161.00    158546.50
  119.98        2966.25           3043       37303.00    163586.10
  120.01        2966.50           3046       37905.00    166243.50
  120.04        2966.75           3050       38107.00    167135.30
  120.08        2967.00           3054       38296.00    167969.80
  120.11        2967.25           3057       38323.00    168089.00
  120.15        2967.50           3061       37672.00    165214.90
  120.18        2967.75           3064       36932.00    161948.70
  120.21        2968.00           3068       35304.00    154765.90
  120.25        2968.25           3071       33805.00    148155.70
  120.28        2968.50           3075       31794.00    139292.90
  120.31        2968.75           3078       29896.00    130933.60
  120.35        2969.00           3082       27515.00    120454.60
  120.38        2969.25           3086       25358.00    110968.70
  120.41        2969.50           3089       23565.00    103088.80
  120.45        2969.75           3093       21272.00     93018.28
  120.48        2970.00           3096       19637.00     85842.33
  120.52        2970.25           3100       17321.00     75684.22
  120.55        2970.50           3103       15496.00     67685.21
  120.58        2970.75           3107       13075.00     57081.39
  120.62        2971.00           3110       11460.00     50012.57
  120.65        2971.25           3114        8830.00     38509.23
  120.68        2971.50           3117        6920.00     30161.40
  120.72        2971.75           3121        4718.00     20543.93
  120.75        2972.00           3125        2694.00     11710.09
  120.79        2972.25           3128        1645.00      7134.02
  120.82        2972.50           3132         848.00      3658.31
  120.85        2972.75           3135         617.00      2651.10
  120.89        2973.00           3139         444.00      1896.82
  120.92        2973.25           3142         390.00      1661.40
  120.96        2973.50           3146         338.00      1434.69
  120.99        2973.75           3149         332.00      1408.53
  121.02        2974.00           3153         301.00      1273.38
  121.06        2974.25           3157         310.00      1312.62
  121.09        2974.50           3160         303.00      1282.10
  121.13        2974.75           3164         279.00      1177.47
  121.16        2975.00           3167         282.00      1190.55
  121.19        2975.25           3171         294.00      1242.87
  121.23        2975.50           3174         281.00      1186.19
  121.26        2975.75           3178         280.00      1181.83
  121.30        2976.00           3181         271.00      1142.60
  121.33        2976.25           3185         230.00       963.85
  121.36        2976.50           3189         236.00       990.01
  121.40        2976.75           3192         233.00       976.93
  121.43        2977.00           3196         217.00       907.18
  121.47        2977.25           3199         247.00      1037.97
  121.50        2977.50           3203         212.00       885.38
  121.53        2977.75           3206         220.00       920.26
  121.57        2978.00           3210         209.00       872.30
  121.60        2978.25           3213         208.00       867.95
  121.64        2978.50           3217         187.00       776.40
  121.67        2978.75           3221         190.00       789.47
  121.70        2979.00           3224         201.00       837.43
  121.74        2979.25           3228         198.00       824.35
  121.77        2979.50           3231         195.00       811.27
  121.81        2979.75           3235         181.00       750.24
  121.84        2980.00           3238         178.00       737.16
  121.87        2980.25           3242         172.00       711.00
  121.91        2980.50           3245         173.00       715.36
  121.94        2980.75           3249         159.00       654.33
  121.98        2981.00           3253         171.00       706.65
  122.01        2981.25           3256         172.00       711.00
  122.04        2981.50           3260         185.00       767.68
  122.08        2981.75           3263         180.00       745.88
  122.11        2982.00           3267         169.00       697.93
  122.15        2982.25           3270         165.00       680.49
  122.18        2982.50           3274         148.00       606.38
  122.22        2982.75           3277         158.00       649.97
  122.25        2983.00           3281         155.00       636.89
  122.28        2983.25           3285         161.00       663.05
  122.32        2983.50           3288         148.00       606.38
  122.35        2983.75           3292         152.00       623.82
  122.38        2984.00           3295         137.00       558.43
HS scan finished at 02:02:37
end
************************************************************
  HS Scan of (1) Internal mercury lamp
************************************************************
Integration time is 0.2294 seconds per sample
dh240619Arenosillo 37.1 6.73 3.33pr1000
************************************************************
Dead Time -------------------------  3.8E-08 
Number of Cycles Used -------------  4 
Starting Wavelength (Angstroms) ---  2950 
Final Wavelength (Angstoms) -------  2984 
Wavelength Increment (Angstroms) --  .25 
Filter Wheel #1 Position ---------- (1) Ground quartz diffuser (ND=2.32)
Filter Wheel #2 Position ---------- (1) Neutral Density 0.494



************************************************************
HS scan start time = 21:40:34
Dark Count =  9.100001 


Time (GMT)  Wavelength (Ang)  Step Number  Raw Counts  Counts/Second

 1301.63        2950.00           2813         132.00       535.76
 1301.88        2950.25           2816         130.00       527.04
 1301.91        2950.50           2820         153.00       627.30
 1301.95        2950.75           2823         148.00       605.51
 1301.98        2951.00           2827         140.00       570.63
 1302.01        2951.25           2830         152.00       622.94
 1302.05        2951.50           2834         168.00       692.69
 1302.08        2951.75           2837         142.00       579.35
 1302.12        2952.00           2841         172.00       710.13
 1302.15        2952.25           2845         157.00       644.74
 1302.18        2952.50           2848         155.00       636.02
 1302.22        2952.75           2852         153.00       627.30
 1302.25        2953.00           2855         157.00       644.74
 1302.29        2953.25           2859         171.00       705.77
 1302.32        2953.50           2862         173.00       714.49
 1302.35        2953.75           2866         159.00       653.46
 1302.39        2954.00           2869         146.00       596.79
 1302.42        2954.25           2873         167.00       688.34
 1302.46        2954.50           2876         182.00       753.73
 1302.49        2954.75           2880         174.00       718.85
 1302.52        2955.00           2883         186.00       771.16
 1302.56        2955.25           2887         200.00       832.20
 1302.59        2955.50           2891         187.00       775.52
 1302.63        2955.75           2894         193.00       801.68
 1302.66        2956.00           2898         188.00       779.88
 1302.69        2956.25           2901         207.00       862.71
 1302.73        2956.50           2905         210.00       875.79
 1302.76        2956.75           2908         197.00       819.12
 1302.79        2957.00           2912         230.00       962.98
 1302.82        2957.25           2915         216.00       901.95
 1302.86        2957.50           2919         211.00       880.15
 1302.89        2957.75           2922         228.00       954.26
 1302.93        2958.00           2926         220.00       919.39
 1302.96        2958.25           2930         229.00       958.62
 1302.99        2958.50           2933         244.00      1024.02
 1303.03        2958.75           2937         261.00      1098.13
 1303.06        2959.00           2940         252.00      1058.89
 1303.10        2959.25           2944         249.00      1045.81
 1303.13        2959.50           2947         267.00      1124.29
 1303.16        2959.75           2951         281.00      1185.32
 1303.20        2960.00           2954         283.00      1194.04
 1303.23        2960.25           2958         288.00      1215.84
 1303.26        2960.50           2961         308.00      1303.03
 1303.30        2960.75           2965         304.00      1285.59
 1303.33        2961.00           2968         365.00      1551.53
 1303.36        2961.25           2972         530.00      2270.90
 1303.40        2961.50           2976        1195.00      5170.59
 1303.43        2961.75           2979        2148.00      9327.19
 1303.46        2962.00           2983        3955.00     17212.21
 1303.50        2962.25           2986        5450.00     23739.37
 1303.53        2962.50           2990        7373.00     32139.93
 1303.57        2962.75           2993        8946.00     39015.52
 1303.60        2963.00           2997       10977.00     47898.35
 1303.63        2963.25           3000       12608.00     55036.08
 1303.67        2963.50           3004       15008.00     65546.24
 1303.70        2963.75           3007       16734.00     73109.99
 1303.74        2964.00           3011       18876.00     82502.80
 1303.77        2964.25           3015       21326.00     93254.47
 1303.80        2964.50           3018       23172.00    101361.30
 1303.84        2964.75           3022       25492.00    111556.90
 1303.87        2965.00           3025       27269.00    119371.60
 1303.91        2965.25           3029       29139.00    127600.20
 1303.94        2965.50           3032       31186.00    136613.60
 1303.97        2965.75           3036       33166.00    145338.00
 1304.01        2966.00           3039       34686.00    152039.30
 1304.04        2966.25           3043       35648.00    156282.40
 1304.07        2966.50           3046       36223.00    158819.10
 1304.11        2966.75           3050       36679.00    160831.30
 1304.14        2967.00           3054       36642.00    160668.00
 1304.17        2967.25           3057       36876.00    161700.70
 1304.21        2967.50           3061       36137.00    158439.70
 1304.24        2967.75           3064       35571.00    155942.70
 1304.27        2968.00           3068       33767.00    147987.20
 1304.31        2968.25           3071       32519.00    142486.50
 1304.34        2968.50           3075       30462.00    133425.00
 1304.38        2968.75           3078       28855.00    126350.20
 1304.41        2969.00           3082       26779.00    117216.20
 1304.44        2969.25           3086       24878.00    108857.80
 1304.48        2969.50           3089       23052.00    100834.20
 1304.51        2969.75           3093       20794.00     90919.08
 1304.55        2970.00           3096       19292.00     84327.78
 1304.58        2970.25           3100       17091.00     74674.99
 1304.61        2970.50           3103       15370.00     67132.25
 1304.65        2970.75           3107       12988.00     56699.63
 1304.68        2971.00           3110       11329.00     49438.48
 1304.72        2971.25           3114        8904.00     38831.89
 1304.75        2971.50           3117        7091.00     30907.68
 1304.78        2971.75           3121        4982.00     21695.74
 1304.82        2972.00           3125        3065.00     13328.02
 1304.85        2972.25           3128        1801.00      7813.57
 1304.89        2972.50           3132         935.00      4036.80
 1304.92        2972.75           3135         687.00      2955.43
 1304.95        2973.00           3139         461.00      1970.07
 1304.99        2973.25           3142         351.00      1490.49
 1305.02        2973.50           3146         325.00      1377.14
 1305.06        2973.75           3149         312.00      1320.47
 1305.09        2974.00           3153         298.00      1259.43
 1305.12        2974.25           3157         276.00      1163.52
 1305.16        2974.50           3160         276.00      1163.52
 1305.19        2974.75           3164         326.00      1381.50
 1305.23        2975.00           3167         284.00      1198.40
 1305.26        2975.25           3171         272.00      1146.08
 1305.29        2975.50           3174         250.00      1050.17
 1305.33        2975.75           3178         243.00      1019.66
 1305.36        2976.00           3181         280.00      1180.96
 1305.40        2976.25           3185         237.00       993.50
 1305.43        2976.50           3189         243.00      1019.66
 1305.46        2976.75           3192         251.00      1054.53
 1305.50        2977.00           3196         241.00      1010.94
 1305.53        2977.25           3199         206.00       858.35
 1305.57        2977.50           3203         199.00       827.84
 1305.60        2977.75           3206         226.00       945.54
 1305.63        2978.00           3210         202.00       840.92
 1305.67        2978.25           3213         206.00       858.35
 1305.70        2978.50           3217         193.00       801.68
 1305.74        2978.75           3221         187.00       775.52
 1305.77        2979.00           3224         193.00       801.68
 1305.80        2979.25           3228         191.00       792.96
 1305.84        2979.50           3231         181.00       749.37
 1305.87        2979.75           3235         187.00       775.52
 1305.91        2980.00           3238         182.00       753.73
 1305.94        2980.25           3242         173.00       714.49
 1305.97        2980.50           3245         173.00       714.49
 1306.01        2980.75           3249         180.00       745.01
 1306.04        2981.00           3253         166.00       683.98
 1306.07        2981.25           3256         163.00       670.90
 1306.10        2981.50           3260         163.00       670.90
 1306.14        2981.75           3263         162.00       666.54
 1306.17        2982.00           3267         166.00       683.98
 1306.21        2982.25           3270         162.00       666.54
