************************************************************
  CZ Scan of (1) Internal mercury lamp
************************************************************
Integration time is 0.2294 seconds per sample
dh100619Zaragoza Canal 41.634 .881 3.5pr987
************************************************************
Dead Time -------------------------  3.4E-08 
Number of Cycles Used -------------  4 
Starting Wavelength (Angstroms) ---  2950 
Final Wavelength (Angstoms) -------  2984 
Wavelength Increment (Angstroms) --  .25 
Filter Wheel #1 Position ---------- (1) Ground quartz diffuser (ND=2.32)
Filter Wheel #2 Position ---------- (1) Neutral Density 0.494



************************************************************
CZ scan start time = 12:38:21
Dark Count =  20.7 


Time (GMT)  Wavelength (Ang)  Step Number  Raw Counts  Counts/Second

  759.08        2950.00           1408         147.00       550.58
  759.22        2950.25           1412         166.00       633.41
  759.25        2950.50           1415         154.00       581.09
  759.28        2950.75           1418         149.00       559.30
  759.31        2951.00           1422         161.00       611.61
  759.34        2951.25           1425         152.00       572.37
  759.37        2951.50           1428         166.00       633.41
  759.40        2951.75           1432         157.00       594.17
  759.43        2952.00           1435         148.00       554.94
  759.46        2952.25           1439         157.00       594.17
  759.50        2952.50           1442         154.00       581.09
  759.53        2952.75           1445         159.00       602.89
  759.56        2953.00           1449         162.00       615.97
  759.59        2953.25           1452         170.00       650.84
  759.62        2953.50           1456         167.00       637.76
  759.65        2953.75           1459         162.00       615.97
  759.68        2954.00           1462         175.00       672.64
  759.71        2954.25           1466         159.00       602.89
  759.74        2954.50           1469         175.00       672.64
  759.77        2954.75           1472         176.00       677.00
  759.80        2955.00           1476         185.00       716.23
  759.83        2955.25           1479         182.00       703.16
  759.86        2955.50           1483         180.00       694.44
  759.89        2955.75           1486         185.00       716.23
  759.92        2956.00           1489         191.00       742.39
  759.95        2956.25           1493         179.00       690.08
  759.98        2956.50           1496         198.00       772.91
  760.02        2956.75           1499         211.00       829.58
  760.05        2957.00           1503         193.00       751.11
  760.08        2957.25           1506         200.00       781.63
  760.11        2957.50           1510         203.00       794.70
  760.14        2957.75           1513         210.00       825.22
  760.17        2958.00           1516         210.00       825.22
  760.20        2958.25           1520         208.00       816.50
  760.23        2958.50           1523         245.00       977.80
  760.26        2958.75           1527         229.00       908.05
  760.29        2959.00           1530         229.00       908.05
  760.32        2959.25           1533         253.00      1012.68
  760.35        2959.50           1537         260.00      1043.19
  760.38        2959.75           1540         260.00      1043.19
  760.41        2960.00           1544         258.00      1034.47
  760.44        2960.25           1547         249.00       995.24
  760.47        2960.50           1550         270.00      1086.79
  760.50        2960.75           1554         329.00      1344.00
  760.53        2961.00           1557         486.00      2028.47
  760.57        2961.25           1560         966.00      4121.33
  760.60        2961.50           1564        2603.00     11261.07
  760.63        2961.75           1567        5120.00     22245.68
  760.66        2962.00           1571       10198.00     44431.94
  760.69        2962.25           1574       14313.00     62435.36
  760.72        2962.50           1577       18661.00     81482.19
  760.75        2962.75           1581       24621.00    107630.70
  760.78        2963.00           1584       29251.00    127976.30
  760.81        2963.25           1588       35389.00    154992.00
  760.84        2963.50           1591       39603.00    173568.40
  760.87        2963.75           1594       44522.00    195282.30
  760.90        2964.00           1598       50633.00    222303.00
  760.93        2964.25           1601       54656.00    240118.50
  760.96        2964.50           1605       60116.00    264332.30
  760.99        2964.75           1608       64320.00    283003.40
  761.02        2965.00           1611       68506.00    301618.30
  761.05        2965.25           1615       74466.00    328162.90
  761.09        2965.50           1618       78489.00    346107.90
  761.12        2965.75           1621       82883.00    365732.90
  761.15        2966.00           1625       88330.00    390097.60
  761.18        2966.25           1628       92784.00    410050.80
  761.21        2966.50           1632       96984.00    428891.10
  761.24        2966.75           1635       99315.00    439357.90
  761.27        2967.00           1638       99807.00    441568.10
  761.30        2967.25           1642       99700.00    441087.40
  761.33        2967.50           1645       99442.00    439928.40
  761.36        2967.75           1649       98015.00    433519.60
  761.39        2968.00           1652       95590.00    422635.20
  761.42        2968.25           1655       91770.00    405505.80
  761.45        2968.50           1659       85958.00    379482.50
  761.48        2968.75           1662       81138.00    357936.00
  761.51        2969.00           1666       75128.00    331114.40
  761.54        2969.25           1669       70345.00    309803.70
  761.57        2969.50           1672       65664.00    288977.50
  761.61        2969.75           1676       59507.00    261629.60
  761.64        2970.00           1679       55204.00    242546.90
  761.67        2970.25           1683       49623.00    217833.70
  761.70        2970.50           1686       44576.00    195520.80
  761.73        2970.75           1689       40072.00    175637.30
  761.76        2971.00           1693       33914.00    148495.50
  761.79        2971.25           1696       29447.00    128838.20
  761.82        2971.50           1700       23204.00    101409.70
  761.85        2971.75           1703       19126.00     83520.63
  761.88        2972.00           1706       15110.00     65924.85
  761.91        2972.25           1710        9786.00     42630.62
  761.94        2972.50           1713        6293.00     27367.65
  761.97        2972.75           1717        2498.00     10803.01
  762.00        2973.00           1720         887.00      3776.86
  762.03        2973.25           1723         395.00      1631.74
  762.06        2973.50           1727         297.00      1204.50
  762.09        2973.75           1730         293.00      1187.06
  762.13        2974.00           1734         269.00      1082.43
  762.16        2974.25           1737         263.00      1056.27
  762.19        2974.50           1740         263.00      1056.27
  762.22        2974.75           1744         255.00      1021.40
  762.25        2975.00           1747         234.00       929.85
  762.28        2975.25           1751         234.00       929.85
  762.31        2975.50           1754         233.00       925.49
  762.34        2975.75           1757         223.00       881.89
  762.37        2976.00           1761         224.00       886.25
  762.40        2976.25           1764         215.00       847.02
  762.43        2976.50           1768         205.00       803.42
  762.46        2976.75           1771         205.00       803.42
  762.49        2977.00           1774         206.00       807.78
  762.52        2977.25           1778         195.00       759.83
  762.55        2977.50           1781         202.00       790.34
  762.58        2977.75           1785         193.00       751.11
  762.61        2978.00           1788         189.00       733.67
  762.65        2978.25           1791         182.00       703.16
  762.68        2978.50           1795         194.00       755.47
  762.71        2978.75           1798         184.00       711.87
  762.74        2979.00           1802         190.00       738.03
  762.77        2979.25           1805         178.00       685.72
  762.80        2979.50           1808         181.00       698.80
  762.83        2979.75           1812         167.00       637.76
  762.86        2980.00           1815         162.00       615.97
  762.89        2980.25           1819         181.00       698.80
  762.92        2980.50           1822         176.00       677.00
  762.95        2980.75           1825         173.00       663.92
  762.98        2981.00           1829         169.00       646.48
  763.01        2981.25           1832         167.00       637.76
  763.04        2981.50           1836         159.00       602.89
  763.07        2981.75           1839         178.00       685.72
  763.10        2982.00           1842         176.00       677.00
  763.13        2982.25           1846         164.00       624.69
  763.16        2982.50           1849         150.00       563.66
  763.20        2982.75           1853         167.00       637.76
  763.23        2983.00           1856         158.00       598.53
  763.26        2983.25           1859         156.00       589.81
  763.29        2983.50           1863         164.00       624.69
  763.32        2983.75           1866         152.00       572.37
  763.35        2984.00           1870         153.00       576.73
CZ scan finished at 12:43:34
end
