************************************************************
  HS Scan of (1) Internal mercury lamp
************************************************************
Integration time is 0.2294 seconds per sample
dh050517Madrid 40.45 3.717 3.07pr940
************************************************************
Dead Time -------------------------  3.1E-08 
Number of Cycles Used -------------  4 
Starting Wavelength (Angstroms) ---  2950 
Final Wavelength (Angstoms) -------  2984 
Wavelength Increment (Angstroms) --  .25 
Filter Wheel #1 Position ---------- (1) Ground quartz diffuser (ND=2.32)
Filter Wheel #2 Position ---------- (1) Neutral Density 0.494



************************************************************
HS scan start time = 00:47:38
Dark Count =  5.4 


Time (GMT)  Wavelength (Ang)  Step Number  Raw Counts  Counts/Second

   48.37        2950.00           1408          78.00       316.48
   48.51        2950.25           1412          77.00       312.12
   48.54        2950.50           1415          76.00       307.76
   48.57        2950.75           1418          64.00       255.45
   48.61        2951.00           1422          83.00       338.28
   48.64        2951.25           1425          72.00       290.33
   48.67        2951.50           1428          70.00       281.61
   48.70        2951.75           1432          71.00       285.97
   48.73        2952.00           1435          78.00       316.48
   48.76        2952.25           1439          71.00       285.97
   48.80        2952.50           1442          78.00       316.48
   48.83        2952.75           1445          67.00       268.53
   48.86        2953.00           1449          77.00       312.12
   48.89        2953.25           1452          78.00       316.48
   48.93        2953.50           1456          71.00       285.97
   48.96        2953.75           1459          80.00       325.20
   48.99        2954.00           1462          79.00       320.84
   49.02        2954.25           1466          70.00       281.61
   49.05        2954.50           1469          79.00       320.84
   49.09        2954.75           1472          73.00       294.68
   49.12        2955.00           1476          70.00       281.61
   49.15        2955.25           1479          77.00       312.12
   49.18        2955.50           1483          76.00       307.76
   49.21        2955.75           1486          80.00       325.20
   49.25        2956.00           1489          82.00       333.92
   49.28        2956.25           1493          84.00       342.64
   49.31        2956.50           1496          84.00       342.64
   49.34        2956.75           1499          87.00       355.71
   49.37        2957.00           1503          87.00       355.71
   49.41        2957.25           1506          87.00       355.71
   49.44        2957.50           1510          89.00       364.43
   49.47        2957.75           1513          82.00       333.92
   49.50        2958.00           1516          77.00       312.12
   49.53        2958.25           1520          87.00       355.71
   49.57        2958.50           1523          93.00       381.87
   49.60        2958.75           1527          83.00       338.28
   49.63        2959.00           1530          88.00       360.07
   49.66        2959.25           1533          91.00       373.15
   49.69        2959.50           1537          91.00       373.15
   49.73        2959.75           1540          87.00       355.71
   49.76        2960.00           1544          97.00       399.31
   49.79        2960.25           1547          96.00       394.95
   49.82        2960.50           1550          97.00       399.31
   49.85        2960.75           1554         125.00       521.37
   49.89        2961.00           1557         131.00       547.52
   49.92        2961.25           1560         210.00       891.92
   49.95        2961.50           1564         650.00      2810.18
   49.98        2961.75           1567        1478.00      6420.63
   50.02        2962.00           1571        2958.00     12876.11
   50.05        2962.25           1574        4139.00     18029.26
   50.08        2962.50           1577        5325.00     23205.88
   50.11        2962.75           1581        6820.00     29733.59
   50.14        2963.00           1584        7780.00     33926.68
   50.17        2963.25           1588        9084.00     39624.06
   50.21        2963.50           1591       10200.00     44501.63
   50.24        2963.75           1594       11331.00     49446.27
   50.27        2964.00           1598       12829.00     55997.74
   50.30        2964.25           1601       13907.00     60713.99
   50.34        2964.50           1605       15428.00     67370.72
   50.37        2964.75           1608       16785.00     73312.02
   50.40        2965.00           1611       17992.00     78598.43
   50.43        2965.25           1615       19386.00     84706.01
   50.46        2965.50           1618       20515.00     89654.24
   50.50        2965.75           1621       21715.00     94915.31
   50.53        2966.00           1625       23084.00    100919.40
   50.56        2966.25           1628       24082.00    105297.80
   50.59        2966.50           1632       24909.00    108926.90
   50.62        2966.75           1635       25197.00    110190.90
   50.66        2967.00           1638       25102.00    109774.00
   50.69        2967.25           1642       25199.00    110199.70
   50.72        2967.50           1645       25043.00    109515.00
   50.75        2967.75           1649       24288.00    106201.70
   50.78        2968.00           1652       23516.00    102814.50
   50.82        2968.25           1655       22628.00     98919.26
   50.85        2968.50           1659       21047.00     91986.44
   50.88        2968.75           1662       19893.00     86927.92
   50.91        2969.00           1666       18437.00     80547.87
   50.94        2969.25           1669       17312.00     75619.96
   50.98        2969.50           1672       16272.00     71065.72
   51.01        2969.75           1676       14794.00     64595.66
   51.04        2970.00           1679       13647.00     59576.37
   51.07        2970.25           1683       12237.00     53408.32
   51.11        2970.50           1686       11155.00     48676.71
   51.14        2970.75           1689       10100.00     44064.51
   51.17        2971.00           1693        8602.00     37517.89
   51.20        2971.25           1696        7616.00     33210.29
   51.23        2971.50           1700        6044.00     26344.96
   51.26        2971.75           1703        4957.00     21599.47
   51.30        2972.00           1706        3683.00     16039.36
   51.33        2972.25           1710        2249.00      9783.26
   51.36        2972.50           1713        1273.00      5526.67
   51.39        2972.75           1717         410.00      1763.83
   51.42        2973.00           1720         169.00       713.18
   51.46        2973.25           1723         132.00       551.88
   51.49        2973.50           1727         121.00       503.93
   51.52        2973.75           1730         100.00       412.39
   51.55        2974.00           1734         101.00       416.74
   51.58        2974.25           1737          95.00       390.59
   51.62        2974.50           1740          91.00       373.15
   51.65        2974.75           1744          90.00       368.79
   51.68        2975.00           1747          88.00       360.07
   51.71        2975.25           1751          95.00       390.59
   51.75        2975.50           1754         105.00       434.18
   51.78        2975.75           1757          82.00       333.92
   51.81        2976.00           1761          83.00       338.28
   51.84        2976.25           1764          81.00       329.56
   51.87        2976.50           1768          82.00       333.92
   51.91        2976.75           1771          89.00       364.43
   51.94        2977.00           1774          93.00       381.87
   51.97        2977.25           1778          84.00       342.64
   52.00        2977.50           1781          85.00       347.00
   52.03        2977.75           1785          77.00       312.12
   52.07        2978.00           1788          76.00       307.76
   52.10        2978.25           1791          98.00       403.67
   52.13        2978.50           1795          76.00       307.76
   52.16        2978.75           1798          81.00       329.56
   52.19        2979.00           1802          78.00       316.48
   52.23        2979.25           1805          70.00       281.61
   52.26        2979.50           1808          78.00       316.48
   52.29        2979.75           1812          66.00       264.17
   52.32        2980.00           1815          78.00       316.48
   52.35        2980.25           1819          79.00       320.84
   52.39        2980.50           1822          72.00       290.33
   52.42        2980.75           1825          69.00       277.25
   52.45        2981.00           1829          74.00       299.04
   52.48        2981.25           1832          79.00       320.84
   52.51        2981.50           1836          74.00       299.04
   52.55        2981.75           1839          65.00       259.81
   52.58        2982.00           1842          67.00       268.53
   52.61        2982.25           1846          70.00       281.61
   52.64        2982.50           1849          71.00       285.97
   52.67        2982.75           1853          68.00       272.89
   52.71        2983.00           1856          68.00       272.89
   52.74        2983.25           1859          68.00       272.89
   52.77        2983.50           1863          69.00       277.25
   52.80        2983.75           1866          70.00       281.61
   52.84        2984.00           1870          68.00       272.89
HS scan finished at 00:53:04
end
