************************************************************
  HS Scan of (1) Internal mercury lamp
************************************************************
Integration time is 0.2294 seconds per sample
dh020617Arenosillo 37.1 6.73 3.21pr1000
************************************************************
Dead Time -------------------------  3.1E-08 
Number of Cycles Used -------------  4 
Starting Wavelength (Angstroms) ---  2950 
Final Wavelength (Angstoms) -------  2984 
Wavelength Increment (Angstroms) --  .25 
Filter Wheel #1 Position ---------- (1) Ground quartz diffuser (ND=2.32)
Filter Wheel #2 Position ---------- (1) Neutral Density 0.494



************************************************************
HS scan start time = 01:01:36
Dark Count =  8.7 


Time (GMT)  Wavelength (Ang)  Step Number  Raw Counts  Counts/Second

   62.33        2950.00           1408         162.00       668.28
   62.47        2950.25           1412         161.00       663.92
   62.50        2950.50           1415         162.00       668.28
   62.53        2950.75           1418         163.00       672.64
   62.57        2951.00           1422         153.00       629.04
   62.60        2951.25           1425         172.00       711.87
   62.63        2951.50           1428         171.00       707.51
   62.67        2951.75           1432         175.00       724.95
   62.70        2952.00           1435         171.00       707.51
   62.73        2952.25           1439         166.00       685.72
   62.76        2952.50           1442         164.00       677.00
   62.80        2952.75           1445         177.00       733.67
   62.83        2953.00           1449         170.00       703.15
   62.86        2953.25           1452         169.00       698.79
   62.90        2953.50           1456         177.00       733.67
   62.93        2953.75           1459         180.00       746.75
   62.96        2954.00           1462         173.00       716.23
   62.99        2954.25           1466         183.00       759.83
   63.03        2954.50           1469         186.00       772.90
   63.06        2954.75           1472         179.00       742.39
   63.09        2955.00           1476         188.00       781.62
   63.12        2955.25           1479         196.00       816.50
   63.16        2955.50           1483         192.00       799.06
   63.19        2955.75           1486         197.00       820.86
   63.22        2956.00           1489         201.00       838.30
   63.26        2956.25           1493         194.00       807.78
   63.29        2956.50           1496         216.00       903.69
   63.32        2956.75           1499         211.00       881.89
   63.35        2957.00           1503         217.00       908.05
   63.39        2957.25           1506         208.00       868.81
   63.42        2957.50           1510         215.00       899.33
   63.45        2957.75           1513         223.00       934.20
   63.48        2958.00           1516         222.00       929.84
   63.52        2958.25           1520         213.00       890.61
   63.55        2958.50           1523         230.00       964.72
   63.58        2958.75           1527         240.00      1008.31
   63.62        2959.00           1530         266.00      1121.66
   63.65        2959.25           1533         268.00      1130.38
   63.68        2959.50           1537         265.00      1117.30
   63.71        2959.75           1540         269.00      1134.74
   63.75        2960.00           1544         277.00      1169.62
   63.78        2960.25           1547         275.00      1160.90
   63.81        2960.50           1550         287.00      1213.21
   63.84        2960.75           1554         340.00      1444.27
   63.88        2961.00           1557         444.00      1897.67
   63.91        2961.25           1560         800.00      3449.80
   63.94        2961.50           1564        2338.00     10157.08
   63.98        2961.75           1567        5299.00     23077.97
   64.01        2962.00           1571       11909.00     51959.39
   64.04        2962.25           1574       17030.00     74370.48
   64.07        2962.50           1577       22278.00     97369.75
   64.11        2962.75           1581       29896.00    130814.10
   64.14        2963.00           1584       35409.00    155060.50
   64.17        2963.25           1588       43374.00    190155.60
   64.21        2963.50           1591       49337.00    216479.70
   64.24        2963.75           1594       54366.00    238714.20
   64.27        2964.00           1598       61897.00    272068.40
   64.30        2964.25           1601       67983.00    299073.40
   64.34        2964.50           1605       74698.00    328922.30
   64.37        2964.75           1608       79850.00    351861.20
   64.40        2965.00           1611       85244.00    375912.80
   64.43        2965.25           1615       92483.00    408247.90
   64.47        2965.50           1618       97750.00    431815.60
   64.50        2965.75           1621      102623.00    453651.20
   64.53        2966.00           1625      110003.00    486777.30
   64.56        2966.25           1628      115225.00    510258.50
   64.60        2966.50           1632      122212.00    541730.10
   64.63        2966.75           1635      124704.00    552969.80
   64.66        2967.00           1638      125138.00    554928.10
   64.70        2967.25           1642      125122.00    554855.90
   64.73        2967.50           1645      124704.00    552969.80
   64.76        2967.75           1649      123692.00    548404.40
   64.79        2968.00           1652      120469.00    533873.30
   64.83        2968.25           1655      115311.00    510645.40
   64.86        2968.50           1659      108701.00    480928.20
   64.89        2968.75           1662      103745.00    458683.00
   64.93        2969.00           1666       96060.00    424249.70
   64.96        2969.25           1669       90992.00    401582.60
   64.99        2969.50           1672       85521.00    377148.90
   65.02        2969.75           1676       78206.00    344537.80
   65.06        2970.00           1679       72573.00    319470.40
   65.09        2970.25           1683       65472.00    287926.00
   65.12        2970.50           1686       60027.00    263779.80
   65.15        2970.75           1689       54321.00    238515.20
   65.19        2971.00           1693       46296.00    203049.60
   65.22        2971.25           1696       40599.00    177919.80
   65.25        2971.50           1700       33369.00    146084.20
   65.29        2971.75           1703       27278.00    119312.80
   65.32        2972.00           1706       21353.00     93313.57
   65.35        2972.25           1710       13613.00     59413.16
   65.38        2972.50           1713        8864.00     38648.28
   65.42        2972.75           1717        3506.00     15252.63
   65.45        2973.00           1720        1153.00      4989.00
   65.48        2973.25           1723         474.00      2028.46
   65.51        2973.50           1727         338.00      1435.55
   65.55        2973.75           1730         307.00      1300.40
   65.58        2974.00           1734         303.00      1282.96
   65.61        2974.25           1737         289.00      1221.93
   65.65        2974.50           1740         281.00      1187.05
   65.68        2974.75           1744         264.00      1112.94
   65.71        2975.00           1747         276.00      1165.26
   65.74        2975.25           1751         265.00      1117.30
   65.78        2975.50           1754         258.00      1086.78
   65.81        2975.75           1757         253.00      1064.99
   65.84        2976.00           1761         247.00      1038.83
   65.87        2976.25           1764         252.00      1060.63
   65.91        2976.50           1768         242.00      1017.03
   65.94        2976.75           1771         226.00       947.28
   65.97        2977.00           1774         218.00       912.41
   66.01        2977.25           1778         205.00       855.73
   66.04        2977.50           1781         206.00       860.09
   66.07        2977.75           1785         228.00       956.00
   66.10        2978.00           1788         216.00       903.69
   66.14        2978.25           1791         200.00       833.94
   66.17        2978.50           1795         206.00       860.09
   66.20        2978.75           1798         197.00       820.86
   66.24        2979.00           1802         180.00       746.75
   66.27        2979.25           1805         197.00       820.86
   66.30        2979.50           1808         194.00       807.78
   66.33        2979.75           1812         178.00       738.03
   66.37        2980.00           1815         184.00       764.19
   66.40        2980.25           1819         187.00       777.26
   66.43        2980.50           1822         180.00       746.75
   66.46        2980.75           1825         179.00       742.39
   66.50        2981.00           1829         184.00       764.19
   66.53        2981.25           1832         170.00       703.15
   66.56        2981.50           1836         172.00       711.87
   66.59        2981.75           1839         179.00       742.39
   66.63        2982.00           1842         164.00       677.00
   66.66        2982.25           1846         162.00       668.28
   66.69        2982.50           1849         168.00       694.44
   66.73        2982.75           1853         158.00       650.84
   66.76        2983.00           1856         166.00       685.72
   66.79        2983.25           1859         165.00       681.36
   66.82        2983.50           1863         159.00       655.20
   66.86        2983.75           1866         153.00       629.04
   66.89        2984.00           1870         158.00       650.84
HS scan finished at 01:07:07
end
************************************************************
  HS Scan of (1) Internal mercury lamp
************************************************************
Integration time is 0.2294 seconds per sample
dh020617Arenosillo 37.1 6.73 3.29pr1000
************************************************************
Dead Time -------------------------  3.1E-08 
Number of Cycles Used -------------  4 
Starting Wavelength (Angstroms) ---  2950 
Final Wavelength (Angstoms) -------  2984 
Wavelength Increment (Angstroms) --  .25 
Filter Wheel #1 Position ---------- (1) Ground quartz diffuser (ND=2.32)
Filter Wheel #2 Position ---------- (1) Neutral Density 0.494



************************************************************
HS scan start time = 02:04:15
Dark Count =  10.1 


Time (GMT)  Wavelength (Ang)  Step Number  Raw Counts  Counts/Second

  124.98        2950.00           1408         174.00       714.49
  125.12        2950.25           1412         157.00       640.38
  125.15        2950.50           1415         165.00       675.25
  125.18        2950.75           1418         161.00       657.82
  125.21        2951.00           1422         178.00       731.93
  125.25        2951.25           1425         175.00       718.85
  125.28        2951.50           1428         166.00       679.61
  125.31        2951.75           1432         171.00       701.41
  125.35        2952.00           1435         175.00       718.85
  125.38        2952.25           1439         170.00       697.05
  125.41        2952.50           1442         178.00       731.93
  125.44        2952.75           1445         189.00       779.88
  125.48        2953.00           1449         169.00       692.69
  125.51        2953.25           1452         186.00       766.80
  125.54        2953.50           1456         184.00       758.08
  125.57        2953.75           1459         183.00       753.72
  125.61        2954.00           1462         183.00       753.72
  125.64        2954.25           1466         200.00       827.83
  125.67        2954.50           1469         181.00       745.00
  125.70        2954.75           1472         191.00       788.60
  125.74        2955.00           1476         187.00       771.16
  125.77        2955.25           1479         208.00       862.71
  125.80        2955.50           1483         209.00       867.07
  125.84        2955.75           1486         202.00       836.55
  125.87        2956.00           1489         208.00       862.71
  125.90        2956.25           1493         210.00       871.43
  125.93        2956.50           1496         226.00       941.18
  125.97        2956.75           1499         215.00       893.22
  126.00        2957.00           1503         234.00       976.05
  126.03        2957.25           1506         230.00       958.62
  126.06        2957.50           1510         245.00      1024.01
  126.10        2957.75           1513         277.00      1163.51
  126.13        2958.00           1516         249.00      1041.45
  126.16        2958.25           1520         262.00      1098.12
  126.20        2958.50           1523         263.00      1102.48
  126.23        2958.75           1527         259.00      1085.04
  126.26        2959.00           1530         302.00      1272.50
  126.29        2959.25           1533         259.00      1085.04
  126.33        2959.50           1537         291.00      1224.55
  126.36        2959.75           1540         290.00      1220.19
  126.39        2960.00           1544         299.00      1259.42
  126.43        2960.25           1547         303.00      1276.86
  126.46        2960.50           1550         313.00      1320.46
  126.49        2960.75           1554         405.00      1721.54
  126.52        2961.00           1557         536.00      2292.67
  126.56        2961.25           1560         981.00      4232.90
  126.59        2961.50           1564        2754.00     11965.64
  126.62        2961.75           1567        6231.00     27140.96
  126.66        2962.00           1571       13823.00     60325.88
  126.69        2962.25           1574       19639.00     85794.14
  126.72        2962.50           1577       26085.00    114068.30
  126.75        2962.75           1581       34278.00    150077.20
  126.79        2963.00           1584       40633.00    178063.50
  126.82        2963.25           1588       48979.00    214891.90
  126.85        2963.50           1591       55225.00    242509.00
  126.89        2963.75           1594       61142.00    268715.20
  126.92        2964.00           1598       69339.00    305090.30
  126.95        2964.25           1601       75970.00    334576.50
  126.98        2964.50           1605       83917.00    369986.10
  127.02        2964.75           1608       89873.00    396575.80
  127.05        2965.00           1611       96771.00    427426.00
  127.08        2965.25           1615      103832.00    459067.00
  127.11        2965.50           1618      111424.00    493157.20
  127.15        2965.75           1621      117639.00    521118.60
  127.18        2966.00           1625      125722.00    557557.20
  127.21        2966.25           1628      130998.00    581386.60
  127.25        2966.50           1632      137868.00    612468.90
  127.28        2966.75           1635      140403.00    623953.30
  127.31        2967.00           1638      139986.00    622063.60
  127.34        2967.25           1642      141352.00    628254.80
  127.38        2967.50           1645      139573.00    620192.30
  127.41        2967.75           1649      138324.00    614534.10
  127.44        2968.00           1652      135289.00    600793.50
  127.48        2968.25           1655      128376.00    569539.80
  127.51        2968.50           1659      122095.00    541196.30
  127.54        2968.75           1662      115067.00    509541.20
  127.57        2969.00           1666      108499.00    480014.60
  127.61        2969.25           1669      101465.00    448453.30
  127.64        2969.50           1672       95349.00    421061.50
  127.67        2969.75           1676       86379.00    380972.00
  127.70        2970.00           1679       80566.00    355045.50
  127.74        2970.25           1683       72531.00    319277.50
  127.77        2970.50           1686       66083.00    290631.50
  127.80        2970.75           1689       59690.00    262280.40
  127.83        2971.00           1693       48626.00    213332.50
  127.87        2971.25           1696       41846.00    183410.80
  127.90        2971.50           1700       34368.00    150473.20
  127.93        2971.75           1703       27658.00    120975.50
  127.97        2972.00           1706       22265.00     97306.59
  128.00        2972.25           1710       15005.00     65498.60
  128.03        2972.50           1713        9390.00     40940.77
  128.06        2972.75           1717        3450.00     15002.18
  128.10        2973.00           1720        1213.00      5244.53
  128.13        2973.25           1723         485.00      2070.32
  128.16        2973.50           1727         361.00      1529.72
  128.20        2973.75           1730         338.00      1429.44
  128.23        2974.00           1734         334.00      1412.01
  128.26        2974.25           1737         309.00      1303.02
  128.29        2974.50           1740         300.00      1263.78
  128.33        2974.75           1744         270.00      1133.00
  128.36        2975.00           1747         284.00      1194.03
  128.39        2975.25           1751         275.00      1154.79
  128.42        2975.50           1754         268.00      1124.28
  128.46        2975.75           1757         271.00      1137.35
  128.49        2976.00           1761         264.00      1106.84
  128.52        2976.25           1764         250.00      1045.81
  128.56        2976.50           1768         230.00       958.62
  128.59        2976.75           1771         255.00      1067.60
  128.62        2977.00           1774         248.00      1037.09
  128.65        2977.25           1778         235.00       980.41
  128.69        2977.50           1781         219.00       910.66
  128.72        2977.75           1785         232.00       967.34
  128.75        2978.00           1788         210.00       871.43
  128.79        2978.25           1791         210.00       871.43
  128.82        2978.50           1795         204.00       845.27
  128.85        2978.75           1798         215.00       893.22
  128.88        2979.00           1802         206.00       853.99
  128.92        2979.25           1805         208.00       862.71
  128.95        2979.50           1808         205.00       849.63
  128.98        2979.75           1812         203.00       840.91
  129.02        2980.00           1815         186.00       766.80
  129.05        2980.25           1819         204.00       845.27
  129.08        2980.50           1822         193.00       797.32
  129.11        2980.75           1825         191.00       788.60
  129.15        2981.00           1829         178.00       731.93
  129.18        2981.25           1832         187.00       771.16
  129.21        2981.50           1836         180.00       740.64
  129.24        2981.75           1839         177.00       727.57
  129.28        2982.00           1842         190.00       784.24
  129.31        2982.25           1846         180.00       740.64
