************************************************************
  HS Scan of (1) Internal mercury lamp
************************************************************
Integration time is 0.2294 seconds per sample
dh030617ElArenosillo 37.1 6.73 3.018777pr1000
************************************************************
Dead Time -------------------------  2.7E-08 
Number of Cycles Used -------------  4 
Starting Wavelength (Angstroms) ---  2950 
Final Wavelength (Angstoms) -------  2984 
Wavelength Increment (Angstroms) --  .25 
Filter Wheel #1 Position ---------- (1) Ground quartz diffuser (ND=2.32)
Filter Wheel #2 Position ---------- (1) Neutral Density 0.494



************************************************************
HS scan start time = 01:55:59
Dark Count =  .3 


Time (GMT)  Wavelength (Ang)  Step Number  Raw Counts  Counts/Second

  116.59        2950.00           1223          93.00       404.10
  116.77        2950.25           1226          90.00       391.02
  116.80        2950.50           1229          84.00       364.87
  116.83        2950.75           1233          77.00       334.35
  116.86        2951.00           1236          81.00       351.79
  116.89        2951.25           1239          83.00       360.51
  116.92        2951.50           1243          84.00       364.87
  116.95        2951.75           1246          74.00       321.28
  116.98        2952.00           1249          75.00       325.63
  117.01        2952.25           1253          77.00       334.35
  117.04        2952.50           1256          74.00       321.28
  117.08        2952.75           1259          80.00       347.43
  117.11        2953.00           1263          85.00       369.23
  117.14        2953.25           1266          82.00       356.15
  117.17        2953.50           1269          81.00       351.79
  117.20        2953.75           1273          72.00       312.56
  117.23        2954.00           1276          71.00       308.20
  117.26        2954.25           1279          83.00       360.51
  117.29        2954.50           1283          74.00       321.28
  117.32        2954.75           1286          87.00       377.95
  117.35        2955.00           1289          79.00       343.07
  117.38        2955.25           1293          81.00       351.79
  117.41        2955.50           1296          81.00       351.79
  117.45        2955.75           1299          81.00       351.79
  117.48        2956.00           1303          84.00       364.87
  117.51        2956.25           1306          68.00       295.12
  117.54        2956.50           1309          78.00       338.71
  117.57        2956.75           1313          79.00       343.07
  117.60        2957.00           1316          79.00       343.07
  117.63        2957.25           1319          78.00       338.71
  117.66        2957.50           1323          83.00       360.51
  117.69        2957.75           1326          88.00       382.31
  117.72        2958.00           1329          74.00       321.28
  117.75        2958.25           1333          72.00       312.56
  117.79        2958.50           1336          77.00       334.35
  117.82        2958.75           1339          74.00       321.28
  117.85        2959.00           1343          81.00       351.79
  117.88        2959.25           1346          81.00       351.79
  117.91        2959.50           1349          82.00       356.15
  117.94        2959.75           1353          77.00       334.35
  117.97        2960.00           1356          79.00       343.07
  118.00        2960.25           1359          86.00       373.59
  118.03        2960.50           1363          86.00       373.59
  118.06        2960.75           1366         101.00       438.98
  118.09        2961.00           1369         100.00       434.62
  118.12        2961.25           1373         131.00       569.76
  118.15        2961.50           1376         468.00      2038.91
  118.18        2961.75           1379        2002.00      8727.86
  118.22        2962.00           1383        5427.00     23671.18
  118.25        2962.25           1386        8881.00     38753.26
  118.28        2962.50           1389       12614.00     55067.44
  118.31        2962.75           1393       18270.00     79813.05
  118.34        2963.00           1396       22503.00     98354.56
  118.37        2963.25           1400       28379.00    124123.70
  118.40        2963.50           1403       32663.00    142933.70
  118.43        2963.75           1406       37095.00    162413.80
  118.46        2964.00           1410       42852.00    187748.40
  118.50        2964.25           1413       47408.00    207822.40
  118.53        2964.50           1416       51847.00    227402.00
  118.56        2964.75           1420       57562.00    252640.30
  118.59        2965.00           1423       61716.00    271006.70
  118.62        2965.25           1426       65796.00    289063.80
  118.65        2965.50           1430       71519.00    314422.10
  118.68        2965.75           1433       75760.00    333236.40
  118.71        2966.00           1436       79643.00    350479.30
  118.74        2966.25           1440       84709.00    372999.60
  118.77        2966.50           1443       87636.00    386023.90
  118.80        2966.75           1446       88913.00    391709.00
  118.84        2967.00           1450       89840.00    395837.10
  118.87        2967.25           1453       90078.00    396897.10
  118.90        2967.50           1456       90103.00    397008.50
  118.93        2967.75           1460       90442.00    398518.40
  118.96        2968.00           1463       89858.00    395917.30
  118.99        2968.25           1466       87935.00    387354.90
  119.02        2968.50           1470       84298.00    371171.50
  119.05        2968.75           1473       80902.00    356073.40
  119.08        2969.00           1476       77138.00    339353.70
  119.11        2969.25           1480       71665.00    315069.50
  119.14        2969.50           1483       67661.00    297323.70
  119.18        2969.75           1487       61966.00    272112.60
  119.21        2970.00           1490       57835.00    253846.80
  119.24        2970.25           1493       53313.00    233872.80
  119.27        2970.50           1497       47540.00    208404.40
  119.30        2970.75           1500       43197.00    189267.70
  119.33        2971.00           1503       38718.00    169552.50
  119.36        2971.25           1507       33042.00    144598.80
  119.39        2971.50           1510       28504.00    124672.20
  119.42        2971.75           1513       23994.00    104889.90
  119.45        2972.00           1517       18564.00     81100.24
  119.49        2972.25           1520       13956.00     60935.84
  119.52        2972.50           1523        9650.00     42112.82
  119.55        2972.75           1527        4241.00     18495.29
  119.58        2973.00           1530        1954.00      8518.52
  119.61        2973.25           1533         808.00      3521.26
  119.64        2973.50           1537         233.00      1014.41
  119.67        2973.75           1540         140.00       608.99
  119.70        2974.00           1544          99.00       430.26
  119.73        2974.25           1547          94.00       408.46
  119.77        2974.50           1550          88.00       382.31
  119.80        2974.75           1554          79.00       343.07
  119.83        2975.00           1557          81.00       351.79
  119.86        2975.25           1560          69.00       299.48
  119.89        2975.50           1564          69.00       299.48
  119.92        2975.75           1567          64.00       277.68
  119.95        2976.00           1570          73.00       316.92
  119.98        2976.25           1574          74.00       321.28
  120.01        2976.50           1577          77.00       334.35
  120.04        2976.75           1580          73.00       316.92
  120.07        2977.00           1584          78.00       338.71
  120.10        2977.25           1587          73.00       316.92
  120.13        2977.50           1591          72.00       312.56
  120.17        2977.75           1594          74.00       321.28
  120.20        2978.00           1597          71.00       308.20
  120.23        2978.25           1601          73.00       316.92
  120.26        2978.50           1604          74.00       321.28
  120.29        2978.75           1607          80.00       347.43
  120.32        2979.00           1611          71.00       308.20
  120.35        2979.25           1614          70.00       303.84
  120.38        2979.50           1617          74.00       321.28
  120.41        2979.75           1621          64.00       277.68
  120.44        2980.00           1624          71.00       308.20
  120.47        2980.25           1628          67.00       290.76
  120.50        2980.50           1631          73.00       316.92
  120.54        2980.75           1634          75.00       325.63
  120.57        2981.00           1638          71.00       308.20
  120.60        2981.25           1641          66.00       286.40
  120.63        2981.50           1644          71.00       308.20
  120.66        2981.75           1648          61.00       264.61
  120.69        2982.00           1651          71.00       308.20
  120.72        2982.25           1654          66.00       286.40
  120.75        2982.50           1658          65.00       282.04
  120.78        2982.75           1661          71.00       308.20
  120.81        2983.00           1665          71.00       308.20
  120.84        2983.25           1668          67.00       290.76
  120.88        2983.50           1671          69.00       299.48
  120.90        2983.75           1675          60.00       260.25
  120.94        2984.00           1678          62.00       268.96
HS scan finished at 02:01:15
end
