************************************************************
  HS Scan of (1) Internal mercury lamp
************************************************************
Integration time is 0.2294 seconds per sample
dh210417Madrid 40.45 3.17 2.750537pr940
************************************************************
Dead Time -------------------------  2.6E-08 
Number of Cycles Used -------------  4 
Starting Wavelength (Angstroms) ---  2950 
Final Wavelength (Angstoms) -------  2984 
Wavelength Increment (Angstroms) --  .25 
Filter Wheel #1 Position ---------- (1) Ground quartz diffuser (ND=2.32)
Filter Wheel #2 Position ---------- (1) Neutral Density 0.494



************************************************************
HS scan start time = 00:58:46
Dark Count =  3.3 


Time (GMT)  Wavelength (Ang)  Step Number  Raw Counts  Counts/Second

   59.12        2950.00           1237          76.00       316.92
   59.18        2950.25           1240          76.00       316.92
   59.21        2950.50           1244          83.00       347.43
   59.24        2950.75           1247          80.00       334.35
   59.27        2951.00           1250          93.00       391.02
   59.30        2951.25           1254          80.00       334.35
   59.33        2951.50           1257          85.00       356.15
   59.35        2951.75           1260          84.00       351.79
   59.38        2952.00           1264          81.00       338.71
   59.41        2952.25           1267          88.00       369.23
   59.44        2952.50           1270          85.00       356.15
   59.47        2952.75           1273          87.00       364.87
   59.49        2953.00           1277          85.00       356.15
   59.52        2953.25           1280          87.00       364.87
   59.55        2953.50           1283          94.00       395.38
   59.58        2953.75           1287          99.00       417.18
   59.61        2954.00           1290          86.00       360.51
   59.63        2954.25           1293          89.00       373.59
   59.66        2954.50           1297          93.00       391.02
   59.69        2954.75           1300          94.00       395.38
   59.72        2955.00           1303          98.00       412.82
   59.75        2955.25           1307          90.00       377.95
   59.77        2955.50           1310          94.00       395.38
   59.80        2955.75           1313          99.00       417.18
   59.83        2956.00           1317          97.00       408.46
   59.86        2956.25           1320         109.00       460.77
   59.89        2956.50           1323         100.00       421.54
   59.91        2956.75           1326         101.00       425.90
   59.94        2957.00           1330         105.00       443.34
   59.97        2957.25           1333         115.00       486.93
   60.00        2957.50           1336         129.00       547.96
   60.03        2957.75           1340         130.00       552.32
   60.05        2958.00           1343         117.00       495.65
   60.08        2958.25           1346         126.00       534.88
   60.11        2958.50           1350         137.00       582.83
   60.14        2958.75           1353         141.00       600.27
   60.17        2959.00           1356         151.00       643.86
   60.19        2959.25           1360         175.00       748.49
   60.22        2959.50           1363         274.00      1180.07
   60.25        2959.75           1366         404.00      1746.81
   60.28        2960.00           1370         559.00      2422.56
   60.31        2960.25           1373         755.00      3277.09
   60.33        2960.50           1376         935.00      4061.89
   60.36        2960.75           1380        1106.00      4807.49
   60.39        2961.00           1383        1340.00      5827.82
   60.42        2961.25           1386        1681.00      7314.82
   60.45        2961.50           1390        3750.00     16339.55
   60.47        2961.75           1393        7801.00     34021.80
   60.50        2962.00           1396       13123.00     57276.61
   60.53        2962.25           1399       18900.00     82551.45
   60.56        2962.50           1403       27304.00    119379.10
   60.59        2962.75           1406       33374.00    146022.80
   60.61        2963.00           1409       39577.00    173288.60
   60.64        2963.25           1413       47897.00    209920.80
   60.67        2963.50           1416       53985.00    236770.00
   60.70        2963.75           1419       59289.00    260192.40
   60.73        2964.00           1423       66587.00    292467.10
   60.75        2964.25           1426       72038.00    316609.10
   60.78        2964.50           1429       77625.00    341385.10
   60.81        2964.75           1433       85820.00    377784.60
   60.84        2965.00           1436       91455.00    402853.70
   60.87        2965.25           1439       96975.00    427443.00
   60.90        2965.50           1443      103871.00    458206.30
   60.92        2965.75           1446      109529.00    483483.90
   60.95        2966.00           1449      114829.00    507192.40
   60.98        2966.25           1453      121804.00    538438.60
   61.01        2966.50           1456      126883.00    561223.50
   61.04        2966.75           1459      128861.00    570104.50
   61.06        2967.00           1463      129310.00    572120.90
   61.09        2967.25           1466      129455.00    572772.30
   61.12        2967.50           1469      129239.00    571802.00
   61.15        2967.75           1473      126627.00    560074.50
   61.18        2968.00           1476      123821.00    547483.90
   61.20        2968.25           1479      118887.00    525365.00
   61.23        2968.50           1483      111115.00    490575.50
   61.26        2968.75           1486      104736.00    462068.60
   61.29        2969.00           1489       98140.00    432636.60
   61.32        2969.25           1493       89995.00    396355.30
   61.34        2969.50           1496       83794.00    368779.40
   61.37        2969.75           1499       77605.00    341296.40
   61.40        2970.00           1502       71633.00    314814.40
   61.43        2970.25           1506       62601.00    274832.70
   61.46        2970.50           1509       55844.00    244976.10
   61.49        2970.75           1512       49889.00    218701.70
   61.51        2971.00           1516       42527.00    186269.20
   61.54        2971.25           1519       36224.00    158545.40
   61.57        2971.50           1522       30694.00    134254.70
   61.60        2971.75           1526       22844.00     99825.90
   61.63        2972.00           1529       16554.00     72283.50
   61.65        2972.25           1532       10362.00     45208.74
   61.68        2972.50           1536        4430.00     19306.55
   61.71        2972.75           1539        2304.00     10031.82
   61.74        2973.00           1542        1533.00      6669.42
   61.77        2973.25           1546        1239.00      5387.42
   61.79        2973.50           1549        1019.00      4428.15
   61.82        2973.75           1552         859.00      3730.53
   61.85        2974.00           1556         673.00      2919.58
   61.88        2974.25           1559         459.00      1986.59
   61.91        2974.50           1562         326.00      1406.76
   61.93        2974.75           1566         228.00       979.54
   61.96        2975.00           1569         160.00       683.10
   61.99        2975.25           1572         157.00       670.02
   62.02        2975.50           1576         138.00       587.19
   62.05        2975.75           1579         136.00       578.47
   62.07        2976.00           1582         137.00       582.83
   62.10        2976.25           1586         119.00       504.37
   62.13        2976.50           1589         119.00       504.37
   62.16        2976.75           1592         114.00       482.57
   62.19        2977.00           1596         116.00       491.29
   62.21        2977.25           1599         105.00       443.34
   62.24        2977.50           1602         103.00       434.62
   62.27        2977.75           1606         105.00       443.34
   62.30        2978.00           1609          91.00       382.31
   62.33        2978.25           1612          96.00       404.10
   62.35        2978.50           1616          99.00       417.18
   62.38        2978.75           1619          94.00       395.38
   62.41        2979.00           1622          93.00       391.02
   62.44        2979.25           1626          93.00       391.02
   62.47        2979.50           1629          80.00       334.35
   62.49        2979.75           1632          78.00       325.63
   62.52        2980.00           1636          92.00       386.66
   62.55        2980.25           1639          81.00       338.71
   62.58        2980.50           1642          75.00       312.56
   62.61        2980.75           1646          86.00       360.51
   62.63        2981.00           1649          78.00       325.63
   62.66        2981.25           1652          82.00       343.07
   62.69        2981.50           1656          88.00       369.23
   62.72        2981.75           1659          78.00       325.63
   62.75        2982.00           1662          82.00       343.07
   62.77        2982.25           1666          77.00       321.28
   62.80        2982.50           1669          85.00       356.15
   62.83        2982.75           1672          85.00       356.15
   62.86        2983.00           1676          78.00       325.63
   62.89        2983.25           1679          76.00       316.92
   62.91        2983.50           1682          74.00       308.20
   62.94        2983.75           1686          75.00       312.56
   62.97        2984.00           1689          73.00       303.84
HS scan finished at 01:03:09
end
