************************************************************
  HS Scan of (1) Internal mercury lamp
************************************************************
Integration time is 0.2294 seconds per sample
dh210619El Arenosillo 37.1 6.73 2.911481pr1000
************************************************************
Dead Time -------------------------  2.8E-08 
Number of Cycles Used -------------  4 
Starting Wavelength (Angstroms) ---  2950 
Final Wavelength (Angstoms) -------  2984 
Wavelength Increment (Angstroms) --  .25 
Filter Wheel #1 Position ---------- (1) Ground quartz diffuser (ND=2.32)
Filter Wheel #2 Position ---------- (1) Neutral Density 0.494



************************************************************
HS scan start time = 03:01:32
Dark Count =  5.6 


Time (GMT)  Wavelength (Ang)  Step Number  Raw Counts  Counts/Second

  181.90        2950.00           1238          46.00       176.11
  181.97        2950.25           1242          42.00       158.68
  182.00        2950.50           1245          43.00       163.03
  182.03        2950.75           1248          42.00       158.68
  182.06        2951.00           1252          48.00       184.83
  182.09        2951.25           1255          35.00       128.16
  182.12        2951.50           1258          45.00       171.75
  182.15        2951.75           1261          48.00       184.83
  182.18        2952.00           1265          49.00       189.19
  182.21        2952.25           1268          43.00       163.03
  182.24        2952.50           1271          39.00       145.60
  182.27        2952.75           1275          42.00       158.68
  182.30        2953.00           1278          46.00       176.11
  182.33        2953.25           1281          41.00       154.32
  182.36        2953.50           1285          38.00       141.24
  182.39        2953.75           1288          46.00       176.11
  182.42        2954.00           1291          38.00       141.24
  182.45        2954.25           1295          46.00       176.11
  182.48        2954.50           1298          43.00       163.03
  182.51        2954.75           1301          45.00       171.75
  182.54        2955.00           1304          38.00       141.24
  182.57        2955.25           1308          46.00       176.11
  182.60        2955.50           1311          46.00       176.11
  182.63        2955.75           1314          44.00       167.39
  182.66        2956.00           1318          42.00       158.68
  182.69        2956.25           1321          43.00       163.03
  182.72        2956.50           1324          47.00       180.47
  182.75        2956.75           1328          42.00       158.68
  182.79        2957.00           1331          42.00       158.68
  182.81        2957.25           1334          48.00       184.83
  182.84        2957.50           1338          50.00       193.55
  182.87        2957.75           1341          43.00       163.03
  182.91        2958.00           1344          47.00       180.47
  182.94        2958.25           1347          47.00       180.47
  182.97        2958.50           1351          46.00       176.11
  183.00        2958.75           1354          48.00       184.83
  183.03        2959.00           1357          48.00       184.83
  183.06        2959.25           1361          53.00       206.63
  183.09        2959.50           1364          54.00       210.99
  183.12        2959.75           1367          57.00       224.06
  183.15        2960.00           1371          75.00       302.53
  183.18        2960.25           1374          82.00       333.05
  183.21        2960.50           1377          94.00       385.36
  183.24        2960.75           1381         170.00       716.67
  183.27        2961.00           1384         372.00      1597.28
  183.30        2961.25           1387         854.00      3698.73
  183.33        2961.50           1390        1552.00      6742.34
  183.36        2961.75           1394        2858.00     12438.51
  183.39        2962.00           1397        4032.00     17560.51
  183.42        2962.25           1400        5542.00     24150.59
  183.45        2962.50           1404        7696.00     33555.49
  183.48        2962.75           1407        9316.00     40632.08
  183.51        2963.00           1410       10963.00     47829.49
  183.54        2963.25           1414       13120.00     57260.00
  183.57        2963.50           1417       14797.00     64595.37
  183.61        2963.75           1420       16390.00     71566.10
  183.64        2964.00           1424       18587.00     81184.33
  183.67        2964.25           1427       20368.00     88985.18
  183.70        2964.50           1430       22272.00     97328.53
  183.73        2964.75           1434       24399.00    106653.70
  183.76        2965.00           1437       26142.00    114299.00
  183.79        2965.25           1440       28100.00    122891.20
  183.82        2965.50           1444       30411.00    133037.80
  183.85        2965.75           1447       32205.00    140918.50
  183.88        2966.00           1450       33531.00    146745.60
  183.91        2966.25           1453       34759.00    152143.70
  183.94        2966.50           1457       35974.00    157486.30
  183.97        2966.75           1460       36447.00    159566.60
  184.00        2967.00           1463       36578.00    160142.80
  184.03        2967.25           1467       36736.00    160837.80
  184.06        2967.50           1470       36511.00    159848.10
  184.09        2967.75           1473       35737.00    156444.00
  184.12        2968.00           1477       34603.00    151457.90
  184.16        2968.25           1480       33207.00    145321.60
  184.19        2968.50           1483       31727.00    138818.40
  184.22        2968.75           1487       29465.00    128883.60
  184.25        2969.00           1490       27812.00    121627.10
  184.28        2969.25           1493       26109.00    114154.20
  184.31        2969.50           1497       23912.00    104518.20
  184.34        2969.75           1500       22345.00     97648.49
  184.37        2970.00           1503       20766.00     90728.90
  184.40        2970.25           1507       18522.00     80899.70
  184.43        2970.50           1510       16893.00     73767.74
  184.46        2970.75           1513       15163.00     66196.70
  184.49        2971.00           1517       13205.00     57631.73
  184.52        2971.25           1520       11512.00     50229.28
  184.55        2971.50           1523        9810.00     42790.57
  184.58        2971.75           1526        8107.00     35350.58
  184.62        2972.00           1530        5932.00     25853.06
  184.65        2972.25           1533        4281.00     18647.05
  184.68        2972.50           1536        3011.00     13105.94
  184.71        2972.75           1540        1637.00      7113.01
  184.74        2973.00           1543         966.00      4187.07
  184.77        2973.25           1546         535.00      2307.91
  184.80        2973.50           1550         234.00       995.67
  184.83        2973.75           1553         117.00       485.62
  184.86        2974.00           1556          76.00       306.89
  184.89        2974.25           1560          54.00       210.99
  184.92        2974.50           1563          55.00       215.35
  184.95        2974.75           1566          50.00       193.55
  184.98        2975.00           1570          46.00       176.11
  185.02        2975.25           1573          42.00       158.68
  185.05        2975.50           1576          43.00       163.03
  185.08        2975.75           1580          41.00       154.32
  185.11        2976.00           1583          47.00       180.47
  185.14        2976.25           1586          45.00       171.75
  185.17        2976.50           1590          36.00       132.52
  185.20        2976.75           1593          46.00       176.11
  185.23        2977.00           1596          39.00       145.60
  185.26        2977.25           1600          46.00       176.11
  185.29        2977.50           1603          43.00       163.03
  185.32        2977.75           1606          45.00       171.75
  185.35        2978.00           1610          48.00       184.83
  185.38        2978.25           1613          52.00       202.27
  185.41        2978.50           1616          40.00       149.96
  185.44        2978.75           1620          44.00       167.39
  185.47        2979.00           1623          43.00       163.03
  185.50        2979.25           1626          47.00       180.47
  185.53        2979.50           1630          41.00       154.32
  185.56        2979.75           1633          43.00       163.03
  185.59        2980.00           1636          43.00       163.03
  185.62        2980.25           1640          46.00       176.11
  185.65        2980.50           1643          48.00       184.83
  185.68        2980.75           1646          36.00       132.52
  185.71        2981.00           1650          37.00       136.88
  185.74        2981.25           1653          39.00       145.60
  185.77        2981.50           1656          45.00       171.75
  185.80        2981.75           1660          47.00       180.47
  185.83        2982.00           1663          40.00       149.96
  185.87        2982.25           1666          41.00       154.32
  185.90        2982.50           1670          40.00       149.96
  185.93        2982.75           1673          46.00       176.11
  185.96        2983.00           1676          43.00       163.03
  185.99        2983.25           1680          46.00       176.11
  186.02        2983.50           1683          36.00       132.52
  186.05        2983.75           1686          36.00       132.52
  186.08        2984.00           1690          39.00       145.60
HS scan finished at 03:06:17
end
