************************************************************
  HS Scan of (1) Internal mercury lamp
************************************************************
Integration time is 0.2294 seconds per sample
dh030217El Arenosillo 37.1 6.73 2.6pr1000
************************************************************
Dead Time -------------------------  3.2E-08 
Number of Cycles Used -------------  4 
Starting Wavelength (Angstroms) ---  2950 
Final Wavelength (Angstoms) -------  2984 
Wavelength Increment (Angstroms) --  .25 
Filter Wheel #1 Position ---------- (1) Ground quartz diffuser (ND=2.32)
Filter Wheel #2 Position ---------- (1) Neutral Density 0.494



************************************************************
HS scan start time = 01:36:33
Dark Count =  .3 


Time (GMT)  Wavelength (Ang)  Step Number  Raw Counts  Counts/Second

   97.20        2950.00           1211          49.00       212.29
   97.41        2950.25           1215          50.00       216.65
   97.43        2950.50           1218          42.00       181.78
   97.46        2950.75           1222          41.00       177.42
   97.49        2951.00           1225          37.00       159.98
   97.52        2951.25           1228          46.00       199.22
   97.55        2951.50           1232          42.00       181.78
   97.58        2951.75           1235          41.00       177.42
   97.61        2952.00           1238          47.00       203.58
   97.63        2952.25           1242          41.00       177.42
   97.66        2952.50           1245          45.00       194.86
   97.69        2952.75           1249          44.00       190.50
   97.72        2953.00           1252          48.00       207.94
   97.75        2953.25           1255          46.00       199.22
   97.78        2953.50           1259          45.00       194.86
   97.81        2953.75           1262          45.00       194.86
   97.84        2954.00           1265          44.00       190.50
   97.86        2954.25           1269          50.00       216.65
   97.89        2954.50           1272          41.00       177.42
   97.92        2954.75           1276          40.00       173.06
   97.95        2955.00           1279          40.00       173.06
   97.98        2955.25           1282          48.00       207.94
   98.00        2955.50           1286          45.00       194.86
   98.03        2955.75           1289          48.00       207.94
   98.06        2956.00           1293          48.00       207.94
   98.09        2956.25           1296          47.00       203.58
   98.12        2956.50           1299          44.00       190.50
   98.15        2956.75           1303          46.00       199.22
   98.18        2957.00           1306          46.00       199.22
   98.20        2957.25           1309          45.00       194.86
   98.23        2957.50           1313          43.00       186.14
   98.26        2957.75           1316          38.00       164.34
   98.29        2958.00           1320          45.00       194.86
   98.32        2958.25           1323          42.00       181.78
   98.34        2958.50           1326          43.00       186.14
   98.37        2958.75           1330          48.00       207.94
   98.41        2959.00           1333          56.00       242.81
   98.43        2959.25           1336          55.00       238.45
   98.46        2959.50           1340          55.00       238.45
   98.49        2959.75           1343          67.00       290.76
   98.52        2960.00           1347          79.00       343.07
   98.55        2960.25           1350          81.00       351.79
   98.57        2960.50           1353          91.00       395.38
   98.60        2960.75           1357         119.00       517.45
   98.63        2961.00           1360         157.00       683.10
   98.66        2961.25           1364         209.00       909.79
   98.69        2961.50           1367         678.00      2954.51
   98.72        2961.75           1370        1893.00      8252.83
   98.75        2962.00           1374        4773.00     20819.01
   98.77        2962.25           1377        7352.00     32080.43
   98.80        2962.50           1380       10440.00     45575.14
   98.83        2962.75           1384       14388.00     62845.10
   98.86        2963.00           1387       17240.00     75332.65
   98.89        2963.25           1391       20805.00     90956.15
   98.91        2963.50           1394       23800.00    104093.80
   98.94        2963.75           1397       26948.00    117914.40
   98.98        2964.00           1401       30860.00    135106.40
   99.00        2964.25           1404       33533.00    146864.30
   99.03        2964.50           1408       37370.00    163757.80
   99.06        2964.75           1411       40417.00    177186.20
   99.09        2965.00           1414       43402.00    190352.60
   99.12        2965.25           1418       47545.00    208645.20
   99.15        2965.50           1421       50350.00    221042.30
   99.18        2965.75           1424       53439.00    234706.10
   99.21        2966.00           1428       57640.00    253307.80
   99.23        2966.25           1431       60268.00    264955.80
   99.26        2966.50           1435       62871.00    276501.50
   99.29        2966.75           1438       63893.00    281037.00
   99.32        2967.00           1441       64104.00    281973.60
   99.35        2967.25           1445       64202.00    282408.60
   99.38        2967.50           1448       64304.00    282861.40
   99.41        2967.75           1452       63554.00    279532.50
   99.44        2968.00           1455       61868.00    272051.70
   99.46        2968.25           1458       59580.00    261905.60
   99.49        2968.50           1462       56021.00    246136.40
   99.52        2968.75           1465       53186.00    233586.50
   99.55        2969.00           1469       49657.00    217978.60
   99.58        2969.25           1472       46764.00    205195.20
   99.60        2969.50           1475       43825.00    192219.30
   99.63        2969.75           1479       40126.00    175903.20
   99.67        2970.00           1482       37433.00    164035.40
   99.69        2970.25           1485       34493.00    151089.20
   99.72        2970.50           1489       30706.00    134429.30
   99.75        2970.75           1492       28129.00    123102.60
   99.78        2971.00           1496       24337.00    106450.50
   99.81        2971.25           1499       21337.00     93288.97
   99.83        2971.50           1502       18351.00     80199.90
   99.86        2971.75           1506       14299.00     62455.57
   99.89        2972.00           1509       11247.00     49103.70
   99.92        2972.25           1513        7371.00     32163.43
   99.95        2972.50           1516        4580.00     19976.59
   99.98        2972.75           1519        2188.00      9539.53
  100.01        2973.00           1523         479.00      2086.89
  100.04        2973.25           1526         177.00       770.29
  100.06        2973.50           1530         100.00       434.62
  100.09        2973.75           1533          81.00       351.79
  100.12        2974.00           1536          68.00       295.12
  100.15        2974.25           1540          66.00       286.40
  100.17        2974.50           1543          59.00       255.89
  100.20        2974.75           1547          52.00       225.37
  100.23        2975.00           1550          49.00       212.29
  100.25        2975.25           1553          45.00       194.86
  100.28        2975.50           1557          52.00       225.37
  100.31        2975.75           1560          51.00       221.01
  100.34        2976.00           1564          56.00       242.81
  100.37        2976.25           1567          49.00       212.29
  100.39        2976.50           1570          44.00       190.50
  100.43        2976.75           1574          50.00       216.65
  100.45        2977.00           1577          48.00       207.94
  100.48        2977.25           1581          48.00       207.94
  100.51        2977.50           1584          47.00       203.58
  100.54        2977.75           1587          47.00       203.58
  100.57        2978.00           1591          49.00       212.29
  100.59        2978.25           1594          49.00       212.29
  100.62        2978.50           1598          47.00       203.58
  100.66        2978.75           1601          50.00       216.65
  100.68        2979.00           1604          43.00       186.14
  100.71        2979.25           1608          46.00       199.22
  100.73        2979.50           1611          49.00       212.29
  100.77        2979.75           1614          51.00       221.01
  100.80        2980.00           1618          47.00       203.58
  100.82        2980.25           1621          48.00       207.94
  100.85        2980.50           1625          50.00       216.65
  100.88        2980.75           1628          50.00       216.65
  100.91        2981.00           1631          50.00       216.65
  100.94        2981.25           1635          51.00       221.01
  100.97        2981.50           1638          42.00       181.78
  101.00        2981.75           1642          54.00       234.09
  101.02        2982.00           1645          50.00       216.65
  101.05        2982.25           1648          45.00       194.86
  101.08        2982.50           1652          43.00       186.14
  101.11        2982.75           1655          45.00       194.86
  101.14        2983.00           1659          53.00       229.73
  101.16        2983.25           1662          50.00       216.65
  101.19        2983.50           1666          49.00       212.29
  101.22        2983.75           1669          49.00       212.29
  101.25        2984.00           1672          48.00       207.94
HS scan finished at 01:41:37
end
