************************************************************
  HS Scan of 
************************************************************
Integration time is 0.2294 seconds per sample
dh240217El Arenosillo 37.1 6.73 2.56pr1000
************************************************************
Dead Time -------------------------  3.2E-08 
Number of Cycles Used -------------  4 
Starting Wavelength (Angstroms) ---  2950 
Final Wavelength (Angstoms) -------  2984 
Wavelength Increment (Angstroms) --  .25 
Filter Wheel #1 Position ---------- 
Filter Wheel #2 Position ---------- 

Scan taken at 11:24:32

************************************************************
HS scan start time = 01:32:05
Dark Count =  .2 


Time (GMT)  Wavelength (Ang)  Step Number  Raw Counts  Counts/Second

   92.73        2950.00           1211           1.00         3.49
   92.94        2950.25           1215           0.00         2.00
   92.96        2950.50           1218           0.00         2.00
   92.99        2950.75           1222           0.00         2.00
   93.01        2951.00           1225           0.00         2.00
   93.04        2951.25           1228           0.00         2.00
   93.07        2951.50           1232           0.00         2.00
   93.10        2951.75           1235           0.00         2.00
   93.13        2952.00           1238           0.00         2.00
   93.15        2952.25           1242           0.00         2.00
   93.18        2952.50           1245           0.00         2.00
   93.21        2952.75           1249           1.00         3.49
   93.24        2953.00           1252           0.00         2.00
   93.27        2953.25           1255           0.00         2.00
   93.30        2953.50           1259           0.00         2.00
   93.33        2953.75           1262           0.00         2.00
   93.36        2954.00           1265           0.00         2.00
   93.38        2954.25           1269           0.00         2.00
   93.42        2954.50           1272           1.00         3.49
   93.44        2954.75           1276           0.00         2.00
   93.47        2955.00           1279           1.00         3.49
   93.50        2955.25           1282           0.00         2.00
   93.53        2955.50           1286           0.00         2.00
   93.56        2955.75           1289           0.00         2.00
   93.58        2956.00           1293           1.00         3.49
   93.61        2956.25           1296           0.00         2.00
   93.64        2956.50           1299           0.00         2.00
   93.67        2956.75           1303           1.00         3.49
   93.70        2957.00           1306           0.00         2.00
   93.73        2957.25           1309           1.00         3.49
   93.76        2957.50           1313           0.00         2.00
   93.78        2957.75           1316           1.00         3.49
   93.81        2958.00           1320           0.00         2.00
   93.84        2958.25           1323           0.00         2.00
   93.87        2958.50           1326           0.00         2.00
   93.90        2958.75           1330           1.00         3.49
   93.92        2959.00           1333           1.00         3.49
   93.96        2959.25           1336           0.00         2.00
   93.98        2959.50           1340           0.00         2.00
   94.01        2959.75           1343           0.00         2.00
   94.04        2960.00           1347           0.00         2.00
   94.07        2960.25           1350           1.00         3.49
   94.10        2960.50           1353           0.00         2.00
   94.12        2960.75           1357           1.00         3.49
   94.16        2961.00           1360           0.00         2.00
   94.19        2961.25           1364           0.00         2.00
   94.21        2961.50           1367           0.00         2.00
   94.24        2961.75           1370           0.00         2.00
   94.27        2962.00           1374           0.00         2.00
   94.30        2962.25           1377           0.00         2.00
   94.33        2962.50           1380           0.00         2.00
   94.35        2962.75           1384           0.00         2.00
   94.39        2963.00           1387           0.00         2.00
   94.41        2963.25           1391           1.00         3.49
   94.44        2963.50           1394           0.00         2.00
   94.47        2963.75           1397           0.00         2.00
   94.50        2964.00           1401           1.00         3.49
   94.53        2964.25           1404           0.00         2.00
   94.56        2964.50           1408           0.00         2.00
   94.59        2964.75           1411           0.00         2.00
   94.62        2965.00           1414           0.00         2.00
   94.65        2965.25           1418           1.00         3.49
   94.68        2965.50           1421           0.00         2.00
   94.71        2965.75           1424           1.00         3.49
   94.74        2966.00           1428           0.00         2.00
   94.76        2966.25           1431           0.00         2.00
   94.79        2966.50           1435           0.00         2.00
   94.82        2966.75           1438           0.00         2.00
   94.85        2967.00           1441           1.00         3.49
   94.88        2967.25           1445           1.00         3.49
   94.91        2967.50           1448           0.00         2.00
   94.94        2967.75           1452           1.00         3.49
   94.96        2968.00           1455           1.00         3.49
   94.99        2968.25           1458           0.00         2.00
   95.02        2968.50           1462           0.00         2.00
   95.05        2968.75           1465           0.00         2.00
   95.08        2969.00           1469           0.00         2.00
   95.11        2969.25           1472           1.00         3.49
   95.14        2969.50           1475           0.00         2.00
   95.16        2969.75           1479           0.00         2.00
   95.19        2970.00           1482           0.00         2.00
   95.23        2970.25           1485           0.00         2.00
   95.25        2970.50           1489           0.00         2.00
   95.28        2970.75           1492           0.00         2.00
   95.31        2971.00           1496           0.00         2.00
   95.35        2971.25           1499           0.00         2.00
   95.37        2971.50           1502           0.00         2.00
   95.40        2971.75           1506           0.00         2.00
   95.43        2972.00           1509           0.00         2.00
   95.46        2972.25           1513           0.00         2.00
   95.49        2972.50           1516           0.00         2.00
   95.51        2972.75           1519           0.00         2.00
   95.55        2973.00           1523           0.00         2.00
   95.57        2973.25           1526           0.00         2.00
   95.60        2973.50           1530           1.00         3.49
   95.63        2973.75           1533           0.00         2.00
   95.66        2974.00           1536           1.00         3.49
   95.69        2974.25           1540           0.00         2.00
   95.71        2974.50           1543           0.00         2.00
   95.74        2974.75           1547           0.00         2.00
   95.77        2975.00           1550           1.00         3.49
   95.80        2975.25           1553           0.00         2.00
   95.83        2975.50           1557           0.00         2.00
   95.86        2975.75           1560           0.00         2.00
   95.89        2976.00           1564           0.00         2.00
   95.91        2976.25           1567           0.00         2.00
   95.94        2976.50           1570           0.00         2.00
   95.97        2976.75           1574           0.00         2.00
   96.00        2977.00           1577           1.00         3.49
   96.03        2977.25           1581           0.00         2.00
   96.05        2977.50           1584           0.00         2.00
   96.09        2977.75           1587           1.00         3.49
   96.11        2978.00           1591           0.00         2.00
   96.14        2978.25           1594           0.00         2.00
   96.17        2978.50           1598           0.00         2.00
   96.20        2978.75           1601           0.00         2.00
   96.23        2979.00           1604           0.00         2.00
   96.25        2979.25           1608           1.00         3.49
   96.29        2979.50           1611           0.00         2.00
   96.32        2979.75           1614           0.00         2.00
   96.34        2980.00           1618           0.00         2.00
   96.37        2980.25           1621           1.00         3.49
   96.40        2980.50           1625           0.00         2.00
   96.43        2980.75           1628           1.00         3.49
   96.46        2981.00           1631           0.00         2.00
   96.48        2981.25           1635           0.00         2.00
   96.51        2981.50           1638           0.00         2.00
   96.53        2981.75           1642           0.00         2.00
   96.56        2982.00           1645           0.00         2.00
   96.59        2982.25           1648           0.00         2.00
   96.62        2982.50           1652           1.00         3.49
   96.65        2982.75           1655           0.00         2.00
   96.67        2983.00           1659           0.00         2.00
   96.71        2983.25           1662           0.00         2.00
   96.73        2983.50           1666           0.00         2.00
   96.76        2983.75           1669           0.00         2.00
   96.79        2984.00           1672           1.00         3.49
HS scan finished at 01:37:10
end
