************************************************************
  HS Scan of 
************************************************************
Integration time is 0.2294 seconds per sample
dh100317El Arenosillo 37.1 6.73 2.56pr1000
************************************************************
Dead Time -------------------------  3.2E-08 
Number of Cycles Used -------------  4 
Starting Wavelength (Angstroms) ---  2950 
Final Wavelength (Angstoms) -------  2984 
Wavelength Increment (Angstroms) --  .25 
Filter Wheel #1 Position ---------- (1) Ground quartz diffuser (ND=2.32)
Filter Wheel #2 Position ---------- (1) Neutral Density 0.494



************************************************************
HS scan start time = 01:29:07
Dark Count =  .4 


Time (GMT)  Wavelength (Ang)  Step Number  Raw Counts  Counts/Second

   89.76        2950.00           1211           0.00         2.00
   89.97        2950.25           1215           0.00         2.00
   90.00        2950.50           1218           0.00         2.00
   90.03        2950.75           1222           1.00         2.62
   90.06        2951.00           1225           0.00         2.00
   90.09        2951.25           1228           0.00         2.00
   90.12        2951.50           1232           1.00         2.62
   90.14        2951.75           1235           0.00         2.00
   90.18        2952.00           1238           1.00         2.62
   90.21        2952.25           1242           0.00         2.00
   90.23        2952.50           1245           1.00         2.62
   90.26        2952.75           1249           1.00         2.62
   90.29        2953.00           1252           0.00         2.00
   90.32        2953.25           1255           0.00         2.00
   90.35        2953.50           1259           0.00         2.00
   90.38        2953.75           1262           1.00         2.62
   90.41        2954.00           1265           0.00         2.00
   90.43        2954.25           1269           0.00         2.00
   90.47        2954.50           1272           0.00         2.00
   90.49        2954.75           1276           0.00         2.00
   90.52        2955.00           1279           0.00         2.00
   90.55        2955.25           1282           0.00         2.00
   90.58        2955.50           1286           0.00         2.00
   90.61        2955.75           1289           0.00         2.00
   90.64        2956.00           1293           0.00         2.00
   90.67        2956.25           1296           0.00         2.00
   90.69        2956.50           1299           0.00         2.00
   90.73        2956.75           1303           0.00         2.00
   90.76        2957.00           1306           0.00         2.00
   90.78        2957.25           1309           0.00         2.00
   90.81        2957.50           1313           0.00         2.00
   90.84        2957.75           1316           0.00         2.00
   90.87        2958.00           1320           0.00         2.00
   90.90        2958.25           1323           0.00         2.00
   90.93        2958.50           1326           0.00         2.00
   90.96        2958.75           1330           0.00         2.00
   90.98        2959.00           1333           0.00         2.00
   91.02        2959.25           1336           0.00         2.00
   91.05        2959.50           1340           0.00         2.00
   91.07        2959.75           1343           1.00         2.62
   91.11        2960.00           1347           0.00         2.00
   91.13        2960.25           1350           0.00         2.00
   91.16        2960.50           1353           0.00         2.00
   91.19        2960.75           1357           0.00         2.00
   91.22        2961.00           1360           0.00         2.00
   91.25        2961.25           1364           1.00         2.62
   91.28        2961.50           1367           2.00         6.97
   91.31        2961.75           1370           0.00         2.00
   91.33        2962.00           1374           0.00         2.00
   91.36        2962.25           1377           0.00         2.00
   91.40        2962.50           1380           0.00         2.00
   91.42        2962.75           1384           0.00         2.00
   91.45        2963.00           1387           0.00         2.00
   91.48        2963.25           1391           0.00         2.00
   91.51        2963.50           1394           0.00         2.00
   91.54        2963.75           1397           0.00         2.00
   91.57        2964.00           1401           0.00         2.00
   91.60        2964.25           1404           0.00         2.00
   91.63        2964.50           1408           1.00         2.62
   91.66        2964.75           1411           0.00         2.00
   91.69        2965.00           1414           0.00         2.00
   91.72        2965.25           1418           0.00         2.00
   91.75        2965.50           1421           0.00         2.00
   91.78        2965.75           1424           1.00         2.62
   91.81        2966.00           1428           0.00         2.00
   91.83        2966.25           1431           1.00         2.62
   91.86        2966.50           1435           0.00         2.00
   91.88        2966.75           1438           0.00         2.00
   91.91        2967.00           1441           0.00         2.00
   91.95        2967.25           1445           1.00         2.62
   91.97        2967.50           1448           0.00         2.00
   92.00        2967.75           1452           0.00         2.00
   92.03        2968.00           1455           0.00         2.00
   92.06        2968.25           1458           1.00         2.62
   92.09        2968.50           1462           0.00         2.00
   92.12        2968.75           1465           1.00         2.62
   92.15        2969.00           1469           0.00         2.00
   92.17        2969.25           1472           0.00         2.00
   92.21        2969.50           1475           0.00         2.00
   92.24        2969.75           1479           0.00         2.00
   92.26        2970.00           1482           0.00         2.00
   92.29        2970.25           1485           1.00         2.62
   92.32        2970.50           1489           0.00         2.00
   92.35        2970.75           1492           0.00         2.00
   92.37        2971.00           1496           0.00         2.00
   92.41        2971.25           1499           0.00         2.00
   92.44        2971.50           1502           1.00         2.62
   92.46        2971.75           1506           0.00         2.00
   92.50        2972.00           1509           1.00         2.62
   92.52        2972.25           1513           0.00         2.00
   92.55        2972.50           1516           0.00         2.00
   92.58        2972.75           1519           0.00         2.00
   92.61        2973.00           1523           1.00         2.62
   92.64        2973.25           1526           0.00         2.00
   92.67        2973.50           1530           1.00         2.62
   92.70        2973.75           1533           0.00         2.00
   92.72        2974.00           1536           0.00         2.00
   92.76        2974.25           1540           0.00         2.00
   92.78        2974.50           1543           0.00         2.00
   92.81        2974.75           1547           0.00         2.00
   92.84        2975.00           1550           0.00         2.00
   92.86        2975.25           1553           1.00         2.62
   92.89        2975.50           1557           0.00         2.00
   92.92        2975.75           1560           0.00         2.00
   92.95        2976.00           1564           0.00         2.00
   92.98        2976.25           1567           1.00         2.62
   93.00        2976.50           1570           0.00         2.00
   93.04        2976.75           1574           1.00         2.62
   93.06        2977.00           1577           0.00         2.00
   93.09        2977.25           1581           0.00         2.00
   93.13        2977.50           1584           0.00         2.00
   93.15        2977.75           1587           1.00         2.62
   93.18        2978.00           1591           0.00         2.00
   93.21        2978.25           1594           0.00         2.00
   93.24        2978.50           1598           0.00         2.00
   93.27        2978.75           1601           0.00         2.00
   93.30        2979.00           1604           0.00         2.00
   93.33        2979.25           1608           0.00         2.00
   93.35        2979.50           1611           0.00         2.00
   93.38        2979.75           1614           0.00         2.00
   93.41        2980.00           1618           0.00         2.00
   93.44        2980.25           1621           0.00         2.00
   93.47        2980.50           1625           1.00         2.62
   93.50        2980.75           1628           1.00         2.62
   93.53        2981.00           1631           0.00         2.00
   93.55        2981.25           1635           1.00         2.62
   93.59        2981.50           1638           0.00         2.00
   93.62        2981.75           1642           0.00         2.00
   93.64        2982.00           1645           0.00         2.00
   93.68        2982.25           1648           0.00         2.00
   93.70        2982.50           1652           0.00         2.00
   93.73        2982.75           1655           1.00         2.62
   93.76        2983.00           1659           1.00         2.62
   93.79        2983.25           1662           0.00         2.00
   93.82        2983.50           1666           0.00         2.00
   93.84        2983.75           1669           1.00         2.62
   93.87        2984.00           1672           0.00         2.00
HS scan finished at 01:34:14
end
