************************************************************
  HS Scan of 
************************************************************
Integration time is 0.2294 seconds per sample
dh030317El Arenosillo 37.1 6.73 2.56pr1000
************************************************************
Dead Time -------------------------  3.2E-08 
Number of Cycles Used -------------  4 
Starting Wavelength (Angstroms) ---  2950 
Final Wavelength (Angstoms) -------  2984 
Wavelength Increment (Angstroms) --  .25 
Filter Wheel #1 Position ---------- (1) Ground quartz diffuser (ND=2.32)
Filter Wheel #2 Position ---------- (1) Neutral Density 0.494



************************************************************
HS scan start time = 01:30:19
Dark Count =  .3 


Time (GMT)  Wavelength (Ang)  Step Number  Raw Counts  Counts/Second

   90.96        2950.00           1211           0.00         2.00
   91.17        2950.25           1215           0.00         2.00
   91.20        2950.50           1218           1.00         3.05
   91.23        2950.75           1222           0.00         2.00
   91.26        2951.00           1225           1.00         3.05
   91.29        2951.25           1228           1.00         3.05
   91.31        2951.50           1232           0.00         2.00
   91.34        2951.75           1235           0.00         2.00
   91.37        2952.00           1238           0.00         2.00
   91.40        2952.25           1242           0.00         2.00
   91.43        2952.50           1245           1.00         3.05
   91.45        2952.75           1249           0.00         2.00
   91.48        2953.00           1252           0.00         2.00
   91.51        2953.25           1255           0.00         2.00
   91.53        2953.50           1259           0.00         2.00
   91.56        2953.75           1262           1.00         3.05
   91.59        2954.00           1265           0.00         2.00
   91.62        2954.25           1269           0.00         2.00
   91.65        2954.50           1272           0.00         2.00
   91.68        2954.75           1276           0.00         2.00
   91.71        2955.00           1279           0.00         2.00
   91.73        2955.25           1282           1.00         3.05
   91.76        2955.50           1286           0.00         2.00
   91.80        2955.75           1289           0.00         2.00
   91.82        2956.00           1293           0.00         2.00
   91.85        2956.25           1296           0.00         2.00
   91.88        2956.50           1299           0.00         2.00
   91.91        2956.75           1303           0.00         2.00
   91.94        2957.00           1306           0.00         2.00
   91.96        2957.25           1309           1.00         3.05
   91.99        2957.50           1313           1.00         3.05
   92.02        2957.75           1316           0.00         2.00
   92.05        2958.00           1320           0.00         2.00
   92.08        2958.25           1323           1.00         3.05
   92.11        2958.50           1326           0.00         2.00
   92.14        2958.75           1330           1.00         3.05
   92.17        2959.00           1333           0.00         2.00
   92.19        2959.25           1336           0.00         2.00
   92.22        2959.50           1340           0.00         2.00
   92.25        2959.75           1343           0.00         2.00
   92.28        2960.00           1347           1.00         3.05
   92.31        2960.25           1350           1.00         3.05
   92.33        2960.50           1353           0.00         2.00
   92.37        2960.75           1357           0.00         2.00
   92.39        2961.00           1360           0.00         2.00
   92.42        2961.25           1364           1.00         3.05
   92.45        2961.50           1367           0.00         2.00
   92.48        2961.75           1370           0.00         2.00
   92.51        2962.00           1374           0.00         2.00
   92.54        2962.25           1377           0.00         2.00
   92.57        2962.50           1380           0.00         2.00
   92.60        2962.75           1384           0.00         2.00
   92.62        2963.00           1387           0.00         2.00
   92.65        2963.25           1391           0.00         2.00
   92.68        2963.50           1394           0.00         2.00
   92.70        2963.75           1397           0.00         2.00
   92.73        2964.00           1401           0.00         2.00
   92.76        2964.25           1404           0.00         2.00
   92.79        2964.50           1408           0.00         2.00
   92.82        2964.75           1411           0.00         2.00
   92.85        2965.00           1414           0.00         2.00
   92.88        2965.25           1418           0.00         2.00
   92.91        2965.50           1421           0.00         2.00
   92.94        2965.75           1424           0.00         2.00
   92.96        2966.00           1428           0.00         2.00
   92.99        2966.25           1431           0.00         2.00
   93.02        2966.50           1435           0.00         2.00
   93.05        2966.75           1438           0.00         2.00
   93.08        2967.00           1441           0.00         2.00
   93.10        2967.25           1445           0.00         2.00
   93.14        2967.50           1448           0.00         2.00
   93.16        2967.75           1452           1.00         3.05
   93.19        2968.00           1455           0.00         2.00
   93.22        2968.25           1458           0.00         2.00
   93.25        2968.50           1462           1.00         3.05
   93.28        2968.75           1465           0.00         2.00
   93.30        2969.00           1469           0.00         2.00
   93.33        2969.25           1472           1.00         3.05
   93.37        2969.50           1475           0.00         2.00
   93.39        2969.75           1479           0.00         2.00
   93.42        2970.00           1482           1.00         3.05
   93.44        2970.25           1485           0.00         2.00
   93.48        2970.50           1489           0.00         2.00
   93.51        2970.75           1492           0.00         2.00
   93.53        2971.00           1496           0.00         2.00
   93.57        2971.25           1499           0.00         2.00
   93.60        2971.50           1502           0.00         2.00
   93.62        2971.75           1506           0.00         2.00
   93.65        2972.00           1509           1.00         3.05
   93.68        2972.25           1513           0.00         2.00
   93.71        2972.50           1516           1.00         3.05
   93.74        2972.75           1519           0.00         2.00
   93.76        2973.00           1523           1.00         3.05
   93.80        2973.25           1526           0.00         2.00
   93.83        2973.50           1530           0.00         2.00
   93.85        2973.75           1533           0.00         2.00
   93.88        2974.00           1536           0.00         2.00
   93.91        2974.25           1540           1.00         3.05
   93.94        2974.50           1543           0.00         2.00
   93.97        2974.75           1547           1.00         3.05
   93.99        2975.00           1550           0.00         2.00
   94.02        2975.25           1553           0.00         2.00
   94.06        2975.50           1557           0.00         2.00
   94.08        2975.75           1560           0.00         2.00
   94.11        2976.00           1564           0.00         2.00
   94.14        2976.25           1567           1.00         3.05
   94.17        2976.50           1570           0.00         2.00
   94.20        2976.75           1574           0.00         2.00
   94.22        2977.00           1577           0.00         2.00
   94.25        2977.25           1581           0.00         2.00
   94.29        2977.50           1584           0.00         2.00
   94.31        2977.75           1587           0.00         2.00
   94.34        2978.00           1591           0.00         2.00
   94.37        2978.25           1594           0.00         2.00
   94.39        2978.50           1598           1.00         3.05
   94.42        2978.75           1601           1.00         3.05
   94.44        2979.00           1604           0.00         2.00
   94.48        2979.25           1608           0.00         2.00
   94.51        2979.50           1611           0.00         2.00
   94.53        2979.75           1614           0.00         2.00
   94.56        2980.00           1618           0.00         2.00
   94.59        2980.25           1621           1.00         3.05
   94.62        2980.50           1625           0.00         2.00
   94.65        2980.75           1628           1.00         3.05
   94.67        2981.00           1631           0.00         2.00
   94.71        2981.25           1635           0.00         2.00
   94.73        2981.50           1638           0.00         2.00
   94.76        2981.75           1642           1.00         3.05
   94.79        2982.00           1645           0.00         2.00
   94.82        2982.25           1648           1.00         3.05
   94.85        2982.50           1652           0.00         2.00
   94.88        2982.75           1655           0.00         2.00
   94.90        2983.00           1659           0.00         2.00
   94.94        2983.25           1662           0.00         2.00
   94.96        2983.50           1666           0.00         2.00
   94.99        2983.75           1669           0.00         2.00
   95.01        2984.00           1672           1.00         3.05
HS scan finished at 01:35:23
end
