************************************************************
  HS Scan of 
************************************************************
Integration time is 0.2294 seconds per sample
dh170317El Arenosillo 37.1 6.73 2.56pr1000
************************************************************
Dead Time -------------------------  3.2E-08 
Number of Cycles Used -------------  4 
Starting Wavelength (Angstroms) ---  2950 
Final Wavelength (Angstoms) -------  2984 
Wavelength Increment (Angstroms) --  .25 
Filter Wheel #1 Position ---------- (1) Ground quartz diffuser (ND=2.32)
Filter Wheel #2 Position ---------- (1) Neutral Density 0.494



************************************************************
HS scan start time = 01:27:50
Dark Count =  .1 


Time (GMT)  Wavelength (Ang)  Step Number  Raw Counts  Counts/Second

   88.47        2950.00           1211           0.00         2.00
   88.68        2950.25           1215           1.00         3.92
   88.72        2950.50           1218           0.00         2.00
   88.74        2950.75           1222           1.00         3.92
   88.77        2951.00           1225           1.00         3.92
   88.81        2951.25           1228           0.00         2.00
   88.83        2951.50           1232           0.00         2.00
   88.86        2951.75           1235           1.00         3.92
   88.89        2952.00           1238           0.00         2.00
   88.92        2952.25           1242           1.00         3.92
   88.95        2952.50           1245           0.00         2.00
   88.98        2952.75           1249           0.00         2.00
   89.01        2953.00           1252           0.00         2.00
   89.03        2953.25           1255           0.00         2.00
   89.07        2953.50           1259           0.00         2.00
   89.09        2953.75           1262           0.00         2.00
   89.12        2954.00           1265           0.00         2.00
   89.16        2954.25           1269           0.00         2.00
   89.18        2954.50           1272           1.00         3.92
   89.21        2954.75           1276           0.00         2.00
   89.24        2955.00           1279           0.00         2.00
   89.27        2955.25           1282           1.00         3.92
   89.30        2955.50           1286           0.00         2.00
   89.33        2955.75           1289           0.00         2.00
   89.36        2956.00           1293           0.00         2.00
   89.38        2956.25           1296           1.00         3.92
   89.42        2956.50           1299           1.00         3.92
   89.44        2956.75           1303           0.00         2.00
   89.47        2957.00           1306           0.00         2.00
   89.50        2957.25           1309           1.00         3.92
   89.53        2957.50           1313           0.00         2.00
   89.56        2957.75           1316           0.00         2.00
   89.59        2958.00           1320           0.00         2.00
   89.62        2958.25           1323           1.00         3.92
   89.64        2958.50           1326           1.00         3.92
   89.68        2958.75           1330           0.00         2.00
   89.71        2959.00           1333           0.00         2.00
   89.73        2959.25           1336           0.00         2.00
   89.77        2959.50           1340           1.00         3.92
   89.79        2959.75           1343           0.00         2.00
   89.82        2960.00           1347           1.00         3.92
   89.85        2960.25           1350           1.00         3.92
   89.88        2960.50           1353           0.00         2.00
   89.91        2960.75           1357           0.00         2.00
   89.94        2961.00           1360           1.00         3.92
   89.97        2961.25           1364           0.00         2.00
   90.00        2961.50           1367           0.00         2.00
   90.03        2961.75           1370           0.00         2.00
   90.06        2962.00           1374           1.00         3.92
   90.08        2962.25           1377           0.00         2.00
   90.12        2962.50           1380           0.00         2.00
   90.15        2962.75           1384           1.00         3.92
   90.17        2963.00           1387           0.00         2.00
   90.21        2963.25           1391           0.00         2.00
   90.23        2963.50           1394           1.00         3.92
   90.26        2963.75           1397           0.00         2.00
   90.30        2964.00           1401           0.00         2.00
   90.32        2964.25           1404           0.00         2.00
   90.35        2964.50           1408           0.00         2.00
   90.39        2964.75           1411           1.00         3.92
   90.41        2965.00           1414           0.00         2.00
   90.44        2965.25           1418           0.00         2.00
   90.48        2965.50           1421           0.00         2.00
   90.50        2965.75           1424           0.00         2.00
   90.53        2966.00           1428           0.00         2.00
   90.56        2966.25           1431           1.00         3.92
   90.59        2966.50           1435           0.00         2.00
   90.62        2966.75           1438           0.00         2.00
   90.65        2967.00           1441           0.00         2.00
   90.68        2967.25           1445           1.00         3.92
   90.70        2967.50           1448           0.00         2.00
   90.74        2967.75           1452           0.00         2.00
   90.77        2968.00           1455           1.00         3.92
   90.79        2968.25           1458           0.00         2.00
   90.83        2968.50           1462           0.00         2.00
   90.85        2968.75           1465           0.00         2.00
   90.88        2969.00           1469           0.00         2.00
   90.91        2969.25           1472           0.00         2.00
   90.94        2969.50           1475           1.00         3.92
   90.97        2969.75           1479           0.00         2.00
   91.00        2970.00           1482           1.00         3.92
   91.03        2970.25           1485           0.00         2.00
   91.06        2970.50           1489           1.00         3.92
   91.09        2970.75           1492           0.00         2.00
   91.12        2971.00           1496           1.00         3.92
   91.15        2971.25           1499           0.00         2.00
   91.18        2971.50           1502           0.00         2.00
   91.21        2971.75           1506           0.00         2.00
   91.23        2972.00           1509           0.00         2.00
   91.27        2972.25           1513           0.00         2.00
   91.30        2972.50           1516           0.00         2.00
   91.32        2972.75           1519           1.00         3.92
   91.36        2973.00           1523           0.00         2.00
   91.38        2973.25           1526           0.00         2.00
   91.41        2973.50           1530           0.00         2.00
   91.44        2973.75           1533           0.00         2.00
   91.47        2974.00           1536           0.00         2.00
   91.50        2974.25           1540           0.00         2.00
   91.53        2974.50           1543           0.00         2.00
   91.56        2974.75           1547           0.00         2.00
   91.58        2975.00           1550           0.00         2.00
   91.62        2975.25           1553           0.00         2.00
   91.65        2975.50           1557           0.00         2.00
   91.67        2975.75           1560           0.00         2.00
   91.71        2976.00           1564           0.00         2.00
   91.73        2976.25           1567           0.00         2.00
   91.76        2976.50           1570           1.00         3.92
   91.79        2976.75           1574           0.00         2.00
   91.82        2977.00           1577           1.00         3.92
   91.85        2977.25           1581           0.00         2.00
   91.88        2977.50           1584           0.00         2.00
   91.91        2977.75           1587           0.00         2.00
   91.93        2978.00           1591           0.00         2.00
   91.97        2978.25           1594           0.00         2.00
   92.00        2978.50           1598           1.00         3.92
   92.02        2978.75           1601           0.00         2.00
   92.06        2979.00           1604           0.00         2.00
   92.08        2979.25           1608           0.00         2.00
   92.11        2979.50           1611           1.00         3.92
   92.14        2979.75           1614           0.00         2.00
   92.17        2980.00           1618           0.00         2.00
   92.20        2980.25           1621           0.00         2.00
   92.23        2980.50           1625           1.00         3.92
   92.26        2980.75           1628           0.00         2.00
   92.28        2981.00           1631           0.00         2.00
   92.32        2981.25           1635           0.00         2.00
   92.34        2981.50           1638           0.00         2.00
   92.37        2981.75           1642           0.00         2.00
   92.41        2982.00           1645           0.00         2.00
   92.43        2982.25           1648           0.00         2.00
   92.46        2982.50           1652           0.00         2.00
   92.49        2982.75           1655           0.00         2.00
   92.52        2983.00           1659           0.00         2.00
   92.55        2983.25           1662           1.00         3.92
   92.58        2983.50           1666           0.00         2.00
   92.61        2983.75           1669           0.00         2.00
   92.63        2984.00           1672           0.00         2.00
HS scan finished at 01:33:01
end
