************************************************************
  HS Scan of 
************************************************************
Integration time is 0.2294 seconds per sample
dh240317El Arenosillo 37.1 6.73 2.13pr1000
************************************************************
Dead Time -------------------------  3.2E-08 
Number of Cycles Used -------------  4 
Starting Wavelength (Angstroms) ---  2950 
Final Wavelength (Angstoms) -------  2984 
Wavelength Increment (Angstroms) --  .25 
Filter Wheel #1 Position ---------- (1) Ground quartz diffuser (ND=2.32)
Filter Wheel #2 Position ---------- (1) Neutral Density 0.494



************************************************************
HS scan start time = 01:25:07
Dark Count =  .1 


Time (GMT)  Wavelength (Ang)  Step Number  Raw Counts  Counts/Second

   85.76        2950.00           1211           0.00         2.00
   85.97        2950.25           1215           1.00         3.92
   86.00        2950.50           1218           0.00         2.00
   86.03        2950.75           1222           0.00         2.00
   86.06        2951.00           1225           0.00         2.00
   86.09        2951.25           1228           0.00         2.00
   86.11        2951.50           1232           0.00         2.00
   86.15        2951.75           1235           1.00         3.92
   86.17        2952.00           1238           0.00         2.00
   86.20        2952.25           1242           0.00         2.00
   86.23        2952.50           1245           0.00         2.00
   86.26        2952.75           1249           0.00         2.00
   86.29        2953.00           1252           0.00         2.00
   86.31        2953.25           1255           0.00         2.00
   86.34        2953.50           1259           0.00         2.00
   86.37        2953.75           1262           0.00         2.00
   86.40        2954.00           1265           0.00         2.00
   86.43        2954.25           1269           0.00         2.00
   86.46        2954.50           1272           0.00         2.00
   86.49        2954.75           1276           0.00         2.00
   86.51        2955.00           1279           0.00         2.00
   86.54        2955.25           1282           0.00         2.00
   86.57        2955.50           1286           0.00         2.00
   86.59        2955.75           1289           1.00         3.92
   86.62        2956.00           1293           0.00         2.00
   86.65        2956.25           1296           0.00         2.00
   86.68        2956.50           1299           0.00         2.00
   86.71        2956.75           1303           0.00         2.00
   86.73        2957.00           1306           0.00         2.00
   86.76        2957.25           1309           1.00         3.92
   86.79        2957.50           1313           0.00         2.00
   86.82        2957.75           1316           0.00         2.00
   86.85        2958.00           1320           1.00         3.92
   86.88        2958.25           1323           0.00         2.00
   86.91        2958.50           1326           0.00         2.00
   86.94        2958.75           1330           0.00         2.00
   86.96        2959.00           1333           0.00         2.00
   86.99        2959.25           1336           1.00         3.92
   87.02        2959.50           1340           0.00         2.00
   87.05        2959.75           1343           0.00         2.00
   87.08        2960.00           1347           0.00         2.00
   87.11        2960.25           1350           0.00         2.00
   87.14        2960.50           1353           0.00         2.00
   87.16        2960.75           1357           0.00         2.00
   87.19        2961.00           1360           0.00         2.00
   87.22        2961.25           1364           0.00         2.00
   87.25        2961.50           1367           0.00         2.00
   87.28        2961.75           1370           0.00         2.00
   87.30        2962.00           1374           0.00         2.00
   87.34        2962.25           1377           0.00         2.00
   87.36        2962.50           1380           0.00         2.00
   87.39        2962.75           1384           1.00         3.92
   87.42        2963.00           1387           0.00         2.00
   87.45        2963.25           1391           1.00         3.92
   87.48        2963.50           1394           0.00         2.00
   87.51        2963.75           1397           0.00         2.00
   87.53        2964.00           1401           0.00         2.00
   87.57        2964.25           1404           0.00         2.00
   87.60        2964.50           1408           0.00         2.00
   87.62        2964.75           1411           0.00         2.00
   87.65        2965.00           1414           0.00         2.00
   87.69        2965.25           1418           0.00         2.00
   87.71        2965.50           1421           0.00         2.00
   87.74        2965.75           1424           0.00         2.00
   87.77        2966.00           1428           0.00         2.00
   87.80        2966.25           1431           0.00         2.00
   87.83        2966.50           1435           0.00         2.00
   87.85        2966.75           1438           1.00         3.92
   87.88        2967.00           1441           0.00         2.00
   87.91        2967.25           1445           0.00         2.00
   87.94        2967.50           1448           0.00         2.00
   87.97        2967.75           1452           0.00         2.00
   88.00        2968.00           1455           1.00         3.92
   88.03        2968.25           1458           0.00         2.00
   88.05        2968.50           1462           0.00         2.00
   88.08        2968.75           1465           0.00         2.00
   88.11        2969.00           1469           0.00         2.00
   88.14        2969.25           1472           0.00         2.00
   88.17        2969.50           1475           0.00         2.00
   88.19        2969.75           1479           0.00         2.00
   88.23        2970.00           1482           0.00         2.00
   88.26        2970.25           1485           1.00         3.92
   88.28        2970.50           1489           0.00         2.00
   88.31        2970.75           1492           0.00         2.00
   88.35        2971.00           1496           0.00         2.00
   88.37        2971.25           1499           1.00         3.92
   88.40        2971.50           1502           0.00         2.00
   88.43        2971.75           1506           0.00         2.00
   88.45        2972.00           1509           0.00         2.00
   88.48        2972.25           1513           0.00         2.00
   88.51        2972.50           1516           0.00         2.00
   88.54        2972.75           1519           0.00         2.00
   88.57        2973.00           1523           0.00         2.00
   88.59        2973.25           1526           0.00         2.00
   88.62        2973.50           1530           0.00         2.00
   88.65        2973.75           1533           0.00         2.00
   88.68        2974.00           1536           0.00         2.00
   88.71        2974.25           1540           0.00         2.00
   88.73        2974.50           1543           1.00         3.92
   88.77        2974.75           1547           0.00         2.00
   88.79        2975.00           1550           0.00         2.00
   88.82        2975.25           1553           0.00         2.00
   88.85        2975.50           1557           0.00         2.00
   88.88        2975.75           1560           0.00         2.00
   88.91        2976.00           1564           0.00         2.00
   88.94        2976.25           1567           1.00         3.92
   88.97        2976.50           1570           0.00         2.00
   89.00        2976.75           1574           0.00         2.00
   89.02        2977.00           1577           1.00         3.92
   89.05        2977.25           1581           0.00         2.00
   89.08        2977.50           1584           0.00         2.00
   89.10        2977.75           1587           0.00         2.00
   89.13        2978.00           1591           0.00         2.00
   89.15        2978.25           1594           0.00         2.00
   89.19        2978.50           1598           0.00         2.00
   89.22        2978.75           1601           0.00         2.00
   89.24        2979.00           1604           0.00         2.00
   89.27        2979.25           1608           0.00         2.00
   89.30        2979.50           1611           1.00         3.92
   89.33        2979.75           1614           0.00         2.00
   89.36        2980.00           1618           0.00         2.00
   89.38        2980.25           1621           0.00         2.00
   89.42        2980.50           1625           1.00         3.92
   89.44        2980.75           1628           0.00         2.00
   89.47        2981.00           1631           0.00         2.00
   89.50        2981.25           1635           0.00         2.00
   89.53        2981.50           1638           1.00         3.92
   89.56        2981.75           1642           0.00         2.00
   89.58        2982.00           1645           0.00         2.00
   89.61        2982.25           1648           0.00         2.00
   89.64        2982.50           1652           0.00         2.00
   89.67        2982.75           1655           0.00         2.00
   89.70        2983.00           1659           1.00         3.92
   89.73        2983.25           1662           0.00         2.00
   89.76        2983.50           1666           0.00         2.00
   89.78        2983.75           1669           0.00         2.00
   89.81        2984.00           1672           0.00         2.00
HS scan finished at 01:30:11
end
