************************************************************
  HS Scan of 
************************************************************
Integration time is 0.2294 seconds per sample
dh310317El Arenosillo 37.1 6.73 2.62pr1000
************************************************************
Dead Time -------------------------  3.2E-08 
Number of Cycles Used -------------  4 
Starting Wavelength (Angstroms) ---  2950 
Final Wavelength (Angstoms) -------  2984 
Wavelength Increment (Angstroms) --  .25 
Filter Wheel #1 Position ---------- (1) Ground quartz diffuser (ND=2.32)
Filter Wheel #2 Position ---------- (1) Neutral Density 0.494



************************************************************
HS scan start time = 01:22:40
Dark Count =  .1 


Time (GMT)  Wavelength (Ang)  Step Number  Raw Counts  Counts/Second

   83.31        2950.00           1211           0.00         2.00
   83.52        2950.25           1215           1.00         3.92
   83.55        2950.50           1218           0.00         2.00
   83.58        2950.75           1222           0.00         2.00
   83.61        2951.00           1225           0.00         2.00
   83.64        2951.25           1228           0.00         2.00
   83.66        2951.50           1232           1.00         3.92
   83.69        2951.75           1235           0.00         2.00
   83.72        2952.00           1238           0.00         2.00
   83.75        2952.25           1242           1.00         3.92
   83.78        2952.50           1245           0.00         2.00
   83.80        2952.75           1249           0.00         2.00
   83.84        2953.00           1252           0.00         2.00
   83.87        2953.25           1255           0.00         2.00
   83.89        2953.50           1259           1.00         3.92
   83.92        2953.75           1262           0.00         2.00
   83.95        2954.00           1265           1.00         3.92
   83.98        2954.25           1269           0.00         2.00
   84.01        2954.50           1272           0.00         2.00
   84.03        2954.75           1276           0.00         2.00
   84.07        2955.00           1279           0.00         2.00
   84.09        2955.25           1282           1.00         3.92
   84.12        2955.50           1286           1.00         3.92
   84.15        2955.75           1289           0.00         2.00
   84.18        2956.00           1293           0.00         2.00
   84.21        2956.25           1296           0.00         2.00
   84.23        2956.50           1299           0.00         2.00
   84.26        2956.75           1303           0.00         2.00
   84.29        2957.00           1306           1.00         3.92
   84.32        2957.25           1309           0.00         2.00
   84.35        2957.50           1313           0.00         2.00
   84.37        2957.75           1316           1.00         3.92
   84.41        2958.00           1320           0.00         2.00
   84.43        2958.25           1323           1.00         3.92
   84.46        2958.50           1326           0.00         2.00
   84.49        2958.75           1330           0.00         2.00
   84.52        2959.00           1333           0.00         2.00
   84.55        2959.25           1336           0.00         2.00
   84.57        2959.50           1340           1.00         3.92
   84.60        2959.75           1343           0.00         2.00
   84.63        2960.00           1347           1.00         3.92
   84.66        2960.25           1350           0.00         2.00
   84.69        2960.50           1353           0.00         2.00
   84.71        2960.75           1357           0.00         2.00
   84.75        2961.00           1360           1.00         3.92
   84.78        2961.25           1364           0.00         2.00
   84.80        2961.50           1367           0.00         2.00
   84.83        2961.75           1370           1.00         3.92
   84.86        2962.00           1374           0.00         2.00
   84.89        2962.25           1377           1.00         3.92
   84.92        2962.50           1380           0.00         2.00
   84.94        2962.75           1384           0.00         2.00
   84.98        2963.00           1387           1.00         3.92
   85.00        2963.25           1391           1.00         3.92
   85.03        2963.50           1394           0.00         2.00
   85.05        2963.75           1397           0.00         2.00
   85.09        2964.00           1401           0.00         2.00
   85.12        2964.25           1404           0.00         2.00
   85.15        2964.50           1408           0.00         2.00
   85.17        2964.75           1411           0.00         2.00
   85.21        2965.00           1414           0.00         2.00
   85.24        2965.25           1418           1.00         3.92
   85.26        2965.50           1421           1.00         3.92
   85.29        2965.75           1424           0.00         2.00
   85.32        2966.00           1428           0.00         2.00
   85.35        2966.25           1431           1.00         3.92
   85.38        2966.50           1435           0.00         2.00
   85.40        2966.75           1438           0.00         2.00
   85.44        2967.00           1441           1.00         3.92
   85.46        2967.25           1445           0.00         2.00
   85.49        2967.50           1448           0.00         2.00
   85.52        2967.75           1452           0.00         2.00
   85.55        2968.00           1455           0.00         2.00
   85.58        2968.25           1458           0.00         2.00
   85.60        2968.50           1462           0.00         2.00
   85.63        2968.75           1465           1.00         3.92
   85.66        2969.00           1469           1.00         3.92
   85.69        2969.25           1472           0.00         2.00
   85.72        2969.50           1475           0.00         2.00
   85.74        2969.75           1479           0.00         2.00
   85.78        2970.00           1482           0.00         2.00
   85.81        2970.25           1485           0.00         2.00
   85.83        2970.50           1489           0.00         2.00
   85.86        2970.75           1492           0.00         2.00
   85.90        2971.00           1496           0.00         2.00
   85.92        2971.25           1499           0.00         2.00
   85.95        2971.50           1502           1.00         3.92
   85.97        2971.75           1506           0.00         2.00
   86.01        2972.00           1509           1.00         3.92
   86.04        2972.25           1513           0.00         2.00
   86.06        2972.50           1516           1.00         3.92
   86.09        2972.75           1519           0.00         2.00
   86.12        2973.00           1523           0.00         2.00
   86.15        2973.25           1526           1.00         3.92
   86.18        2973.50           1530           1.00         3.92
   86.20        2973.75           1533           0.00         2.00
   86.24        2974.00           1536           0.00         2.00
   86.26        2974.25           1540           1.00         3.92
   86.29        2974.50           1543           0.00         2.00
   86.31        2974.75           1547           1.00         3.92
   86.34        2975.00           1550           0.00         2.00
   86.36        2975.25           1553           0.00         2.00
   86.39        2975.50           1557           0.00         2.00
   86.42        2975.75           1560           0.00         2.00
   86.45        2976.00           1564           0.00         2.00
   86.48        2976.25           1567           0.00         2.00
   86.50        2976.50           1570           0.00         2.00
   86.53        2976.75           1574           0.00         2.00
   86.56        2977.00           1577           0.00         2.00
   86.59        2977.25           1581           0.00         2.00
   86.62        2977.50           1584           1.00         3.92
   86.64        2977.75           1587           0.00         2.00
   86.68        2978.00           1591           0.00         2.00
   86.71        2978.25           1594           1.00         3.92
   86.73        2978.50           1598           0.00         2.00
   86.76        2978.75           1601           0.00         2.00
   86.79        2979.00           1604           1.00         3.92
   86.82        2979.25           1608           1.00         3.92
   86.85        2979.50           1611           1.00         3.92
   86.87        2979.75           1614           0.00         2.00
   86.91        2980.00           1618           1.00         3.92
   86.93        2980.25           1621           0.00         2.00
   86.96        2980.50           1625           0.00         2.00
   86.99        2980.75           1628           0.00         2.00
   87.02        2981.00           1631           0.00         2.00
   87.05        2981.25           1635           0.00         2.00
   87.07        2981.50           1638           0.00         2.00
   87.10        2981.75           1642           0.00         2.00
   87.13        2982.00           1645           0.00         2.00
   87.16        2982.25           1648           0.00         2.00
   87.19        2982.50           1652           0.00         2.00
   87.21        2982.75           1655           0.00         2.00
   87.25        2983.00           1659           1.00         3.92
   87.27        2983.25           1662           0.00         2.00
   87.30        2983.50           1666           0.00         2.00
   87.33        2983.75           1669           0.00         2.00
   87.36        2984.00           1672           1.00         3.92
HS scan finished at 01:27:44
end
