************************************************************
  HS Scan of 
************************************************************
Integration time is 0.2294 seconds per sample
dh070417El Arenosillo 37.1 6.73 2.5pr1000
************************************************************
Dead Time -------------------------  3.2E-08 
Number of Cycles Used -------------  4 
Starting Wavelength (Angstroms) ---  2950 
Final Wavelength (Angstoms) -------  2984 
Wavelength Increment (Angstroms) --  .25 
Filter Wheel #1 Position ---------- (1) Ground quartz diffuser (ND=2.32)
Filter Wheel #2 Position ---------- (1) Neutral Density 0.494



************************************************************
HS scan start time = 01:20:59
Dark Count =  .4 


Time (GMT)  Wavelength (Ang)  Step Number  Raw Counts  Counts/Second

   81.63        2950.00           1211           0.00         2.00
   81.84        2950.25           1215           1.00         2.62
   81.86        2950.50           1218           0.00         2.00
   81.89        2950.75           1222           0.00         2.00
   81.92        2951.00           1225           0.00         2.00
   81.95        2951.25           1228           0.00         2.00
   81.98        2951.50           1232           1.00         2.62
   82.01        2951.75           1235           1.00         2.62
   82.04        2952.00           1238           1.00         2.62
   82.06        2952.25           1242           0.00         2.00
   82.09        2952.50           1245           0.00         2.00
   82.12        2952.75           1249           0.00         2.00
   82.15        2953.00           1252           1.00         2.62
   82.18        2953.25           1255           0.00         2.00
   82.21        2953.50           1259           0.00         2.00
   82.24        2953.75           1262           0.00         2.00
   82.27        2954.00           1265           1.00         2.62
   82.29        2954.25           1269           0.00         2.00
   82.32        2954.50           1272           0.00         2.00
   82.35        2954.75           1276           1.00         2.62
   82.38        2955.00           1279           1.00         2.62
   82.41        2955.25           1282           0.00         2.00
   82.43        2955.50           1286           0.00         2.00
   82.46        2955.75           1289           0.00         2.00
   82.49        2956.00           1293           0.00         2.00
   82.52        2956.25           1296           0.00         2.00
   82.55        2956.50           1299           0.00         2.00
   82.58        2956.75           1303           0.00         2.00
   82.61        2957.00           1306           0.00         2.00
   82.63        2957.25           1309           1.00         2.62
   82.66        2957.50           1313           0.00         2.00
   82.69        2957.75           1316           0.00         2.00
   82.72        2958.00           1320           0.00         2.00
   82.75        2958.25           1323           2.00         6.97
   82.77        2958.50           1326           0.00         2.00
   82.80        2958.75           1330           0.00         2.00
   82.83        2959.00           1333           0.00         2.00
   82.86        2959.25           1336           0.00         2.00
   82.89        2959.50           1340           0.00         2.00
   82.92        2959.75           1343           0.00         2.00
   82.95        2960.00           1347           0.00         2.00
   82.98        2960.25           1350           0.00         2.00
   83.00        2960.50           1353           1.00         2.62
   83.03        2960.75           1357           0.00         2.00
   83.06        2961.00           1360           0.00         2.00
   83.09        2961.25           1364           0.00         2.00
   83.12        2961.50           1367           1.00         2.62
   83.14        2961.75           1370           0.00         2.00
   83.17        2962.00           1374           0.00         2.00
   83.20        2962.25           1377           1.00         2.62
   83.22        2962.50           1380           0.00         2.00
   83.26        2962.75           1384           1.00         2.62
   83.28        2963.00           1387           0.00         2.00
   83.31        2963.25           1391           0.00         2.00
   83.34        2963.50           1394           0.00         2.00
   83.37        2963.75           1397           0.00         2.00
   83.40        2964.00           1401           1.00         2.62
   83.43        2964.25           1404           0.00         2.00
   83.45        2964.50           1408           1.00         2.62
   83.49        2964.75           1411           0.00         2.00
   83.51        2965.00           1414           1.00         2.62
   83.54        2965.25           1418           0.00         2.00
   83.57        2965.50           1421           0.00         2.00
   83.60        2965.75           1424           0.00         2.00
   83.63        2966.00           1428           1.00         2.62
   83.65        2966.25           1431           0.00         2.00
   83.68        2966.50           1435           0.00         2.00
   83.71        2966.75           1438           1.00         2.62
   83.74        2967.00           1441           0.00         2.00
   83.77        2967.25           1445           1.00         2.62
   83.79        2967.50           1448           0.00         2.00
   83.83        2967.75           1452           0.00         2.00
   83.86        2968.00           1455           0.00         2.00
   83.88        2968.25           1458           1.00         2.62
   83.91        2968.50           1462           0.00         2.00
   83.94        2968.75           1465           0.00         2.00
   83.97        2969.00           1469           0.00         2.00
   83.99        2969.25           1472           0.00         2.00
   84.03        2969.50           1475           0.00         2.00
   84.06        2969.75           1479           1.00         2.62
   84.08        2970.00           1482           0.00         2.00
   84.11        2970.25           1485           0.00         2.00
   84.14        2970.50           1489           1.00         2.62
   84.17        2970.75           1492           0.00         2.00
   84.20        2971.00           1496           0.00         2.00
   84.23        2971.25           1499           1.00         2.62
   84.26        2971.50           1502           0.00         2.00
   84.29        2971.75           1506           0.00         2.00
   84.32        2972.00           1509           1.00         2.62
   84.34        2972.25           1513           0.00         2.00
   84.37        2972.50           1516           0.00         2.00
   84.40        2972.75           1519           0.00         2.00
   84.43        2973.00           1523           0.00         2.00
   84.46        2973.25           1526           0.00         2.00
   84.49        2973.50           1530           0.00         2.00
   84.52        2973.75           1533           0.00         2.00
   84.54        2974.00           1536           0.00         2.00
   84.57        2974.25           1540           0.00         2.00
   84.60        2974.50           1543           0.00         2.00
   84.63        2974.75           1547           0.00         2.00
   84.66        2975.00           1550           0.00         2.00
   84.68        2975.25           1553           0.00         2.00
   84.71        2975.50           1557           0.00         2.00
   84.74        2975.75           1560           0.00         2.00
   84.77        2976.00           1564           1.00         2.62
   84.80        2976.25           1567           0.00         2.00
   84.83        2976.50           1570           0.00         2.00
   84.86        2976.75           1574           1.00         2.62
   84.88        2977.00           1577           0.00         2.00
   84.91        2977.25           1581           0.00         2.00
   84.94        2977.50           1584           0.00         2.00
   84.97        2977.75           1587           0.00         2.00
   85.00        2978.00           1591           0.00         2.00
   85.02        2978.25           1594           1.00         2.62
   85.05        2978.50           1598           0.00         2.00
   85.08        2978.75           1601           1.00         2.62
   85.11        2979.00           1604           0.00         2.00
   85.14        2979.25           1608           1.00         2.62
   85.16        2979.50           1611           0.00         2.00
   85.19        2979.75           1614           0.00         2.00
   85.22        2980.00           1618           0.00         2.00
   85.24        2980.25           1621           0.00         2.00
   85.27        2980.50           1625           0.00         2.00
   85.30        2980.75           1628           0.00         2.00
   85.33        2981.00           1631           0.00         2.00
   85.36        2981.25           1635           0.00         2.00
   85.39        2981.50           1638           1.00         2.62
   85.42        2981.75           1642           0.00         2.00
   85.44        2982.00           1645           0.00         2.00
   85.47        2982.25           1648           0.00         2.00
   85.50        2982.50           1652           0.00         2.00
   85.53        2982.75           1655           0.00         2.00
   85.56        2983.00           1659           0.00         2.00
   85.59        2983.25           1662           1.00         2.62
   85.62        2983.50           1666           0.00         2.00
   85.65        2983.75           1669           0.00         2.00
   85.68        2984.00           1672           0.00         2.00
HS scan finished at 01:26:03
end
