************************************************************
  HS Scan of 
************************************************************
Integration time is 0.2294 seconds per sample
dh140417El Arenosillo 37.1 6.73 2.66pr1000
************************************************************
Dead Time -------------------------  3.2E-08 
Number of Cycles Used -------------  4 
Starting Wavelength (Angstroms) ---  2950 
Final Wavelength (Angstoms) -------  2984 
Wavelength Increment (Angstroms) --  .25 
Filter Wheel #1 Position ---------- (1) Ground quartz diffuser (ND=2.32)
Filter Wheel #2 Position ---------- (1) Neutral Density 0.494



************************************************************
HS scan start time = 01:19:37
Dark Count =  .5 


Time (GMT)  Wavelength (Ang)  Step Number  Raw Counts  Counts/Second

   80.26        2950.00           1211           0.00         2.00
   80.47        2950.25           1215           0.00         2.00
   80.50        2950.50           1218           0.00         2.00
   80.53        2950.75           1222           0.00         2.00
   80.56        2951.00           1225           1.00         2.18
   80.59        2951.25           1228           0.00         2.00
   80.62        2951.50           1232           1.00         2.18
   80.65        2951.75           1235           0.00         2.00
   80.68        2952.00           1238           0.00         2.00
   80.70        2952.25           1242           0.00         2.00
   80.73        2952.50           1245           0.00         2.00
   80.76        2952.75           1249           1.00         2.18
   80.79        2953.00           1252           0.00         2.00
   80.82        2953.25           1255           0.00         2.00
   80.84        2953.50           1259           1.00         2.18
   80.87        2953.75           1262           0.00         2.00
   80.90        2954.00           1265           1.00         2.18
   80.92        2954.25           1269           0.00         2.00
   80.95        2954.50           1272           0.00         2.00
   80.98        2954.75           1276           0.00         2.00
   81.01        2955.00           1279           1.00         2.18
   81.04        2955.25           1282           0.00         2.00
   81.06        2955.50           1286           1.00         2.18
   81.10        2955.75           1289           0.00         2.00
   81.12        2956.00           1293           0.00         2.00
   81.15        2956.25           1296           0.00         2.00
   81.18        2956.50           1299           1.00         2.18
   81.21        2956.75           1303           1.00         2.18
   81.24        2957.00           1306           0.00         2.00
   81.27        2957.25           1309           1.00         2.18
   81.29        2957.50           1313           0.00         2.00
   81.33        2957.75           1316           0.00         2.00
   81.35        2958.00           1320           0.00         2.00
   81.38        2958.25           1323           1.00         2.18
   81.41        2958.50           1326           1.00         2.18
   81.44        2958.75           1330           0.00         2.00
   81.47        2959.00           1333           0.00         2.00
   81.49        2959.25           1336           1.00         2.18
   81.52        2959.50           1340           0.00         2.00
   81.56        2959.75           1343           0.00         2.00
   81.58        2960.00           1347           1.00         2.18
   81.61        2960.25           1350           0.00         2.00
   81.63        2960.50           1353           1.00         2.18
   81.67        2960.75           1357           0.00         2.00
   81.70        2961.00           1360           0.00         2.00
   81.72        2961.25           1364           0.00         2.00
   81.75        2961.50           1367           0.00         2.00
   81.78        2961.75           1370           0.00         2.00
   81.81        2962.00           1374           0.00         2.00
   81.84        2962.25           1377           1.00         2.18
   81.87        2962.50           1380           0.00         2.00
   81.90        2962.75           1384           0.00         2.00
   81.93        2963.00           1387           1.00         2.18
   81.95        2963.25           1391           0.00         2.00
   81.98        2963.50           1394           0.00         2.00
   82.01        2963.75           1397           0.00         2.00
   82.04        2964.00           1401           0.00         2.00
   82.07        2964.25           1404           1.00         2.18
   82.10        2964.50           1408           0.00         2.00
   82.13        2964.75           1411           0.00         2.00
   82.16        2965.00           1414           0.00         2.00
   82.19        2965.25           1418           0.00         2.00
   82.22        2965.50           1421           0.00         2.00
   82.25        2965.75           1424           0.00         2.00
   82.27        2966.00           1428           0.00         2.00
   82.30        2966.25           1431           0.00         2.00
   82.33        2966.50           1435           0.00         2.00
   82.36        2966.75           1438           0.00         2.00
   82.39        2967.00           1441           1.00         2.18
   82.41        2967.25           1445           0.00         2.00
   82.44        2967.50           1448           0.00         2.00
   82.47        2967.75           1452           0.00         2.00
   82.50        2968.00           1455           1.00         2.18
   82.53        2968.25           1458           0.00         2.00
   82.56        2968.50           1462           1.00         2.18
   82.59        2968.75           1465           1.00         2.18
   82.62        2969.00           1469           0.00         2.00
   82.64        2969.25           1472           1.00         2.18
   82.67        2969.50           1475           0.00         2.00
   82.70        2969.75           1479           0.00         2.00
   82.73        2970.00           1482           0.00         2.00
   82.76        2970.25           1485           1.00         2.18
   82.79        2970.50           1489           1.00         2.18
   82.82        2970.75           1492           0.00         2.00
   82.85        2971.00           1496           0.00         2.00
   82.88        2971.25           1499           1.00         2.18
   82.91        2971.50           1502           1.00         2.18
   82.94        2971.75           1506           0.00         2.00
   82.97        2972.00           1509           1.00         2.18
   82.99        2972.25           1513           0.00         2.00
   83.02        2972.50           1516           1.00         2.18
   83.05        2972.75           1519           1.00         2.18
   83.08        2973.00           1523           0.00         2.00
   83.11        2973.25           1526           1.00         2.18
   83.14        2973.50           1530           0.00         2.00
   83.16        2973.75           1533           0.00         2.00
   83.19        2974.00           1536           0.00         2.00
   83.21        2974.25           1540           0.00         2.00
   83.24        2974.50           1543           1.00         2.18
   83.27        2974.75           1547           0.00         2.00
   83.30        2975.00           1550           1.00         2.18
   83.33        2975.25           1553           1.00         2.18
   83.36        2975.50           1557           1.00         2.18
   83.39        2975.75           1560           0.00         2.00
   83.42        2976.00           1564           0.00         2.00
   83.44        2976.25           1567           0.00         2.00
   83.48        2976.50           1570           1.00         2.18
   83.50        2976.75           1574           1.00         2.18
   83.53        2977.00           1577           0.00         2.00
   83.56        2977.25           1581           0.00         2.00
   83.59        2977.50           1584           0.00         2.00
   83.62        2977.75           1587           0.00         2.00
   83.65        2978.00           1591           1.00         2.18
   83.67        2978.25           1594           1.00         2.18
   83.71        2978.50           1598           1.00         2.18
   83.73        2978.75           1601           0.00         2.00
   83.76        2979.00           1604           0.00         2.00
   83.79        2979.25           1608           1.00         2.18
   83.82        2979.50           1611           0.00         2.00
   83.85        2979.75           1614           1.00         2.18
   83.87        2980.00           1618           0.00         2.00
   83.90        2980.25           1621           0.00         2.00
   83.93        2980.50           1625           1.00         2.18
   83.96        2980.75           1628           0.00         2.00
   83.99        2981.00           1631           0.00         2.00
   84.02        2981.25           1635           1.00         2.18
   84.05        2981.50           1638           0.00         2.00
   84.07        2981.75           1642           1.00         2.18
   84.10        2982.00           1645           0.00         2.00
   84.13        2982.25           1648           0.00         2.00
   84.16        2982.50           1652           0.00         2.00
   84.19        2982.75           1655           0.00         2.00
   84.21        2983.00           1659           0.00         2.00
   84.24        2983.25           1662           0.00         2.00
   84.27        2983.50           1666           1.00         2.18
   84.30        2983.75           1669           0.00         2.00
   84.33        2984.00           1672           0.00         2.00
HS scan finished at 01:24:42
end
