************************************************************
  HS Scan of 
************************************************************
Integration time is 0.2294 seconds per sample
dh210417El Arenosillo 37.1 6.73 2.62pr1000
************************************************************
Dead Time -------------------------  3.2E-08 
Number of Cycles Used -------------  4 
Starting Wavelength (Angstroms) ---  2950 
Final Wavelength (Angstoms) -------  2984 
Wavelength Increment (Angstroms) --  .25 
Filter Wheel #1 Position ---------- (1) Ground quartz diffuser (ND=2.32)
Filter Wheel #2 Position ---------- (1) Neutral Density 0.494



************************************************************
HS scan start time = 01:18:24
Dark Count =  .3 


Time (GMT)  Wavelength (Ang)  Step Number  Raw Counts  Counts/Second

   79.04        2950.00           1211           0.00         2.00
   79.25        2950.25           1215           1.00         3.05
   79.27        2950.50           1218           0.00         2.00
   79.30        2950.75           1222           0.00         2.00
   79.34        2951.00           1225           0.00         2.00
   79.36        2951.25           1228           1.00         3.05
   79.39        2951.50           1232           0.00         2.00
   79.42        2951.75           1235           0.00         2.00
   79.45        2952.00           1238           1.00         3.05
   79.48        2952.25           1242           0.00         2.00
   79.50        2952.50           1245           0.00         2.00
   79.53        2952.75           1249           0.00         2.00
   79.56        2953.00           1252           1.00         3.05
   79.58        2953.25           1255           0.00         2.00
   79.60        2953.50           1259           0.00         2.00
   79.63        2953.75           1262           1.00         3.05
   79.66        2954.00           1265           1.00         3.05
   79.69        2954.25           1269           0.00         2.00
   79.72        2954.50           1272           0.00         2.00
   79.75        2954.75           1276           0.00         2.00
   79.78        2955.00           1279           0.00         2.00
   79.80        2955.25           1282           0.00         2.00
   79.83        2955.50           1286           1.00         3.05
   79.86        2955.75           1289           0.00         2.00
   79.89        2956.00           1293           0.00         2.00
   79.92        2956.25           1296           0.00         2.00
   79.94        2956.50           1299           0.00         2.00
   79.97        2956.75           1303           1.00         3.05
   80.00        2957.00           1306           0.00         2.00
   80.03        2957.25           1309           0.00         2.00
   80.06        2957.50           1313           0.00         2.00
   80.09        2957.75           1316           0.00         2.00
   80.12        2958.00           1320           0.00         2.00
   80.15        2958.25           1323           0.00         2.00
   80.17        2958.50           1326           0.00         2.00
   80.20        2958.75           1330           1.00         3.05
   80.23        2959.00           1333           0.00         2.00
   80.25        2959.25           1336           0.00         2.00
   80.28        2959.50           1340           0.00         2.00
   80.31        2959.75           1343           0.00         2.00
   80.34        2960.00           1347           0.00         2.00
   80.37        2960.25           1350           0.00         2.00
   80.39        2960.50           1353           1.00         3.05
   80.43        2960.75           1357           0.00         2.00
   80.45        2961.00           1360           0.00         2.00
   80.48        2961.25           1364           0.00         2.00
   80.51        2961.50           1367           0.00         2.00
   80.54        2961.75           1370           0.00         2.00
   80.57        2962.00           1374           0.00         2.00
   80.60        2962.25           1377           0.00         2.00
   80.62        2962.50           1380           0.00         2.00
   80.66        2962.75           1384           0.00         2.00
   80.68        2963.00           1387           0.00         2.00
   80.71        2963.25           1391           1.00         3.05
   80.74        2963.50           1394           0.00         2.00
   80.77        2963.75           1397           1.00         3.05
   80.80        2964.00           1401           0.00         2.00
   80.83        2964.25           1404           0.00         2.00
   80.86        2964.50           1408           0.00         2.00
   80.89        2964.75           1411           0.00         2.00
   80.92        2965.00           1414           1.00         3.05
   80.95        2965.25           1418           0.00         2.00
   80.97        2965.50           1421           0.00         2.00
   81.01        2965.75           1424           0.00         2.00
   81.03        2966.00           1428           0.00         2.00
   81.06        2966.25           1431           0.00         2.00
   81.09        2966.50           1435           0.00         2.00
   81.12        2966.75           1438           0.00         2.00
   81.15        2967.00           1441           0.00         2.00
   81.17        2967.25           1445           0.00         2.00
   81.20        2967.50           1448           1.00         3.05
   81.23        2967.75           1452           0.00         2.00
   81.26        2968.00           1455           0.00         2.00
   81.29        2968.25           1458           0.00         2.00
   81.32        2968.50           1462           1.00         3.05
   81.35        2968.75           1465           0.00         2.00
   81.37        2969.00           1469           0.00         2.00
   81.40        2969.25           1472           0.00         2.00
   81.43        2969.50           1475           1.00         3.05
   81.46        2969.75           1479           0.00         2.00
   81.49        2970.00           1482           0.00         2.00
   81.52        2970.25           1485           0.00         2.00
   81.55        2970.50           1489           1.00         3.05
   81.58        2970.75           1492           0.00         2.00
   81.61        2971.00           1496           0.00         2.00
   81.64        2971.25           1499           1.00         3.05
   81.67        2971.50           1502           0.00         2.00
   81.70        2971.75           1506           0.00         2.00
   81.72        2972.00           1509           1.00         3.05
   81.75        2972.25           1513           0.00         2.00
   81.78        2972.50           1516           0.00         2.00
   81.81        2972.75           1519           0.00         2.00
   81.84        2973.00           1523           0.00         2.00
   81.86        2973.25           1526           0.00         2.00
   81.89        2973.50           1530           0.00         2.00
   81.92        2973.75           1533           0.00         2.00
   81.95        2974.00           1536           0.00         2.00
   81.98        2974.25           1540           0.00         2.00
   82.01        2974.50           1543           0.00         2.00
   82.04        2974.75           1547           1.00         3.05
   82.07        2975.00           1550           0.00         2.00
   82.09        2975.25           1553           0.00         2.00
   82.12        2975.50           1557           0.00         2.00
   82.15        2975.75           1560           0.00         2.00
   82.18        2976.00           1564           0.00         2.00
   82.20        2976.25           1567           0.00         2.00
   82.23        2976.50           1570           0.00         2.00
   82.27        2976.75           1574           0.00         2.00
   82.29        2977.00           1577           1.00         3.05
   82.32        2977.25           1581           0.00         2.00
   82.35        2977.50           1584           0.00         2.00
   82.38        2977.75           1587           1.00         3.05
   82.41        2978.00           1591           1.00         3.05
   82.43        2978.25           1594           0.00         2.00
   82.46        2978.50           1598           0.00         2.00
   82.49        2978.75           1601           1.00         3.05
   82.52        2979.00           1604           0.00         2.00
   82.55        2979.25           1608           0.00         2.00
   82.58        2979.50           1611           0.00         2.00
   82.61        2979.75           1614           0.00         2.00
   82.63        2980.00           1618           0.00         2.00
   82.66        2980.25           1621           1.00         3.05
   82.69        2980.50           1625           0.00         2.00
   82.72        2980.75           1628           0.00         2.00
   82.75        2981.00           1631           1.00         3.05
   82.77        2981.25           1635           1.00         3.05
   82.80        2981.50           1638           0.00         2.00
   82.83        2981.75           1642           0.00         2.00
   82.86        2982.00           1645           1.00         3.05
   82.89        2982.25           1648           0.00         2.00
   82.92        2982.50           1652           0.00         2.00
   82.95        2982.75           1655           0.00         2.00
   82.97        2983.00           1659           1.00         3.05
   83.00        2983.25           1662           0.00         2.00
   83.03        2983.50           1666           0.00         2.00
   83.06        2983.75           1669           1.00         3.05
   83.09        2984.00           1672           0.00         2.00
HS scan finished at 01:23:28
end
