************************************************************
  HS Scan of (1) Internal mercury lamp
************************************************************
Integration time is 0.2294 seconds per sample
dh280419El Arenosillo 37.1 6.73 2.68pr1000
************************************************************
Dead Time -------------------------  3.2E-08 
Number of Cycles Used -------------  4 
Starting Wavelength (Angstroms) ---  2950 
Final Wavelength (Angstoms) -------  2984 
Wavelength Increment (Angstroms) --  .25 
Filter Wheel #1 Position ---------- (1) Ground quartz diffuser (ND=2.32)
Filter Wheel #2 Position ---------- (1) Neutral Density 0.494



************************************************************
HS scan start time = 01:21:57
Dark Count =  .3 


Time (GMT)  Wavelength (Ang)  Step Number  Raw Counts  Counts/Second

   82.58        2950.00           1211          36.00       155.62
   82.80        2950.25           1215          45.00       194.86
   82.82        2950.50           1218          36.00       155.62
   82.85        2950.75           1222          42.00       181.78
   82.89        2951.00           1225          40.00       173.06
   82.91        2951.25           1228          37.00       159.98
   82.94        2951.50           1232          39.00       168.70
   82.97        2951.75           1235          41.00       177.42
   83.00        2952.00           1238          42.00       181.78
   83.03        2952.25           1242          38.00       164.34
   83.05        2952.50           1245          40.00       173.06
   83.09        2952.75           1249          36.00       155.62
   83.11        2953.00           1252          42.00       181.78
   83.14        2953.25           1255          42.00       181.78
   83.17        2953.50           1259          40.00       173.06
   83.20        2953.75           1262          44.00       190.50
   83.23        2954.00           1265          38.00       164.34
   83.25        2954.25           1269          42.00       181.78
   83.29        2954.50           1272          52.00       225.37
   83.32        2954.75           1276          39.00       168.70
   83.34        2955.00           1279          44.00       190.50
   83.37        2955.25           1282          42.00       181.78
   83.40        2955.50           1286          39.00       168.70
   83.43        2955.75           1289          45.00       194.86
   83.46        2956.00           1293          39.00       168.70
   83.49        2956.25           1296          40.00       173.06
   83.52        2956.50           1299          44.00       190.50
   83.54        2956.75           1303          43.00       186.14
   83.57        2957.00           1306          37.00       159.98
   83.60        2957.25           1309          39.00       168.70
   83.63        2957.50           1313          39.00       168.70
   83.66        2957.75           1316          46.00       199.22
   83.69        2958.00           1320          41.00       177.42
   83.72        2958.25           1323          36.00       155.62
   83.74        2958.50           1326          45.00       194.86
   83.77        2958.75           1330          46.00       199.22
   83.80        2959.00           1333          50.00       216.65
   83.83        2959.25           1336          59.00       255.89
   83.86        2959.50           1340          62.00       268.96
   83.89        2959.75           1343          67.00       290.76
   83.92        2960.00           1347          87.00       377.95
   83.94        2960.25           1350          93.00       404.10
   83.97        2960.50           1353         157.00       683.10
   84.01        2960.75           1357         156.00       678.74
   84.03        2961.00           1360         190.00       826.96
   84.06        2961.25           1364         342.00      1489.61
   84.09        2961.50           1367        1013.00      4415.18
   84.12        2961.75           1370        2609.00     11375.98
   84.15        2962.00           1374        7253.00     31647.99
   84.18        2962.25           1377       12205.00     53293.51
   84.21        2962.50           1380       16556.00     72336.82
   84.23        2962.75           1384       23149.00    101237.20
   84.26        2963.00           1387       28162.00    123247.50
   84.29        2963.25           1391       34382.00    150600.70
   84.32        2963.50           1394       38596.00    169159.50
   84.35        2963.75           1397       43444.00    190537.90
   84.38        2964.00           1401       49778.00    218513.50
   84.41        2964.25           1404       54808.00    240765.50
   84.44        2964.50           1408       61802.00    271758.90
   84.46        2964.75           1411       66688.00    293447.60
   84.50        2965.00           1414       71815.00    316238.60
   84.53        2965.25           1418       78026.00    343893.20
   84.55        2965.50           1421       82856.00    365432.90
   84.58        2965.75           1424       87554.00    386412.60
   84.61        2966.00           1428       93314.00    412173.60
   84.63        2966.25           1431       98078.00    433512.50
   84.66        2966.50           1435      103491.00    457794.00
   84.69        2966.75           1438      105249.00    465688.20
   84.72        2967.00           1441      106592.00    471721.60
   84.75        2967.25           1445      106394.00    470831.90
   84.78        2967.50           1448      106083.00    469434.60
   84.81        2967.75           1452      105336.00    466079.00
   84.83        2968.00           1455      103248.00    456703.20
   84.86        2968.25           1458       99399.00    439434.70
   84.89        2968.50           1462       93604.00    413471.70
   84.92        2968.75           1465       88817.00    392057.60
   84.95        2969.00           1469       82912.00    365682.80
   84.98        2969.25           1472       77922.00    343429.70
   85.01        2969.50           1475       73312.00    322899.50
   85.04        2969.75           1479       66702.00    293509.80
   85.06        2970.00           1482       61890.00    272149.30
   85.10        2970.25           1485       57146.00    251119.30
   85.13        2970.50           1489       50570.00    222015.10
   85.15        2970.75           1492       45916.00    201450.10
   85.19        2971.00           1496       39668.00    173884.20
   85.22        2971.25           1499       34452.00    150908.80
   85.24        2971.50           1502       30047.00    131532.00
   85.27        2971.75           1506       23544.00    102970.40
   85.30        2972.00           1509       18790.00     82123.56
   85.33        2972.25           1513       11921.00     52051.32
   85.36        2972.50           1516        7455.00     32530.36
   85.39        2972.75           1519        3742.00     16319.33
   85.42        2973.00           1523         723.00      3150.71
   85.44        2973.25           1526         268.00      1167.00
   85.47        2973.50           1530         138.00       600.27
   85.50        2973.75           1533         127.00       552.32
   85.53        2974.00           1536          89.00       386.67
   85.56        2974.25           1540          69.00       299.48
   85.59        2974.50           1543          60.00       260.25
   85.62        2974.75           1547          58.00       251.53
   85.64        2975.00           1550          54.00       234.09
   85.67        2975.25           1553          45.00       194.86
   85.70        2975.50           1557          51.00       221.01
   85.73        2975.75           1560          56.00       242.81
   85.76        2976.00           1564          53.00       229.73
   85.79        2976.25           1567          49.00       212.29
   85.82        2976.50           1570          45.00       194.86
   85.85        2976.75           1574          50.00       216.65
   85.87        2977.00           1577          48.00       207.94
   85.91        2977.25           1581          49.00       212.29
   85.93        2977.50           1584          51.00       221.01
   85.96        2977.75           1587          49.00       212.29
   85.99        2978.00           1591          49.00       212.29
   86.02        2978.25           1594          47.00       203.58
   86.05        2978.50           1598          48.00       207.94
   86.07        2978.75           1601          49.00       212.29
   86.11        2979.00           1604          42.00       181.78
   86.13        2979.25           1608          50.00       216.65
   86.16        2979.50           1611          51.00       221.01
   86.19        2979.75           1614          49.00       212.29
   86.22        2980.00           1618          47.00       203.58
   86.25        2980.25           1621          48.00       207.94
   86.27        2980.50           1625          51.00       221.01
   86.31        2980.75           1628          44.00       190.50
   86.33        2981.00           1631          46.00       199.22
   86.36        2981.25           1635          49.00       212.29
   86.40        2981.50           1638          49.00       212.29
   86.42        2981.75           1642          46.00       199.22
   86.45        2982.00           1645          45.00       194.86
   86.48        2982.25           1648          42.00       181.78
   86.51        2982.50           1652          48.00       207.94
   86.54        2982.75           1655          47.00       203.58
   86.56        2983.00           1659          43.00       186.14
   86.60        2983.25           1662          52.00       225.37
   86.63        2983.50           1666          45.00       194.86
   86.65        2983.75           1669          50.00       216.65
   86.68        2984.00           1672          51.00       221.01
HS scan finished at 01:27:03
end
