************************************************************
  HS Scan of 
************************************************************
Integration time is 0.2294 seconds per sample
dh280417El Arenosillo 37.1 6.73 2.72pr1000
************************************************************
Dead Time -------------------------  3.2E-08 
Number of Cycles Used -------------  4 
Starting Wavelength (Angstroms) ---  2950 
Final Wavelength (Angstoms) -------  2984 
Wavelength Increment (Angstroms) --  .25 
Filter Wheel #1 Position ---------- (1) Ground quartz diffuser (ND=2.32)
Filter Wheel #2 Position ---------- (1) Neutral Density 0.494



************************************************************
HS scan start time = 01:17:36
Dark Count =  .2 


Time (GMT)  Wavelength (Ang)  Step Number  Raw Counts  Counts/Second

   78.24        2950.00           1211           0.00         2.00
   78.45        2950.25           1215           0.00         2.00
   78.48        2950.50           1218           1.00         3.49
   78.51        2950.75           1222           0.00         2.00
   78.54        2951.00           1225           0.00         2.00
   78.57        2951.25           1228           0.00         2.00
   78.59        2951.50           1232           1.00         3.49
   78.63        2951.75           1235           0.00         2.00
   78.66        2952.00           1238           1.00         3.49
   78.68        2952.25           1242           0.00         2.00
   78.71        2952.50           1245           0.00         2.00
   78.74        2952.75           1249           0.00         2.00
   78.77        2953.00           1252           1.00         3.49
   78.80        2953.25           1255           0.00         2.00
   78.82        2953.50           1259           0.00         2.00
   78.86        2953.75           1262           1.00         3.49
   78.88        2954.00           1265           0.00         2.00
   78.91        2954.25           1269           1.00         3.49
   78.94        2954.50           1272           0.00         2.00
   78.97        2954.75           1276           0.00         2.00
   79.00        2955.00           1279           1.00         3.49
   79.02        2955.25           1282           1.00         3.49
   79.05        2955.50           1286           0.00         2.00
   79.08        2955.75           1289           0.00         2.00
   79.11        2956.00           1293           0.00         2.00
   79.14        2956.25           1296           0.00         2.00
   79.17        2956.50           1299           0.00         2.00
   79.20        2956.75           1303           0.00         2.00
   79.22        2957.00           1306           0.00         2.00
   79.25        2957.25           1309           0.00         2.00
   79.28        2957.50           1313           1.00         3.49
   79.31        2957.75           1316           0.00         2.00
   79.34        2958.00           1320           1.00         3.49
   79.37        2958.25           1323           0.00         2.00
   79.40        2958.50           1326           0.00         2.00
   79.43        2958.75           1330           0.00         2.00
   79.45        2959.00           1333           1.00         3.49
   79.48        2959.25           1336           0.00         2.00
   79.51        2959.50           1340           0.00         2.00
   79.54        2959.75           1343           1.00         3.49
   79.57        2960.00           1347           0.00         2.00
   79.59        2960.25           1350           1.00         3.49
   79.63        2960.50           1353           1.00         3.49
   79.66        2960.75           1357           0.00         2.00
   79.68        2961.00           1360           1.00         3.49
   79.71        2961.25           1364           0.00         2.00
   79.74        2961.50           1367           0.00         2.00
   79.77        2961.75           1370           0.00         2.00
   79.80        2962.00           1374           0.00         2.00
   79.82        2962.25           1377           1.00         3.49
   79.86        2962.50           1380           0.00         2.00
   79.88        2962.75           1384           0.00         2.00
   79.91        2963.00           1387           0.00         2.00
   79.94        2963.25           1391           1.00         3.49
   79.97        2963.50           1394           1.00         3.49
   80.00        2963.75           1397           0.00         2.00
   80.03        2964.00           1401           1.00         3.49
   80.06        2964.25           1404           1.00         3.49
   80.09        2964.50           1408           0.00         2.00
   80.12        2964.75           1411           0.00         2.00
   80.14        2965.00           1414           1.00         3.49
   80.18        2965.25           1418           0.00         2.00
   80.21        2965.50           1421           0.00         2.00
   80.23        2965.75           1424           0.00         2.00
   80.26        2966.00           1428           0.00         2.00
   80.29        2966.25           1431           1.00         3.49
   80.32        2966.50           1435           0.00         2.00
   80.35        2966.75           1438           1.00         3.49
   80.37        2967.00           1441           1.00         3.49
   80.41        2967.25           1445           1.00         3.49
   80.43        2967.50           1448           0.00         2.00
   80.46        2967.75           1452           0.00         2.00
   80.48        2968.00           1455           0.00         2.00
   80.52        2968.25           1458           0.00         2.00
   80.55        2968.50           1462           0.00         2.00
   80.57        2968.75           1465           0.00         2.00
   80.60        2969.00           1469           1.00         3.49
   80.63        2969.25           1472           0.00         2.00
   80.66        2969.50           1475           0.00         2.00
   80.69        2969.75           1479           0.00         2.00
   80.72        2970.00           1482           1.00         3.49
   80.74        2970.25           1485           0.00         2.00
   80.77        2970.50           1489           1.00         3.49
   80.80        2970.75           1492           0.00         2.00
   80.83        2971.00           1496           0.00         2.00
   80.86        2971.25           1499           0.00         2.00
   80.89        2971.50           1502           1.00         3.49
   80.91        2971.75           1506           1.00         3.49
   80.95        2972.00           1509           0.00         2.00
   80.97        2972.25           1513           1.00         3.49
   81.00        2972.50           1516           1.00         3.49
   81.02        2972.75           1519           0.00         2.00
   81.06        2973.00           1523           1.00         3.49
   81.09        2973.25           1526           0.00         2.00
   81.11        2973.50           1530           1.00         3.49
   81.14        2973.75           1533           0.00         2.00
   81.17        2974.00           1536           1.00         3.49
   81.20        2974.25           1540           0.00         2.00
   81.23        2974.50           1543           0.00         2.00
   81.26        2974.75           1547           0.00         2.00
   81.29        2975.00           1550           0.00         2.00
   81.31        2975.25           1553           0.00         2.00
   81.34        2975.50           1557           0.00         2.00
   81.37        2975.75           1560           0.00         2.00
   81.39        2976.00           1564           1.00         3.49
   81.42        2976.25           1567           0.00         2.00
   81.44        2976.50           1570           1.00         3.49
   81.48        2976.75           1574           1.00         3.49
   81.51        2977.00           1577           1.00         3.49
   81.53        2977.25           1581           0.00         2.00
   81.56        2977.50           1584           0.00         2.00
   81.59        2977.75           1587           0.00         2.00
   81.62        2978.00           1591           0.00         2.00
   81.65        2978.25           1594           0.00         2.00
   81.67        2978.50           1598           0.00         2.00
   81.71        2978.75           1601           0.00         2.00
   81.73        2979.00           1604           0.00         2.00
   81.76        2979.25           1608           0.00         2.00
   81.79        2979.50           1611           0.00         2.00
   81.82        2979.75           1614           1.00         3.49
   81.85        2980.00           1618           1.00         3.49
   81.87        2980.25           1621           0.00         2.00
   81.90        2980.50           1625           0.00         2.00
   81.94        2980.75           1628           1.00         3.49
   81.96        2981.00           1631           0.00         2.00
   81.99        2981.25           1635           1.00         3.49
   82.01        2981.50           1638           1.00         3.49
   82.04        2981.75           1642           0.00         2.00
   82.07        2982.00           1645           0.00         2.00
   82.09        2982.25           1648           0.00         2.00
   82.12        2982.50           1652           1.00         3.49
   82.15        2982.75           1655           1.00         3.49
   82.18        2983.00           1659           1.00         3.49
   82.21        2983.25           1662           0.00         2.00
   82.24        2983.50           1666           0.00         2.00
   82.27        2983.75           1669           1.00         3.49
   82.29        2984.00           1672           1.00         3.49
HS scan finished at 01:22:40
end
