************************************************************
  HS Scan of (1) Internal mercury lamp
************************************************************
Integration time is 0.2294 seconds per sample
dh050519El Arenosillo 37.1 6.73 2.86pr1000
************************************************************
Dead Time -------------------------  3.2E-08 
Number of Cycles Used -------------  4 
Starting Wavelength (Angstroms) ---  2950 
Final Wavelength (Angstoms) -------  2984 
Wavelength Increment (Angstroms) --  .25 
Filter Wheel #1 Position ---------- (1) Ground quartz diffuser (ND=2.32)
Filter Wheel #2 Position ---------- (1) Neutral Density 0.494



************************************************************
HS scan start time = 01:21:18
Dark Count =  .5 


Time (GMT)  Wavelength (Ang)  Step Number  Raw Counts  Counts/Second

   81.93        2950.00           1211          38.00       163.47
   82.14        2950.25           1215          39.00       167.83
   82.17        2950.50           1218          40.00       172.19
   82.20        2950.75           1222          36.00       154.75
   82.23        2951.00           1225          40.00       172.19
   82.26        2951.25           1228          37.00       159.11
   82.28        2951.50           1232          40.00       172.19
   82.31        2951.75           1235          41.00       176.55
   82.35        2952.00           1238          39.00       167.83
   82.37        2952.25           1242          38.00       163.47
   82.40        2952.50           1245          38.00       163.47
   82.43        2952.75           1249          40.00       172.19
   82.46        2953.00           1252          38.00       163.47
   82.49        2953.25           1255          38.00       163.47
   82.51        2953.50           1259          38.00       163.47
   82.54        2953.75           1262          45.00       193.99
   82.56        2954.00           1265          42.00       180.91
   82.59        2954.25           1269          42.00       180.91
   82.62        2954.50           1272          39.00       167.83
   82.65        2954.75           1276          39.00       167.83
   82.68        2955.00           1279          42.00       180.91
   82.71        2955.25           1282          37.00       159.11
   82.74        2955.50           1286          38.00       163.47
   82.77        2955.75           1289          36.00       154.75
   82.79        2956.00           1293          40.00       172.19
   82.83        2956.25           1296          36.00       154.75
   82.86        2956.50           1299          41.00       176.55
   82.88        2956.75           1303          37.00       159.11
   82.92        2957.00           1306          37.00       159.11
   82.94        2957.25           1309          38.00       163.47
   82.97        2957.50           1313          33.00       141.67
   82.99        2957.75           1316          45.00       193.99
   83.03        2958.00           1320          44.00       189.63
   83.06        2958.25           1323          35.00       150.39
   83.08        2958.50           1326          42.00       180.91
   83.12        2958.75           1330          40.00       172.19
   83.14        2959.00           1333          46.00       198.34
   83.17        2959.25           1336          56.00       241.94
   83.20        2959.50           1340          71.00       307.33
   83.23        2959.75           1343          78.00       337.84
   83.26        2960.00           1347          99.00       429.39
   83.28        2960.25           1350         108.00       468.62
   83.32        2960.50           1353         159.00       690.95
   83.34        2960.75           1357         164.00       712.75
   83.37        2961.00           1360         211.00       917.64
   83.40        2961.25           1364         524.00      2282.21
   83.43        2961.50           1367        1487.00      6481.29
   83.46        2961.75           1370        3583.00     15624.64
   83.49        2962.00           1374        8400.00     36658.06
   83.52        2962.25           1377       13265.00     57929.87
   83.55        2962.50           1380       17586.00     76847.43
   83.57        2962.75           1384       23803.00    104106.10
   83.61        2963.00           1387       29028.00    127052.10
   83.63        2963.25           1391       35193.00    154169.80
   83.66        2963.50           1394       40270.00    176537.20
   83.69        2963.75           1397       45443.00    199360.70
   83.72        2964.00           1401       52680.00    231346.70
   83.75        2964.25           1404       57484.00    252615.80
   83.77        2964.50           1408       64546.00    283934.70
   83.81        2964.75           1411       69492.00    305907.20
   83.84        2965.00           1414       74205.00    326873.40
   83.86        2965.25           1418       81041.00    357334.40
   83.90        2965.50           1421       85557.00    377490.30
   83.92        2965.75           1424       90419.00    399219.80
   83.95        2966.00           1428       96493.00    426408.80
   83.98        2966.25           1431      101375.00    448296.70
   84.01        2966.50           1435      106097.00    469496.60
   84.04        2966.75           1438      107732.00    476843.90
   84.06        2967.00           1441      107966.00    477895.70
   84.10        2967.25           1445      108353.00    479635.40
   84.12        2967.50           1448      108363.00    479680.40
   84.15        2967.75           1452      107116.00    474075.40
   84.18        2968.00           1455      105229.00    465597.50
   84.21        2968.25           1458      101450.00    448633.20
   84.24        2968.50           1462       95721.00    422950.50
   84.26        2968.75           1465       90777.00    400821.00
   84.30        2969.00           1469       84362.00    372154.20
   84.33        2969.25           1472       79464.00    350302.00
   84.35        2969.50           1475       74600.00    328631.90
   84.38        2969.75           1479       67409.00    296649.70
   84.41        2970.00           1482       63018.00    277153.00
   84.44        2970.25           1485       58137.00    255509.10
   84.46        2970.50           1489       51322.00    225339.60
   84.50        2970.75           1492       46785.00    205287.10
   84.53        2971.00           1496       39820.00    174553.40
   84.55        2971.25           1499       34907.00    152910.70
   84.59        2971.50           1502       30275.00    132533.40
   84.62        2971.75           1506       23813.00    104149.90
   84.64        2972.00           1509       18974.00     82929.03
   84.67        2972.25           1513       12570.00     54889.27
   84.70        2972.50           1516        7910.00     34517.18
   84.73        2972.75           1519        4105.00     17902.58
   84.76        2973.00           1523         915.00      3987.00
   84.79        2973.25           1526         274.00      1192.29
   84.82        2973.50           1530         148.00       642.99
   84.84        2973.75           1533         121.00       525.29
   84.87        2974.00           1536          88.00       381.43
   84.90        2974.25           1540          61.00       263.73
   84.93        2974.50           1543          53.00       228.86
   84.96        2974.75           1547          53.00       228.86
   84.99        2975.00           1550          54.00       233.22
   85.02        2975.25           1553          54.00       233.22
   85.04        2975.50           1557          52.00       224.50
   85.07        2975.75           1560          47.00       202.70
   85.11        2976.00           1564          44.00       189.63
   85.13        2976.25           1567          48.00       207.06
   85.16        2976.50           1570          48.00       207.06
   85.19        2976.75           1574          42.00       180.91
   85.22        2977.00           1577          44.00       189.63
   85.24        2977.25           1581          47.00       202.70
   85.28        2977.50           1584          47.00       202.70
   85.31        2977.75           1587          44.00       189.63
   85.33        2978.00           1591          48.00       207.06
   85.36        2978.25           1594          43.00       185.27
   85.39        2978.50           1598          41.00       176.55
   85.42        2978.75           1601          47.00       202.70
   85.45        2979.00           1604          50.00       215.78
   85.48        2979.25           1608          46.00       198.34
   85.51        2979.50           1611          42.00       180.91
   85.53        2979.75           1614          44.00       189.63
   85.56        2980.00           1618          50.00       215.78
   85.59        2980.25           1621          47.00       202.70
   85.62        2980.50           1625          43.00       185.27
   85.65        2980.75           1628          45.00       193.99
   85.68        2981.00           1631          51.00       220.14
   85.71        2981.25           1635          41.00       176.55
   85.73        2981.50           1638          42.00       180.91
   85.77        2981.75           1642          50.00       215.78
   85.80        2982.00           1645          42.00       180.91
   85.82        2982.25           1648          43.00       185.27
   85.85        2982.50           1652          37.00       159.11
   85.88        2982.75           1655          39.00       167.83
   85.91        2983.00           1659          45.00       193.99
   85.94        2983.25           1662          43.00       185.27
   85.97        2983.50           1666          46.00       198.34
   86.00        2983.75           1669          42.00       180.91
   86.02        2984.00           1672          48.00       207.06
HS scan finished at 01:26:23
end
