************************************************************
  HS Scan of 
************************************************************
Integration time is 0.2294 seconds per sample
dh190517El Arenosillo 37.1 6.73 2.78pr1000
************************************************************
Dead Time -------------------------  3.2E-08 
Number of Cycles Used -------------  4 
Starting Wavelength (Angstroms) ---  2950 
Final Wavelength (Angstoms) -------  2984 
Wavelength Increment (Angstroms) --  .25 
Filter Wheel #1 Position ---------- (1) Ground quartz diffuser (ND=2.32)
Filter Wheel #2 Position ---------- (1) Neutral Density 0.494



************************************************************
HS scan start time = 01:18:27
Dark Count =  .5 


Time (GMT)  Wavelength (Ang)  Step Number  Raw Counts  Counts/Second

   79.08        2950.00           1211           0.00         2.00
   79.29        2950.25           1215           0.00         2.00
   79.31        2950.50           1218           0.00         2.00
   79.35        2950.75           1222           0.00         2.00
   79.38        2951.00           1225           0.00         2.00
   79.40        2951.25           1228           1.00         2.18
   79.43        2951.50           1232           0.00         2.00
   79.46        2951.75           1235           1.00         2.18
   79.49        2952.00           1238           1.00         2.18
   79.52        2952.25           1242           0.00         2.00
   79.55        2952.50           1245           1.00         2.18
   79.58        2952.75           1249           0.00         2.00
   79.61        2953.00           1252           2.00         6.54
   79.63        2953.25           1255           0.00         2.00
   79.67        2953.50           1259           1.00         2.18
   79.69        2953.75           1262           0.00         2.00
   79.72        2954.00           1265           1.00         2.18
   79.74        2954.25           1269           1.00         2.18
   79.78        2954.50           1272           1.00         2.18
   79.81        2954.75           1276           1.00         2.18
   79.83        2955.00           1279           0.00         2.00
   79.86        2955.25           1282           0.00         2.00
   79.89        2955.50           1286           0.00         2.00
   79.92        2955.75           1289           0.00         2.00
   79.95        2956.00           1293           1.00         2.18
   79.98        2956.25           1296           1.00         2.18
   80.01        2956.50           1299           0.00         2.00
   80.04        2956.75           1303           2.00         6.54
   80.06        2957.00           1306           0.00         2.00
   80.10        2957.25           1309           1.00         2.18
   80.12        2957.50           1313           0.00         2.00
   80.15        2957.75           1316           0.00         2.00
   80.18        2958.00           1320           1.00         2.18
   80.21        2958.25           1323           0.00         2.00
   80.24        2958.50           1326           1.00         2.18
   80.26        2958.75           1330           1.00         2.18
   80.30        2959.00           1333           0.00         2.00
   80.32        2959.25           1336           0.00         2.00
   80.35        2959.50           1340           1.00         2.18
   80.38        2959.75           1343           0.00         2.00
   80.41        2960.00           1347           0.00         2.00
   80.44        2960.25           1350           0.00         2.00
   80.46        2960.50           1353           0.00         2.00
   80.49        2960.75           1357           1.00         2.18
   80.52        2961.00           1360           0.00         2.00
   80.55        2961.25           1364           1.00         2.18
   80.58        2961.50           1367           0.00         2.00
   80.61        2961.75           1370           0.00         2.00
   80.64        2962.00           1374           0.00         2.00
   80.66        2962.25           1377           0.00         2.00
   80.69        2962.50           1380           0.00         2.00
   80.73        2962.75           1384           0.00         2.00
   80.75        2963.00           1387           1.00         2.18
   80.78        2963.25           1391           1.00         2.18
   80.80        2963.50           1394           1.00         2.18
   80.84        2963.75           1397           0.00         2.00
   80.87        2964.00           1401           0.00         2.00
   80.89        2964.25           1404           0.00         2.00
   80.92        2964.50           1408           0.00         2.00
   80.96        2964.75           1411           1.00         2.18
   80.98        2965.00           1414           1.00         2.18
   81.01        2965.25           1418           0.00         2.00
   81.05        2965.50           1421           0.00         2.00
   81.07        2965.75           1424           0.00         2.00
   81.10        2966.00           1428           2.00         6.54
   81.13        2966.25           1431           0.00         2.00
   81.16        2966.50           1435           1.00         2.18
   81.19        2966.75           1438           1.00         2.18
   81.21        2967.00           1441           0.00         2.00
   81.24        2967.25           1445           0.00         2.00
   81.27        2967.50           1448           1.00         2.18
   81.30        2967.75           1452           1.00         2.18
   81.33        2968.00           1455           1.00         2.18
   81.36        2968.25           1458           0.00         2.00
   81.39        2968.50           1462           0.00         2.00
   81.41        2968.75           1465           1.00         2.18
   81.44        2969.00           1469           1.00         2.18
   81.47        2969.25           1472           0.00         2.00
   81.50        2969.50           1475           0.00         2.00
   81.53        2969.75           1479           0.00         2.00
   81.56        2970.00           1482           0.00         2.00
   81.59        2970.25           1485           1.00         2.18
   81.62        2970.50           1489           1.00         2.18
   81.65        2970.75           1492           0.00         2.00
   81.68        2971.00           1496           1.00         2.18
   81.71        2971.25           1499           1.00         2.18
   81.74        2971.50           1502           0.00         2.00
   81.76        2971.75           1506           1.00         2.18
   81.80        2972.00           1509           0.00         2.00
   81.82        2972.25           1513           1.00         2.18
   81.85        2972.50           1516           0.00         2.00
   81.88        2972.75           1519           0.00         2.00
   81.91        2973.00           1523           0.00         2.00
   81.94        2973.25           1526           0.00         2.00
   81.96        2973.50           1530           0.00         2.00
   82.00        2973.75           1533           0.00         2.00
   82.03        2974.00           1536           1.00         2.18
   82.05        2974.25           1540           0.00         2.00
   82.08        2974.50           1543           0.00         2.00
   82.11        2974.75           1547           1.00         2.18
   82.14        2975.00           1550           0.00         2.00
   82.17        2975.25           1553           1.00         2.18
   82.20        2975.50           1557           0.00         2.00
   82.23        2975.75           1560           1.00         2.18
   82.25        2976.00           1564           0.00         2.00
   82.28        2976.25           1567           1.00         2.18
   82.31        2976.50           1570           1.00         2.18
   82.34        2976.75           1574           0.00         2.00
   82.37        2977.00           1577           0.00         2.00
   82.39        2977.25           1581           0.00         2.00
   82.43        2977.50           1584           0.00         2.00
   82.45        2977.75           1587           0.00         2.00
   82.48        2978.00           1591           0.00         2.00
   82.51        2978.25           1594           0.00         2.00
   82.54        2978.50           1598           1.00         2.18
   82.57        2978.75           1601           1.00         2.18
   82.59        2979.00           1604           0.00         2.00
   82.62        2979.25           1608           0.00         2.00
   82.66        2979.50           1611           1.00         2.18
   82.68        2979.75           1614           1.00         2.18
   82.71        2980.00           1618           1.00         2.18
   82.74        2980.25           1621           0.00         2.00
   82.77        2980.50           1625           1.00         2.18
   82.79        2980.75           1628           1.00         2.18
   82.82        2981.00           1631           0.00         2.00
   82.86        2981.25           1635           1.00         2.18
   82.88        2981.50           1638           1.00         2.18
   82.91        2981.75           1642           0.00         2.00
   82.94        2982.00           1645           0.00         2.00
   82.97        2982.25           1648           0.00         2.00
   83.00        2982.50           1652           0.00         2.00
   83.02        2982.75           1655           1.00         2.18
   83.06        2983.00           1659           0.00         2.00
   83.08        2983.25           1662           0.00         2.00
   83.11        2983.50           1666           0.00         2.00
   83.14        2983.75           1669           1.00         2.18
   83.17        2984.00           1672           1.00         2.18
HS scan finished at 01:23:32
end
