************************************************************
  HS Scan of (1) Internal mercury lamp
************************************************************
Integration time is 0.2294 seconds per sample
dh120519El Arenosillo 37.1 6.73 3.15pr1000
************************************************************
Dead Time -------------------------  3.2E-08 
Number of Cycles Used -------------  4 
Starting Wavelength (Angstroms) ---  2950 
Final Wavelength (Angstoms) -------  2984 
Wavelength Increment (Angstroms) --  .25 
Filter Wheel #1 Position ---------- (1) Ground quartz diffuser (ND=2.32)
Filter Wheel #2 Position ---------- (1) Neutral Density 0.494



************************************************************
HS scan start time = 01:21:05
Dark Count =  1.3 


Time (GMT)  Wavelength (Ang)  Step Number  Raw Counts  Counts/Second

   81.70        2950.00           1211          38.00       159.98
   81.92        2950.25           1215          39.00       164.34
   81.95        2950.50           1218          42.00       177.42
   81.98        2950.75           1222          34.00       142.55
   82.01        2951.00           1225          41.00       173.06
   82.04        2951.25           1228          35.00       146.91
   82.07        2951.50           1232          33.00       138.19
   82.10        2951.75           1235          39.00       164.34
   82.13        2952.00           1238          31.00       129.47
   82.15        2952.25           1242          37.00       155.62
   82.18        2952.50           1245          33.00       138.19
   82.21        2952.75           1249          34.00       142.55
   82.24        2953.00           1252          34.00       142.55
   82.27        2953.25           1255          39.00       164.34
   82.30        2953.50           1259          38.00       159.98
   82.33        2953.75           1262          36.00       151.26
   82.35        2954.00           1265          33.00       138.19
   82.38        2954.25           1269          35.00       146.91
   82.41        2954.50           1272          38.00       159.98
   82.44        2954.75           1276          37.00       155.62
   82.47        2955.00           1279          37.00       155.62
   82.50        2955.25           1282          34.00       142.55
   82.53        2955.50           1286          32.00       133.83
   82.55        2955.75           1289          31.00       129.47
   82.59        2956.00           1293          34.00       142.55
   82.62        2956.25           1296          39.00       164.34
   82.64        2956.50           1299          40.00       168.70
   82.67        2956.75           1303          34.00       142.55
   82.70        2957.00           1306          42.00       177.42
   82.73        2957.25           1309          35.00       146.91
   82.76        2957.50           1313          37.00       155.62
   82.79        2957.75           1316          40.00       168.70
   82.82        2958.00           1320          35.00       146.91
   82.85        2958.25           1323          42.00       177.42
   82.87        2958.50           1326          37.00       155.62
   82.91        2958.75           1330          46.00       194.86
   82.94        2959.00           1333          54.00       229.73
   82.96        2959.25           1336          59.00       251.53
   83.00        2959.50           1340          75.00       321.28
   83.02        2959.75           1343          88.00       377.95
   83.05        2960.00           1347         105.00       452.06
   83.07        2960.25           1350         124.00       534.88
   83.11        2960.50           1353         131.00       565.40
   83.14        2960.75           1357         185.00       800.81
   83.16        2961.00           1360         313.00      1358.82
   83.20        2961.25           1364        1098.00      4781.46
   83.22        2961.50           1367        2878.00     12545.14
   83.25        2961.75           1370        6197.00     27031.66
   83.28        2962.00           1374       12399.00     54137.74
   83.31        2962.25           1377       17370.00     75897.71
   83.34        2962.50           1380       22368.00     97806.51
   83.36        2962.75           1384       29433.00    128828.60
   83.40        2963.00           1387       34945.00    153074.50
   83.43        2963.25           1391       41888.00    183668.80
   83.45        2963.50           1394       46799.00    205345.40
   83.49        2963.75           1397       51742.00    227193.70
   83.51        2964.00           1401       58495.00    257092.00
   83.54        2964.25           1404       64076.00    281844.90
   83.57        2964.50           1408       71043.00    312800.20
   83.60        2964.75           1411       76021.00    334956.00
   83.63        2965.00           1414       81415.00    358999.10
   83.66        2965.25           1418       87870.00    387820.30
   83.70        2965.50           1421       92736.00    409582.20
   83.72        2965.75           1424       98006.00    433185.30
   83.75        2966.00           1428      104229.00    461103.00
   83.78        2966.25           1431      108083.00    478418.00
   83.81        2966.50           1435      111155.00    492233.70
   83.84        2966.75           1438      111138.00    492157.20
   83.86        2967.00           1441      111389.00    493286.60
   83.90        2967.25           1445      111405.00    493358.60
   83.92        2967.50           1448      110819.00    490722.00
   83.95        2967.75           1452      108014.00    478107.90
   83.99        2968.00           1455      103937.00    459791.90
   84.01        2968.25           1458       99990.00    442080.50
   84.04        2968.50           1462       93834.00    414496.90
   84.06        2968.75           1465       88717.00    391606.00
   84.10        2969.00           1469       82161.00    362327.10
   84.13        2969.25           1472       77160.00    340029.90
   84.15        2969.50           1475       71774.00    316051.80
   84.19        2969.75           1479       64639.00    284344.00
   84.21        2970.00           1482       59260.00    260482.60
   84.24        2970.25           1485       54438.00    239123.10
   84.27        2970.50           1489       47694.00    209299.00
   84.30        2970.75           1492       43120.00    189103.80
   84.33        2971.00           1496       36447.00    159688.00
   84.36        2971.25           1499       31259.00    136856.60
   84.39        2971.50           1502       26473.00    115823.90
   84.42        2971.75           1506       19563.00     85506.97
   84.45        2972.00           1509       14034.00     61291.42
   84.48        2972.25           1513        7373.00     32167.80
   84.51        2972.50           1516        3468.00     15119.35
   84.53        2972.75           1519        1098.00      4781.46
   84.56        2973.00           1523         257.00      1114.69
   84.59        2973.25           1526         177.00       765.93
   84.62        2973.50           1530         113.00       486.93
   84.65        2973.75           1533          97.00       417.18
   84.68        2974.00           1536          64.00       273.32
   84.71        2974.25           1540          63.00       268.96
   84.73        2974.50           1543          52.00       221.01
   84.77        2974.75           1547          50.00       212.29
   84.80        2975.00           1550          46.00       194.86
   84.82        2975.25           1553          51.00       216.65
   84.85        2975.50           1557          47.00       199.22
   84.88        2975.75           1560          44.00       186.14
   84.91        2976.00           1564          49.00       207.94
   84.94        2976.25           1567          48.00       203.58
   84.97        2976.50           1570          51.00       216.65
   85.00        2976.75           1574          45.00       190.50
   85.02        2977.00           1577          37.00       155.62
   85.05        2977.25           1581          43.00       181.78
   85.08        2977.50           1584          46.00       194.86
   85.11        2977.75           1587          47.00       199.22
   85.14        2978.00           1591          45.00       190.50
   85.17        2978.25           1594          43.00       181.78
   85.20        2978.50           1598          42.00       177.42
   85.22        2978.75           1601          45.00       190.50
   85.26        2979.00           1604          45.00       190.50
   85.29        2979.25           1608          41.00       173.06
   85.31        2979.50           1611          46.00       194.86
   85.34        2979.75           1614          44.00       186.14
   85.37        2980.00           1618          43.00       181.78
   85.40        2980.25           1621          45.00       190.50
   85.43        2980.50           1625          41.00       173.06
   85.46        2980.75           1628          38.00       159.98
   85.49        2981.00           1631          44.00       186.14
   85.51        2981.25           1635          47.00       199.22
   85.54        2981.50           1638          41.00       173.06
   85.57        2981.75           1642          49.00       207.94
   85.60        2982.00           1645          39.00       164.34
   85.63        2982.25           1648          40.00       168.70
   85.66        2982.50           1652          40.00       168.70
   85.69        2982.75           1655          41.00       173.06
   85.71        2983.00           1659          47.00       199.22
   85.75        2983.25           1662          46.00       194.86
   85.77        2983.50           1666          44.00       186.14
   85.80        2983.75           1669          37.00       155.62
   85.83        2984.00           1672          41.00       173.06
HS scan finished at 01:26:12
end
