************************************************************
  HS Scan of 
************************************************************
Integration time is 0.2294 seconds per sample
dh260517El Arenosillo 37.1 6.73 3pr1000
************************************************************
Dead Time -------------------------  3.2E-08 
Number of Cycles Used -------------  4 
Starting Wavelength (Angstroms) ---  2950 
Final Wavelength (Angstoms) -------  2984 
Wavelength Increment (Angstroms) --  .25 
Filter Wheel #1 Position ---------- (1) Ground quartz diffuser (ND=2.32)
Filter Wheel #2 Position ---------- (1) Neutral Density 0.494



************************************************************
HS scan start time = 01:12:24
Dark Count =  .4 


Time (GMT)  Wavelength (Ang)  Step Number  Raw Counts  Counts/Second

   73.05        2950.00           1211           1.00         2.62
   73.26        2950.25           1215           1.00         2.62
   73.29        2950.50           1218           1.00         2.62
   73.31        2950.75           1222           1.00         2.62
   73.34        2951.00           1225           1.00         2.62
   73.37        2951.25           1228           0.00         2.00
   73.40        2951.50           1232           1.00         2.62
   73.43        2951.75           1235           0.00         2.00
   73.45        2952.00           1238           0.00         2.00
   73.49        2952.25           1242           0.00         2.00
   73.52        2952.50           1245           1.00         2.62
   73.54        2952.75           1249           1.00         2.62
   73.57        2953.00           1252           1.00         2.62
   73.60        2953.25           1255           0.00         2.00
   73.63        2953.50           1259           1.00         2.62
   73.66        2953.75           1262           2.00         6.97
   73.69        2954.00           1265           2.00         6.97
   73.72        2954.25           1269           1.00         2.62
   73.75        2954.50           1272           0.00         2.00
   73.78        2954.75           1276           1.00         2.62
   73.80        2955.00           1279           1.00         2.62
   73.83        2955.25           1282           1.00         2.62
   73.86        2955.50           1286           1.00         2.62
   73.90        2955.75           1289           0.00         2.00
   73.92        2956.00           1293           1.00         2.62
   73.95        2956.25           1296           0.00         2.00
   73.98        2956.50           1299           1.00         2.62
   74.01        2956.75           1303           1.00         2.62
   74.04        2957.00           1306           1.00         2.62
   74.07        2957.25           1309           0.00         2.00
   74.10        2957.50           1313           1.00         2.62
   74.13        2957.75           1316           1.00         2.62
   74.16        2958.00           1320           1.00         2.62
   74.19        2958.25           1323           0.00         2.00
   74.21        2958.50           1326           1.00         2.62
   74.24        2958.75           1330           2.00         6.97
   74.28        2959.00           1333           1.00         2.62
   74.30        2959.25           1336           0.00         2.00
   74.33        2959.50           1340           1.00         2.62
   74.36        2959.75           1343           1.00         2.62
   74.39        2960.00           1347           1.00         2.62
   74.42        2960.25           1350           1.00         2.62
   74.45        2960.50           1353           1.00         2.62
   74.47        2960.75           1357           1.00         2.62
   74.50        2961.00           1360           1.00         2.62
   74.54        2961.25           1364           1.00         2.62
   74.56        2961.50           1367           1.00         2.62
   74.59        2961.75           1370           1.00         2.62
   74.62        2962.00           1374           0.00         2.00
   74.64        2962.25           1377           1.00         2.62
   74.68        2962.50           1380           0.00         2.00
   74.71        2962.75           1384           0.00         2.00
   74.73        2963.00           1387           0.00         2.00
   74.76        2963.25           1391           0.00         2.00
   74.80        2963.50           1394           0.00         2.00
   74.82        2963.75           1397           1.00         2.62
   74.85        2964.00           1401           1.00         2.62
   74.88        2964.25           1404           1.00         2.62
   74.91        2964.50           1408           1.00         2.62
   74.94        2964.75           1411           1.00         2.62
   74.97        2965.00           1414           0.00         2.00
   75.00        2965.25           1418           1.00         2.62
   75.03        2965.50           1421           0.00         2.00
   75.06        2965.75           1424           1.00         2.62
   75.09        2966.00           1428           0.00         2.00
   75.11        2966.25           1431           1.00         2.62
   75.14        2966.50           1435           1.00         2.62
   75.17        2966.75           1438           1.00         2.62
   75.20        2967.00           1441           0.00         2.00
   75.23        2967.25           1445           1.00         2.62
   75.25        2967.50           1448           0.00         2.00
   75.28        2967.75           1452           1.00         2.62
   75.31        2968.00           1455           1.00         2.62
   75.34        2968.25           1458           1.00         2.62
   75.37        2968.50           1462           0.00         2.00
   75.39        2968.75           1465           1.00         2.62
   75.42        2969.00           1469           1.00         2.62
   75.45        2969.25           1472           0.00         2.00
   75.48        2969.50           1475           0.00         2.00
   75.51        2969.75           1479           0.00         2.00
   75.54        2970.00           1482           1.00         2.62
   75.57        2970.25           1485           0.00         2.00
   75.60        2970.50           1489           1.00         2.62
   75.63        2970.75           1492           1.00         2.62
   75.66        2971.00           1496           1.00         2.62
   75.68        2971.25           1499           1.00         2.62
   75.72        2971.50           1502           1.00         2.62
   75.75        2971.75           1506           1.00         2.62
   75.77        2972.00           1509           0.00         2.00
   75.80        2972.25           1513           0.00         2.00
   75.83        2972.50           1516           0.00         2.00
   75.86        2972.75           1519           0.00         2.00
   75.89        2973.00           1523           1.00         2.62
   75.92        2973.25           1526           1.00         2.62
   75.95        2973.50           1530           1.00         2.62
   75.98        2973.75           1533           1.00         2.62
   76.00        2974.00           1536           1.00         2.62
   76.03        2974.25           1540           1.00         2.62
   76.06        2974.50           1543           0.00         2.00
   76.09        2974.75           1547           0.00         2.00
   76.12        2975.00           1550           2.00         6.97
   76.14        2975.25           1553           0.00         2.00
   76.17        2975.50           1557           1.00         2.62
   76.20        2975.75           1560           0.00         2.00
   76.23        2976.00           1564           1.00         2.62
   76.26        2976.25           1567           0.00         2.00
   76.28        2976.50           1570           1.00         2.62
   76.31        2976.75           1574           1.00         2.62
   76.35        2977.00           1577           1.00         2.62
   76.37        2977.25           1581           0.00         2.00
   76.40        2977.50           1584           0.00         2.00
   76.43        2977.75           1587           1.00         2.62
   76.46        2978.00           1591           1.00         2.62
   76.49        2978.25           1594           1.00         2.62
   76.52        2978.50           1598           0.00         2.00
   76.54        2978.75           1601           0.00         2.00
   76.57        2979.00           1604           1.00         2.62
   76.61        2979.25           1608           1.00         2.62
   76.63        2979.50           1611           0.00         2.00
   76.66        2979.75           1614           1.00         2.62
   76.69        2980.00           1618           0.00         2.00
   76.71        2980.25           1621           0.00         2.00
   76.74        2980.50           1625           1.00         2.62
   76.76        2980.75           1628           0.00         2.00
   76.79        2981.00           1631           0.00         2.00
   76.82        2981.25           1635           1.00         2.62
   76.85        2981.50           1638           1.00         2.62
   76.88        2981.75           1642           1.00         2.62
   76.90        2982.00           1645           1.00         2.62
   76.93        2982.25           1648           0.00         2.00
   76.96        2982.50           1652           0.00         2.00
   76.99        2982.75           1655           1.00         2.62
   77.01        2983.00           1659           0.00         2.00
   77.04        2983.25           1662           2.00         6.97
   77.07        2983.50           1666           1.00         2.62
   77.10        2983.75           1669           0.00         2.00
   77.13        2984.00           1672           1.00         2.62
HS scan finished at 01:17:30
end
