************************************************************
  HS Scan of 
************************************************************
Integration time is 0.2294 seconds per sample
dh050617El Arenosillo 37.1 6.73 2.96pr1000
************************************************************
Dead Time -------------------------  3.2E-08 
Number of Cycles Used -------------  4 
Starting Wavelength (Angstroms) ---  2950 
Final Wavelength (Angstoms) -------  2984 
Wavelength Increment (Angstroms) --  .25 
Filter Wheel #1 Position ---------- (1) Ground quartz diffuser (ND=2.32)
Filter Wheel #2 Position ---------- (1) Neutral Density 0.494



************************************************************
HS scan start time = 02:16:36
Dark Count =  .8 


Time (GMT)  Wavelength (Ang)  Step Number  Raw Counts  Counts/Second

  137.24        2950.00           1211           0.00         2.00
  137.45        2950.25           1215           0.00         2.00
  137.48        2950.50           1218           0.00         2.00
  137.50        2950.75           1222           0.00         2.00
  137.53        2951.00           1225           1.00         2.00
  137.57        2951.25           1228           0.00         2.00
  137.59        2951.50           1232           0.00         2.00
  137.62        2951.75           1235           1.00         2.00
  137.64        2952.00           1238           0.00         2.00
  137.68        2952.25           1242           1.00         2.00
  137.71        2952.50           1245           1.00         2.00
  137.73        2952.75           1249           1.00         2.00
  137.76        2953.00           1252           1.00         2.00
  137.79        2953.25           1255           1.00         2.00
  137.82        2953.50           1259           1.00         2.00
  137.84        2953.75           1262           1.00         2.00
  137.87        2954.00           1265           1.00         2.00
  137.90        2954.25           1269           0.00         2.00
  137.93        2954.50           1272           1.00         2.00
  137.96        2954.75           1276           1.00         2.00
  137.98        2955.00           1279           1.00         2.00
  138.01        2955.25           1282           0.00         2.00
  138.05        2955.50           1286           1.00         2.00
  138.07        2955.75           1289           0.00         2.00
  138.10        2956.00           1293           1.00         2.00
  138.12        2956.25           1296           0.00         2.00
  138.16        2956.50           1299           1.00         2.00
  138.19        2956.75           1303           1.00         2.00
  138.21        2957.00           1306           0.00         2.00
  138.24        2957.25           1309           0.00         2.00
  138.26        2957.50           1313           1.00         2.00
  138.30        2957.75           1316           0.00         2.00
  138.33        2958.00           1320           1.00         2.00
  138.35        2958.25           1323           1.00         2.00
  138.38        2958.50           1326           0.00         2.00
  138.41        2958.75           1330           0.00         2.00
  138.44        2959.00           1333           0.00         2.00
  138.47        2959.25           1336           1.00         2.00
  138.49        2959.50           1340           1.00         2.00
  138.53        2959.75           1343           0.00         2.00
  138.55        2960.00           1347           0.00         2.00
  138.58        2960.25           1350           1.00         2.00
  138.61        2960.50           1353           0.00         2.00
  138.63        2960.75           1357           0.00         2.00
  138.67        2961.00           1360           1.00         2.00
  138.70        2961.25           1364           0.00         2.00
  138.72        2961.50           1367           0.00         2.00
  138.75        2961.75           1370           1.00         2.00
  138.78        2962.00           1374           1.00         2.00
  138.81        2962.25           1377           0.00         2.00
  138.84        2962.50           1380           1.00         2.00
  138.86        2962.75           1384           1.00         2.00
  138.90        2963.00           1387           1.00         2.00
  138.92        2963.25           1391           1.00         2.00
  138.95        2963.50           1394           0.00         2.00
  138.98        2963.75           1397           1.00         2.00
  139.00        2964.00           1401           1.00         2.00
  139.04        2964.25           1404           0.00         2.00
  139.07        2964.50           1408           0.00         2.00
  139.09        2964.75           1411           2.00         5.23
  139.12        2965.00           1414           0.00         2.00
  139.16        2965.25           1418           0.00         2.00
  139.18        2965.50           1421           0.00         2.00
  139.21        2965.75           1424           1.00         2.00
  139.24        2966.00           1428           0.00         2.00
  139.27        2966.25           1431           1.00         2.00
  139.30        2966.50           1435           1.00         2.00
  139.32        2966.75           1438           1.00         2.00
  139.35        2967.00           1441           1.00         2.00
  139.38        2967.25           1445           0.00         2.00
  139.41        2967.50           1448           0.00         2.00
  139.44        2967.75           1452           0.00         2.00
  139.46        2968.00           1455           0.00         2.00
  139.49        2968.25           1458           1.00         2.00
  139.52        2968.50           1462           1.00         2.00
  139.55        2968.75           1465           1.00         2.00
  139.58        2969.00           1469           1.00         2.00
  139.60        2969.25           1472           1.00         2.00
  139.64        2969.50           1475           0.00         2.00
  139.66        2969.75           1479           0.00         2.00
  139.69        2970.00           1482           1.00         2.00
  139.72        2970.25           1485           0.00         2.00
  139.75        2970.50           1489           0.00         2.00
  139.78        2970.75           1492           1.00         2.00
  139.81        2971.00           1496           1.00         2.00
  139.84        2971.25           1499           1.00         2.00
  139.86        2971.50           1502           1.00         2.00
  139.90        2971.75           1506           1.00         2.00
  139.92        2972.00           1509           1.00         2.00
  139.95        2972.25           1513           0.00         2.00
  139.98        2972.50           1516           1.00         2.00
  140.01        2972.75           1519           1.00         2.00
  140.04        2973.00           1523           0.00         2.00
  140.06        2973.25           1526           0.00         2.00
  140.09        2973.50           1530           1.00         2.00
  140.12        2973.75           1533           0.00         2.00
  140.15        2974.00           1536           1.00         2.00
  140.18        2974.25           1540           1.00         2.00
  140.20        2974.50           1543           1.00         2.00
  140.23        2974.75           1547           0.00         2.00
  140.26        2975.00           1550           0.00         2.00
  140.29        2975.25           1553           0.00         2.00
  140.32        2975.50           1557           0.00         2.00
  140.34        2975.75           1560           0.00         2.00
  140.37        2976.00           1564           1.00         2.00
  140.40        2976.25           1567           1.00         2.00
  140.43        2976.50           1570           0.00         2.00
  140.46        2976.75           1574           1.00         2.00
  140.48        2977.00           1577           1.00         2.00
  140.52        2977.25           1581           1.00         2.00
  140.55        2977.50           1584           0.00         2.00
  140.57        2977.75           1587           2.00         5.23
  140.60        2978.00           1591           0.00         2.00
  140.63        2978.25           1594           0.00         2.00
  140.66        2978.50           1598           1.00         2.00
  140.68        2978.75           1601           1.00         2.00
  140.71        2979.00           1604           0.00         2.00
  140.74        2979.25           1608           1.00         2.00
  140.77        2979.50           1611           1.00         2.00
  140.80        2979.75           1614           0.00         2.00
  140.82        2980.00           1618           0.00         2.00
  140.85        2980.25           1621           1.00         2.00
  140.89        2980.50           1625           0.00         2.00
  140.91        2980.75           1628           1.00         2.00
  140.94        2981.00           1631           1.00         2.00
  140.96        2981.25           1635           1.00         2.00
  140.99        2981.50           1638           1.00         2.00
  141.03        2981.75           1642           0.00         2.00
  141.05        2982.00           1645           0.00         2.00
  141.08        2982.25           1648           0.00         2.00
  141.10        2982.50           1652           1.00         2.00
  141.14        2982.75           1655           1.00         2.00
  141.17        2983.00           1659           1.00         2.00
  141.19        2983.25           1662           0.00         2.00
  141.22        2983.50           1666           0.00         2.00
  141.25        2983.75           1669           0.00         2.00
  141.28        2984.00           1672           1.00         2.00
HS scan finished at 02:21:39
end
************************************************************
  HS Scan of 
************************************************************
Integration time is 0.2294 seconds per sample
dh050617El Arenosillo 37.1 6.73 3.58pr1000
************************************************************
Dead Time -------------------------  3.2E-08 
Number of Cycles Used -------------  4 
Starting Wavelength (Angstroms) ---  2950 
Final Wavelength (Angstoms) -------  2984 
Wavelength Increment (Angstroms) --  .25 
Filter Wheel #1 Position ---------- (1) Ground quartz diffuser (ND=2.32)
Filter Wheel #2 Position ---------- (1) Neutral Density 0.494



************************************************************
HS scan start time = 14:15:28
Dark Count =  3.5 


Time (GMT)  Wavelength (Ang)  Step Number  Raw Counts  Counts/Second

  856.09        2950.00           1211           4.00         2.18
  856.30        2950.25           1215           3.00         2.00
  856.33        2950.50           1218           4.00         2.18
  856.36        2950.75           1222           4.00         2.18
  856.38        2951.00           1225           4.00         2.18
  856.41        2951.25           1228           2.00         2.00
  856.44        2951.50           1232           2.00         2.00
  856.47        2951.75           1235           3.00         2.00
  856.49        2952.00           1238           4.00         2.18
  856.52        2952.25           1242           2.00         2.00
  856.55        2952.50           1245           2.00         2.00
  856.57        2952.75           1249           3.00         2.00
  856.60        2953.00           1252           3.00         2.00
  856.63        2953.25           1255           3.00         2.00
  856.66        2953.50           1259           5.00         6.54
  856.69        2953.75           1262           2.00         2.00
  856.71        2954.00           1265           1.00         2.00
  856.74        2954.25           1269           3.00         2.00
  856.76        2954.50           1272           5.00         6.54
  856.79        2954.75           1276           4.00         2.18
  856.82        2955.00           1279           3.00         2.00
  856.85        2955.25           1282           3.00         2.00
  856.88        2955.50           1286           3.00         2.00
  856.90        2955.75           1289           5.00         6.54
  856.93        2956.00           1293           3.00         2.00
  856.95        2956.25           1296           3.00         2.00
  856.98        2956.50           1299           4.00         2.18
  857.01        2956.75           1303           3.00         2.00
  857.04        2957.00           1306           4.00         2.18
  857.07        2957.25           1309           4.00         2.18
  857.09        2957.50           1313           2.00         2.00
  857.12        2957.75           1316           2.00         2.00
  857.14        2958.00           1320           3.00         2.00
  857.17        2958.25           1323           1.00         2.00
  857.20        2958.50           1326           4.00         2.18
  857.22        2958.75           1330           2.00         2.00
  857.25        2959.00           1333           4.00         2.18
  857.28        2959.25           1336           3.00         2.00
  857.31        2959.50           1340           3.00         2.00
  857.33        2959.75           1343           4.00         2.18
  857.36        2960.00           1347           3.00         2.00
  857.39        2960.25           1350           5.00         6.54
  857.41        2960.50           1353           2.00         2.00
  857.44        2960.75           1357           3.00         2.00
  857.47        2961.00           1360           3.00         2.00
  857.50        2961.25           1364           3.00         2.00
  857.52        2961.50           1367           3.00         2.00
  857.55        2961.75           1370           3.00         2.00
  857.58        2962.00           1374           4.00         2.18
  857.60        2962.25           1377           6.00        10.90
  857.63        2962.50           1380           3.00         2.00
  857.66        2962.75           1384           4.00         2.18
  857.68        2963.00           1387           1.00         2.00
  857.71        2963.25           1391           4.00         2.18
  857.73        2963.50           1394           2.00         2.00
  857.76        2963.75           1397           5.00         6.54
  857.79        2964.00           1401           2.00         2.00
  857.82        2964.25           1404           3.00         2.00
  857.84        2964.50           1408           4.00         2.18
  857.87        2964.75           1411           3.00         2.00
  857.90        2965.00           1414           3.00         2.00
  857.93        2965.25           1418           2.00         2.00
  857.96        2965.50           1421           3.00         2.00
  857.98        2965.75           1424           3.00         2.00
  858.01        2966.00           1428           4.00         2.18
  858.04        2966.25           1431           3.00         2.00
  858.06        2966.50           1435           4.00         2.18
  858.09        2966.75           1438           4.00         2.18
  858.12        2967.00           1441           3.00         2.00
  858.15        2967.25           1445           3.00         2.00
  858.17        2967.50           1448           4.00         2.18
  858.20        2967.75           1452           5.00         6.54
  858.23        2968.00           1455           4.00         2.18
  858.25        2968.25           1458           3.00         2.00
  858.28        2968.50           1462           4.00         2.18
  858.31        2968.75           1465           3.00         2.00
  858.34        2969.00           1469           3.00         2.00
  858.37        2969.25           1472           4.00         2.18
  858.39        2969.50           1475           3.00         2.00
  858.42        2969.75           1479           3.00         2.00
  858.44        2970.00           1482           3.00         2.00
  858.47        2970.25           1485           4.00         2.18
  858.50        2970.50           1489           3.00         2.00
  858.53        2970.75           1492           3.00         2.00
  858.56        2971.00           1496           2.00         2.00
  858.58        2971.25           1499           4.00         2.18
  858.61        2971.50           1502           4.00         2.18
  858.64        2971.75           1506           4.00         2.18
  858.66        2972.00           1509           2.00         2.00
  858.69        2972.25           1513           4.00         2.18
  858.72        2972.50           1516           3.00         2.00
  858.75        2972.75           1519           3.00         2.00
  858.77        2973.00           1523           3.00         2.00
  858.80        2973.25           1526           4.00         2.18
  858.83        2973.50           1530           5.00         6.54
  858.85        2973.75           1533           4.00         2.18
  858.88        2974.00           1536           4.00         2.18
  858.91        2974.25           1540           3.00         2.00
  858.94        2974.50           1543           5.00         6.54
  858.96        2974.75           1547           3.00         2.00
  858.99        2975.00           1550           2.00         2.00
  859.02        2975.25           1553           2.00         2.00
  859.04        2975.50           1557           5.00         6.54
  859.07        2975.75           1560           5.00         6.54
  859.10        2976.00           1564           3.00         2.00
  859.12        2976.25           1567           3.00         2.00
  859.15        2976.50           1570           3.00         2.00
  859.18        2976.75           1574           4.00         2.18
  859.21        2977.00           1577           4.00         2.18
  859.23        2977.25           1581           4.00         2.18
  859.26        2977.50           1584           4.00         2.18
  859.29        2977.75           1587           3.00         2.00
  859.31        2978.00           1591           3.00         2.00
  859.34        2978.25           1594           4.00         2.18
  859.37        2978.50           1598           3.00         2.00
  859.40        2978.75           1601           5.00         6.54
  859.42        2979.00           1604           3.00         2.00
  859.45        2979.25           1608           3.00         2.00
  859.48        2979.50           1611           5.00         6.54
  859.50        2979.75           1614           4.00         2.18
  859.53        2980.00           1618           5.00         6.54
  859.56        2980.25           1621           3.00         2.00
  859.59        2980.50           1625           3.00         2.00
  859.62        2980.75           1628           4.00         2.18
  859.64        2981.00           1631           4.00         2.18
  859.67        2981.25           1635           3.00         2.00
  859.70        2981.50           1638           4.00         2.18
  859.72        2981.75           1642           3.00         2.00
  859.75        2982.00           1645           4.00         2.18
  859.78        2982.25           1648           4.00         2.18
  859.81        2982.50           1652           1.00         2.00
