************************************************************
  HS Scan of 
************************************************************
Integration time is 0.2294 seconds per sample
dh020617El Arenosillo 37.1 6.73 3.11pr1000
************************************************************
Dead Time -------------------------  3.2E-08 
Number of Cycles Used -------------  4 
Starting Wavelength (Angstroms) ---  2950 
Final Wavelength (Angstoms) -------  2984 
Wavelength Increment (Angstroms) --  .25 
Filter Wheel #1 Position ---------- (1) Ground quartz diffuser (ND=2.32)
Filter Wheel #2 Position ---------- (1) Neutral Density 0.494



************************************************************
HS scan start time = 01:13:12
Dark Count =  1.1 


Time (GMT)  Wavelength (Ang)  Step Number  Raw Counts  Counts/Second

   73.84        2950.00           1211           1.00         2.00
   74.06        2950.25           1215           1.00         2.00
   74.08        2950.50           1218           1.00         2.00
   74.11        2950.75           1222           1.00         2.00
   74.13        2951.00           1225           0.00         2.00
   74.16        2951.25           1228           2.00         3.92
   74.19        2951.50           1232           1.00         2.00
   74.22        2951.75           1235           1.00         2.00
   74.25        2952.00           1238           1.00         2.00
   74.27        2952.25           1242           0.00         2.00
   74.30        2952.50           1245           1.00         2.00
   74.34        2952.75           1249           1.00         2.00
   74.36        2953.00           1252           0.00         2.00
   74.39        2953.25           1255           0.00         2.00
   74.41        2953.50           1259           1.00         2.00
   74.45        2953.75           1262           1.00         2.00
   74.48        2954.00           1265           1.00         2.00
   74.50        2954.25           1269           1.00         2.00
   74.53        2954.50           1272           2.00         3.92
   74.56        2954.75           1276           2.00         3.92
   74.59        2955.00           1279           1.00         2.00
   74.62        2955.25           1282           0.00         2.00
   74.64        2955.50           1286           1.00         2.00
   74.68        2955.75           1289           1.00         2.00
   74.70        2956.00           1293           1.00         2.00
   74.73        2956.25           1296           1.00         2.00
   74.76        2956.50           1299           0.00         2.00
   74.79        2956.75           1303           1.00         2.00
   74.82        2957.00           1306           1.00         2.00
   74.84        2957.25           1309           1.00         2.00
   74.87        2957.50           1313           1.00         2.00
   74.90        2957.75           1316           1.00         2.00
   74.92        2958.00           1320           2.00         3.92
   74.95        2958.25           1323           0.00         2.00
   74.98        2958.50           1326           2.00         3.92
   75.01        2958.75           1330           1.00         2.00
   75.04        2959.00           1333           1.00         2.00
   75.07        2959.25           1336           1.00         2.00
   75.10        2959.50           1340           1.00         2.00
   75.13        2959.75           1343           1.00         2.00
   75.15        2960.00           1347           3.00         8.28
   75.18        2960.25           1350           1.00         2.00
   75.21        2960.50           1353           2.00         3.92
   75.24        2960.75           1357           1.00         2.00
   75.27        2961.00           1360           1.00         2.00
   75.29        2961.25           1364           0.00         2.00
   75.33        2961.50           1367           0.00         2.00
   75.36        2961.75           1370           1.00         2.00
   75.38        2962.00           1374           2.00         3.92
   75.41        2962.25           1377           1.00         2.00
   75.45        2962.50           1380           0.00         2.00
   75.47        2962.75           1384           1.00         2.00
   75.50        2963.00           1387           1.00         2.00
   75.53        2963.25           1391           1.00         2.00
   75.56        2963.50           1394           0.00         2.00
   75.59        2963.75           1397           2.00         3.92
   75.61        2964.00           1401           1.00         2.00
   75.64        2964.25           1404           1.00         2.00
   75.67        2964.50           1408           1.00         2.00
   75.70        2964.75           1411           0.00         2.00
   75.73        2965.00           1414           1.00         2.00
   75.76        2965.25           1418           2.00         3.92
   75.78        2965.50           1421           1.00         2.00
   75.81        2965.75           1424           1.00         2.00
   75.84        2966.00           1428           1.00         2.00
   75.87        2966.25           1431           2.00         3.92
   75.90        2966.50           1435           2.00         3.92
   75.92        2966.75           1438           1.00         2.00
   75.95        2967.00           1441           1.00         2.00
   75.98        2967.25           1445           0.00         2.00
   76.01        2967.50           1448           2.00         3.92
   76.04        2967.75           1452           1.00         2.00
   76.06        2968.00           1455           1.00         2.00
   76.10        2968.25           1458           0.00         2.00
   76.12        2968.50           1462           1.00         2.00
   76.15        2968.75           1465           3.00         8.28
   76.18        2969.00           1469           1.00         2.00
   76.21        2969.25           1472           1.00         2.00
   76.24        2969.50           1475           1.00         2.00
   76.26        2969.75           1479           1.00         2.00
   76.29        2970.00           1482           1.00         2.00
   76.33        2970.25           1485           0.00         2.00
   76.35        2970.50           1489           1.00         2.00
   76.38        2970.75           1492           0.00         2.00
   76.41        2971.00           1496           2.00         3.92
   76.45        2971.25           1499           1.00         2.00
   76.47        2971.50           1502           1.00         2.00
   76.50        2971.75           1506           1.00         2.00
   76.53        2972.00           1509           1.00         2.00
   76.55        2972.25           1513           0.00         2.00
   76.58        2972.50           1516           2.00         3.92
   76.61        2972.75           1519           0.00         2.00
   76.64        2973.00           1523           2.00         3.92
   76.67        2973.25           1526           1.00         2.00
   76.69        2973.50           1530           1.00         2.00
   76.72        2973.75           1533           1.00         2.00
   76.75        2974.00           1536           1.00         2.00
   76.78        2974.25           1540           1.00         2.00
   76.81        2974.50           1543           1.00         2.00
   76.83        2974.75           1547           0.00         2.00
   76.87        2975.00           1550           2.00         3.92
   76.89        2975.25           1553           2.00         3.92
   76.92        2975.50           1557           1.00         2.00
   76.95        2975.75           1560           1.00         2.00
   76.98        2976.00           1564           1.00         2.00
   77.01        2976.25           1567           2.00         3.92
   77.03        2976.50           1570           2.00         3.92
   77.06        2976.75           1574           1.00         2.00
   77.09        2977.00           1577           1.00         2.00
   77.12        2977.25           1581           0.00         2.00
   77.15        2977.50           1584           1.00         2.00
   77.18        2977.75           1587           1.00         2.00
   77.21        2978.00           1591           1.00         2.00
   77.23        2978.25           1594           1.00         2.00
   77.26        2978.50           1598           1.00         2.00
   77.29        2978.75           1601           1.00         2.00
   77.32        2979.00           1604           1.00         2.00
   77.35        2979.25           1608           0.00         2.00
   77.37        2979.50           1611           1.00         2.00
   77.41        2979.75           1614           2.00         3.92
   77.44        2980.00           1618           2.00         3.92
   77.46        2980.25           1621           1.00         2.00
   77.49        2980.50           1625           1.00         2.00
   77.52        2980.75           1628           1.00         2.00
   77.55        2981.00           1631           0.00         2.00
   77.58        2981.25           1635           2.00         3.92
   77.60        2981.50           1638           0.00         2.00
   77.64        2981.75           1642           1.00         2.00
   77.66        2982.00           1645           1.00         2.00
   77.69        2982.25           1648           1.00         2.00
   77.72        2982.50           1652           1.00         2.00
   77.75        2982.75           1655           0.00         2.00
   77.78        2983.00           1659           1.00         2.00
   77.80        2983.25           1662           0.00         2.00
   77.83        2983.50           1666           2.00         3.92
   77.86        2983.75           1669           0.00         2.00
   77.89        2984.00           1672           2.00         3.92
HS scan finished at 01:18:16
end
************************************************************
  HS Scan of 
************************************************************
Integration time is 0.2294 seconds per sample
dh020617El Arenosillo 37.1 6.73 3.17pr1000
************************************************************
Dead Time -------------------------  3.2E-08 
Number of Cycles Used -------------  4 
Starting Wavelength (Angstroms) ---  2950 
Final Wavelength (Angstoms) -------  2984 
Wavelength Increment (Angstroms) --  .25 
Filter Wheel #1 Position ---------- (1) Ground quartz diffuser (ND=2.32)
Filter Wheel #2 Position ---------- (1) Neutral Density 0.494



************************************************************
HS scan start time = 02:01:31
Dark Count =  1 


Time (GMT)  Wavelength (Ang)  Step Number  Raw Counts  Counts/Second

  122.16        2950.00           1211           1.00         2.00
  122.37        2950.25           1215           1.00         2.00
  122.40        2950.50           1218           1.00         2.00
  122.42        2950.75           1222           1.00         2.00
  122.46        2951.00           1225           1.00         2.00
  122.49        2951.25           1228           1.00         2.00
  122.51        2951.50           1232           0.00         2.00
  122.54        2951.75           1235           1.00         2.00
  122.57        2952.00           1238           1.00         2.00
  122.60        2952.25           1242           1.00         2.00
  122.63        2952.50           1245           2.00         4.36
  122.66        2952.75           1249           1.00         2.00
  122.69        2953.00           1252           1.00         2.00
  122.71        2953.25           1255           0.00         2.00
  122.74        2953.50           1259           1.00         2.00
  122.77        2953.75           1262           1.00         2.00
  122.80        2954.00           1265           1.00         2.00
  122.83        2954.25           1269           0.00         2.00
  122.85        2954.50           1272           1.00         2.00
  122.88        2954.75           1276           2.00         4.36
  122.91        2955.00           1279           2.00         4.36
  122.94        2955.25           1282           1.00         2.00
  122.97        2955.50           1286           1.00         2.00
  123.00        2955.75           1289           2.00         4.36
  123.03        2956.00           1293           1.00         2.00
  123.06        2956.25           1296           2.00         4.36
  123.08        2956.50           1299           1.00         2.00
  123.11        2956.75           1303           0.00         2.00
  123.14        2957.00           1306           1.00         2.00
  123.17        2957.25           1309           1.00         2.00
  123.19        2957.50           1313           1.00         2.00
  123.22        2957.75           1316           0.00         2.00
  123.26        2958.00           1320           2.00         4.36
  123.28        2958.25           1323           2.00         4.36
  123.31        2958.50           1326           1.00         2.00
  123.33        2958.75           1330           2.00         4.36
  123.37        2959.00           1333           0.00         2.00
  123.40        2959.25           1336           1.00         2.00
  123.42        2959.50           1340           2.00         4.36
  123.45        2959.75           1343           0.00         2.00
  123.48        2960.00           1347           1.00         2.00
  123.51        2960.25           1350           2.00         4.36
  123.54        2960.50           1353           1.00         2.00
  123.57        2960.75           1357           1.00         2.00
  123.60        2961.00           1360           0.00         2.00
  123.62        2961.25           1364           1.00         2.00
  123.65        2961.50           1367           1.00         2.00
  123.68        2961.75           1370           1.00         2.00
  123.71        2962.00           1374           1.00         2.00
  123.74        2962.25           1377           1.00         2.00
  123.77        2962.50           1380           0.00         2.00
  123.80        2962.75           1384           1.00         2.00
  123.83        2963.00           1387           1.00         2.00
  123.85        2963.25           1391           1.00         2.00
  123.88        2963.50           1394           1.00         2.00
  123.91        2963.75           1397           1.00         2.00
  123.94        2964.00           1401           1.00         2.00
  123.97        2964.25           1404           1.00         2.00
  123.99        2964.50           1408           1.00         2.00
  124.02        2964.75           1411           0.00         2.00
  124.06        2965.00           1414           0.00         2.00
  124.08        2965.25           1418           3.00         8.72
  124.10        2965.50           1421           1.00         2.00
  124.13        2965.75           1424           1.00         2.00
  124.16        2966.00           1428           1.00         2.00
  124.18        2966.25           1431           1.00         2.00
  124.21        2966.50           1435           1.00         2.00
  124.24        2966.75           1438           1.00         2.00
  124.27        2967.00           1441           1.00         2.00
  124.30        2967.25           1445           1.00         2.00
  124.32        2967.50           1448           2.00         4.36
  124.35        2967.75           1452           0.00         2.00
  124.38        2968.00           1455           0.00         2.00
  124.41        2968.25           1458           1.00         2.00
  124.44        2968.50           1462           1.00         2.00
  124.47        2968.75           1465           2.00         4.36
  124.50        2969.00           1469           1.00         2.00
  124.53        2969.25           1472           1.00         2.00
  124.55        2969.50           1475           0.00         2.00
  124.58        2969.75           1479           1.00         2.00
  124.61        2970.00           1482           0.00         2.00
  124.64        2970.25           1485           1.00         2.00
  124.67        2970.50           1489           1.00         2.00
  124.70        2970.75           1492           1.00         2.00
  124.73        2971.00           1496           1.00         2.00
  124.76        2971.25           1499           1.00         2.00
  124.78        2971.50           1502           1.00         2.00
  124.81        2971.75           1506           1.00         2.00
  124.84        2972.00           1509           1.00         2.00
  124.87        2972.25           1513           1.00         2.00
  124.90        2972.50           1516           0.00         2.00
  124.92        2972.75           1519           1.00         2.00
  124.96        2973.00           1523           2.00         4.36
  124.98        2973.25           1526           2.00         4.36
  125.01        2973.50           1530           1.00         2.00
  125.04        2973.75           1533           0.00         2.00
  125.07        2974.00           1536           1.00         2.00
  125.10        2974.25           1540           1.00         2.00
  125.12        2974.50           1543           1.00         2.00
  125.15        2974.75           1547           0.00         2.00
  125.18        2975.00           1550           0.00         2.00
  125.21        2975.25           1553           2.00         4.36
  125.24        2975.50           1557           1.00         2.00
  125.27        2975.75           1560           0.00         2.00
  125.30        2976.00           1564           1.00         2.00
  125.32        2976.25           1567           1.00         2.00
  125.35        2976.50           1570           1.00         2.00
  125.38        2976.75           1574           0.00         2.00
  125.41        2977.00           1577           0.00         2.00
  125.44        2977.25           1581           1.00         2.00
  125.46        2977.50           1584           0.00         2.00
  125.49        2977.75           1587           1.00         2.00
  125.53        2978.00           1591           1.00         2.00
  125.55        2978.25           1594           1.00         2.00
  125.58        2978.50           1598           0.00         2.00
  125.61        2978.75           1601           1.00         2.00
  125.64        2979.00           1604           1.00         2.00
  125.67        2979.25           1608           2.00         4.36
  125.69        2979.50           1611           1.00         2.00
  125.72        2979.75           1614           1.00         2.00
  125.75        2980.00           1618           0.00         2.00
  125.78        2980.25           1621           2.00         4.36
  125.81        2980.50           1625           2.00         4.36
  125.84        2980.75           1628           1.00         2.00
  125.87        2981.00           1631           0.00         2.00
  125.90        2981.25           1635           1.00         2.00
  125.92        2981.50           1638           2.00         4.36
  125.95        2981.75           1642           2.00         4.36
  125.98        2982.00           1645           1.00         2.00
  126.01        2982.25           1648           2.00         4.36
  126.04        2982.50           1652           1.00         2.00
