************************************************************
  HS Scan of 
************************************************************
Integration time is 0.2294 seconds per sample
dh010617El Arenosillo 37.1 6.73 3.07pr1000
************************************************************
Dead Time -------------------------  3.2E-08 
Number of Cycles Used -------------  4 
Starting Wavelength (Angstroms) ---  2950 
Final Wavelength (Angstoms) -------  2984 
Wavelength Increment (Angstroms) --  .25 
Filter Wheel #1 Position ---------- (1) Ground quartz diffuser (ND=2.32)
Filter Wheel #2 Position ---------- (1) Neutral Density 0.494



************************************************************
HS scan start time = 02:09:51
Dark Count =  .8 


Time (GMT)  Wavelength (Ang)  Step Number  Raw Counts  Counts/Second

  130.50        2950.00           1211           1.00         2.00
  130.71        2950.25           1215           1.00         2.00
  130.73        2950.50           1218           1.00         2.00
  130.76        2950.75           1222           0.00         2.00
  130.79        2951.00           1225           1.00         2.00
  130.82        2951.25           1228           1.00         2.00
  130.85        2951.50           1232           1.00         2.00
  130.87        2951.75           1235           0.00         2.00
  130.91        2952.00           1238           1.00         2.00
  130.94        2952.25           1242           1.00         2.00
  130.96        2952.50           1245           1.00         2.00
  130.99        2952.75           1249           1.00         2.00
  131.02        2953.00           1252           1.00         2.00
  131.05        2953.25           1255           0.00         2.00
  131.08        2953.50           1259           0.00         2.00
  131.10        2953.75           1262           1.00         2.00
  131.14        2954.00           1265           1.00         2.00
  131.16        2954.25           1269           0.00         2.00
  131.19        2954.50           1272           0.00         2.00
  131.22        2954.75           1276           1.00         2.00
  131.25        2955.00           1279           2.00         5.23
  131.28        2955.25           1282           1.00         2.00
  131.30        2955.50           1286           1.00         2.00
  131.33        2955.75           1289           1.00         2.00
  131.37        2956.00           1293           2.00         5.23
  131.39        2956.25           1296           2.00         5.23
  131.42        2956.50           1299           0.00         2.00
  131.44        2956.75           1303           2.00         5.23
  131.48        2957.00           1306           1.00         2.00
  131.51        2957.25           1309           0.00         2.00
  131.53        2957.50           1313           1.00         2.00
  131.56        2957.75           1316           1.00         2.00
  131.59        2958.00           1320           0.00         2.00
  131.62        2958.25           1323           1.00         2.00
  131.65        2958.50           1326           1.00         2.00
  131.67        2958.75           1330           1.00         2.00
  131.70        2959.00           1333           1.00         2.00
  131.73        2959.25           1336           0.00         2.00
  131.76        2959.50           1340           0.00         2.00
  131.79        2959.75           1343           0.00         2.00
  131.81        2960.00           1347           1.00         2.00
  131.85        2960.25           1350           1.00         2.00
  131.87        2960.50           1353           1.00         2.00
  131.90        2960.75           1357           2.00         5.23
  131.93        2961.00           1360           1.00         2.00
  131.96        2961.25           1364           1.00         2.00
  131.99        2961.50           1367           1.00         2.00
  132.01        2961.75           1370           1.00         2.00
  132.04        2962.00           1374           1.00         2.00
  132.07        2962.25           1377           1.00         2.00
  132.10        2962.50           1380           0.00         2.00
  132.13        2962.75           1384           1.00         2.00
  132.15        2963.00           1387           1.00         2.00
  132.19        2963.25           1391           0.00         2.00
  132.21        2963.50           1394           1.00         2.00
  132.24        2963.75           1397           2.00         5.23
  132.27        2964.00           1401           2.00         5.23
  132.31        2964.25           1404           0.00         2.00
  132.33        2964.50           1408           0.00         2.00
  132.36        2964.75           1411           1.00         2.00
  132.38        2965.00           1414           0.00         2.00
  132.41        2965.25           1418           0.00         2.00
  132.45        2965.50           1421           1.00         2.00
  132.47        2965.75           1424           1.00         2.00
  132.50        2966.00           1428           0.00         2.00
  132.53        2966.25           1431           1.00         2.00
  132.56        2966.50           1435           0.00         2.00
  132.58        2966.75           1438           1.00         2.00
  132.61        2967.00           1441           1.00         2.00
  132.64        2967.25           1445           0.00         2.00
  132.67        2967.50           1448           1.00         2.00
  132.70        2967.75           1452           1.00         2.00
  132.72        2968.00           1455           0.00         2.00
  132.75        2968.25           1458           2.00         5.23
  132.79        2968.50           1462           1.00         2.00
  132.81        2968.75           1465           1.00         2.00
  132.84        2969.00           1469           0.00         2.00
  132.86        2969.25           1472           1.00         2.00
  132.90        2969.50           1475           0.00         2.00
  132.93        2969.75           1479           1.00         2.00
  132.96        2970.00           1482           0.00         2.00
  132.98        2970.25           1485           0.00         2.00
  133.02        2970.50           1489           2.00         5.23
  133.05        2970.75           1492           1.00         2.00
  133.07        2971.00           1496           1.00         2.00
  133.10        2971.25           1499           2.00         5.23
  133.14        2971.50           1502           1.00         2.00
  133.16        2971.75           1506           1.00         2.00
  133.19        2972.00           1509           0.00         2.00
  133.22        2972.25           1513           1.00         2.00
  133.25        2972.50           1516           0.00         2.00
  133.28        2972.75           1519           0.00         2.00
  133.30        2973.00           1523           1.00         2.00
  133.33        2973.25           1526           1.00         2.00
  133.36        2973.50           1530           0.00         2.00
  133.39        2973.75           1533           1.00         2.00
  133.42        2974.00           1536           1.00         2.00
  133.44        2974.25           1540           1.00         2.00
  133.47        2974.50           1543           0.00         2.00
  133.50        2974.75           1547           1.00         2.00
  133.53        2975.00           1550           1.00         2.00
  133.56        2975.25           1553           0.00         2.00
  133.58        2975.50           1557           1.00         2.00
  133.62        2975.75           1560           0.00         2.00
  133.64        2976.00           1564           1.00         2.00
  133.67        2976.25           1567           1.00         2.00
  133.70        2976.50           1570           1.00         2.00
  133.73        2976.75           1574           1.00         2.00
  133.76        2977.00           1577           1.00         2.00
  133.78        2977.25           1581           0.00         2.00
  133.81        2977.50           1584           2.00         5.23
  133.84        2977.75           1587           0.00         2.00
  133.87        2978.00           1591           1.00         2.00
  133.90        2978.25           1594           0.00         2.00
  133.92        2978.50           1598           0.00         2.00
  133.96        2978.75           1601           1.00         2.00
  133.99        2979.00           1604           1.00         2.00
  134.01        2979.25           1608           1.00         2.00
  134.04        2979.50           1611           0.00         2.00
  134.07        2979.75           1614           1.00         2.00
  134.10        2980.00           1618           1.00         2.00
  134.13        2980.25           1621           1.00         2.00
  134.15        2980.50           1625           1.00         2.00
  134.19        2980.75           1628           3.00         9.59
  134.21        2981.00           1631           1.00         2.00
  134.24        2981.25           1635           0.00         2.00
  134.26        2981.50           1638           0.00         2.00
  134.30        2981.75           1642           0.00         2.00
  134.33        2982.00           1645           2.00         5.23
  134.35        2982.25           1648           1.00         2.00
  134.38        2982.50           1652           0.00         2.00
  134.41        2982.75           1655           2.00         5.23
  134.44        2983.00           1659           1.00         2.00
  134.47        2983.25           1662           1.00         2.00
  134.49        2983.50           1666           0.00         2.00
  134.52        2983.75           1669           1.00         2.00
  134.55        2984.00           1672           0.00         2.00
HS scan finished at 02:14:55
end
************************************************************
  HS Scan of 
************************************************************
Integration time is 0.2294 seconds per sample
dh010617El Arenosillo 37.1 6.73 3.31pr1000
************************************************************
Dead Time -------------------------  3.2E-08 
Number of Cycles Used -------------  4 
Starting Wavelength (Angstroms) ---  2950 
Final Wavelength (Angstoms) -------  2984 
Wavelength Increment (Angstroms) --  .25 
Filter Wheel #1 Position ---------- (1) Ground quartz diffuser (ND=2.32)
Filter Wheel #2 Position ---------- (1) Neutral Density 0.494



************************************************************
HS scan start time = 20:15:20
Dark Count =  2.2 


Time (GMT)  Wavelength (Ang)  Step Number  Raw Counts  Counts/Second

 1215.98        2950.00           1211           2.00         2.00
 1216.20        2950.25           1215           1.00         2.00
 1216.22        2950.50           1218           2.00         2.00
 1216.25        2950.75           1222           2.00         2.00
 1216.28        2951.00           1225           3.00         3.49
 1216.30        2951.25           1228           1.00         2.00
 1216.33        2951.50           1232           1.00         2.00
 1216.36        2951.75           1235           4.00         7.85
 1216.39        2952.00           1238           3.00         3.49
 1216.41        2952.25           1242           2.00         2.00
 1216.44        2952.50           1245           2.00         2.00
 1216.47        2952.75           1249           1.00         2.00
 1216.50        2953.00           1252           2.00         2.00
 1216.53        2953.25           1255           3.00         3.49
 1216.56        2953.50           1259           2.00         2.00
 1216.58        2953.75           1262           2.00         2.00
 1216.61        2954.00           1265           2.00         2.00
 1216.64        2954.25           1269           1.00         2.00
 1216.66        2954.50           1272           2.00         2.00
 1216.70        2954.75           1276           1.00         2.00
 1216.72        2955.00           1279           2.00         2.00
 1216.75        2955.25           1282           2.00         2.00
 1216.78        2955.50           1286           2.00         2.00
 1216.80        2955.75           1289           1.00         2.00
 1216.83        2956.00           1293           1.00         2.00
 1216.86        2956.25           1296           2.00         2.00
 1216.89        2956.50           1299           3.00         3.49
 1216.91        2956.75           1303           3.00         3.49
 1216.94        2957.00           1306           1.00         2.00
 1216.97        2957.25           1309           1.00         2.00
 1217.00        2957.50           1313           5.00        12.21
 1217.03        2957.75           1316           2.00         2.00
 1217.05        2958.00           1320           4.00         7.85
 1217.08        2958.25           1323           2.00         2.00
 1217.11        2958.50           1326           2.00         2.00
 1217.13        2958.75           1330           1.00         2.00
 1217.17        2959.00           1333           1.00         2.00
 1217.19        2959.25           1336           1.00         2.00
 1217.22        2959.50           1340           3.00         3.49
 1217.24        2959.75           1343           2.00         2.00
 1217.27        2960.00           1347           2.00         2.00
 1217.30        2960.25           1350           2.00         2.00
 1217.33        2960.50           1353           1.00         2.00
 1217.36        2960.75           1357           1.00         2.00
 1217.38        2961.00           1360           3.00         3.49
 1217.41        2961.25           1364           3.00         3.49
 1217.44        2961.50           1367           2.00         2.00
 1217.47        2961.75           1370           3.00         3.49
 1217.50        2962.00           1374           2.00         2.00
 1217.52        2962.25           1377           3.00         3.49
 1217.55        2962.50           1380           2.00         2.00
 1217.58        2962.75           1384           2.00         2.00
 1217.60        2963.00           1387           4.00         7.85
 1217.64        2963.25           1391           2.00         2.00
 1217.66        2963.50           1394           2.00         2.00
 1217.69        2963.75           1397           2.00         2.00
 1217.72        2964.00           1401           2.00         2.00
 1217.74        2964.25           1404           2.00         2.00
 1217.77        2964.50           1408           1.00         2.00
 1217.81        2964.75           1411           1.00         2.00
 1217.84        2965.00           1414           1.00         2.00
 1217.86        2965.25           1418           3.00         3.49
 1217.89        2965.50           1421           1.00         2.00
 1217.92        2965.75           1424           3.00         3.49
 1217.94        2966.00           1428           1.00         2.00
 1217.98        2966.25           1431           3.00         3.49
 1218.00        2966.50           1435           2.00         2.00
 1218.03        2966.75           1438           1.00         2.00
 1218.06        2967.00           1441           2.00         2.00
 1218.08        2967.25           1445           1.00         2.00
 1218.11        2967.50           1448           2.00         2.00
 1218.13        2967.75           1452           3.00         3.49
 1218.16        2968.00           1455           4.00         7.85
 1218.19        2968.25           1458           2.00         2.00
 1218.21        2968.50           1462           2.00         2.00
 1218.24        2968.75           1465           2.00         2.00
 1218.27        2969.00           1469           2.00         2.00
 1218.30        2969.25           1472           1.00         2.00
 1218.33        2969.50           1475           2.00         2.00
 1218.35        2969.75           1479           4.00         7.85
 1218.38        2970.00           1482           2.00         2.00
 1218.41        2970.25           1485           2.00         2.00
 1218.44        2970.50           1489           1.00         2.00
 1218.47        2970.75           1492           3.00         3.49
 1218.50        2971.00           1496           2.00         2.00
 1218.52        2971.25           1499           1.00         2.00
 1218.55        2971.50           1502           2.00         2.00
 1218.58        2971.75           1506           2.00         2.00
 1218.61        2972.00           1509           1.00         2.00
 1218.64        2972.25           1513           2.00         2.00
 1218.66        2972.50           1516           0.00         2.00
 1218.69        2972.75           1519           3.00         3.49
 1218.72        2973.00           1523           3.00         3.49
 1218.75        2973.25           1526           1.00         2.00
 1218.78        2973.50           1530           2.00         2.00
 1218.80        2973.75           1533           2.00         2.00
 1218.83        2974.00           1536           1.00         2.00
 1218.86        2974.25           1540           2.00         2.00
 1218.89        2974.50           1543           0.00         2.00
 1218.92        2974.75           1547           1.00         2.00
 1218.95        2975.00           1550           1.00         2.00
 1218.97        2975.25           1553           2.00         2.00
 1219.00        2975.50           1557           3.00         3.49
 1219.03        2975.75           1560           1.00         2.00
 1219.05        2976.00           1564           1.00         2.00
 1219.08        2976.25           1567           1.00         2.00
 1219.11        2976.50           1570           1.00         2.00
 1219.14        2976.75           1574           2.00         2.00
 1219.16        2977.00           1577           1.00         2.00
 1219.19        2977.25           1581           1.00         2.00
 1219.22        2977.50           1584           3.00         3.49
 1219.25        2977.75           1587           0.00         2.00
 1219.28        2978.00           1591           2.00         2.00
 1219.30        2978.25           1594           2.00         2.00
 1219.33        2978.50           1598           2.00         2.00
 1219.36        2978.75           1601           4.00         7.85
 1219.38        2979.00           1604           3.00         3.49
 1219.41        2979.25           1608           4.00         7.85
 1219.44        2979.50           1611           3.00         3.49
 1219.47        2979.75           1614           2.00         2.00
 1219.49        2980.00           1618           2.00         2.00
 1219.52        2980.25           1621           1.00         2.00
 1219.55        2980.50           1625           3.00         3.49
 1219.58        2980.75           1628           2.00         2.00
 1219.61        2981.00           1631           1.00         2.00
 1219.63        2981.25           1635           2.00         2.00
 1219.66        2981.50           1638           1.00         2.00
 1219.68        2981.75           1642           2.00         2.00
 1219.72        2982.00           1645           2.00         2.00
 1219.74        2982.25           1648           1.00         2.00
 1219.77        2982.50           1652           3.00         3.49
