************************************************************
  HS Scan of 
************************************************************
Integration time is 0.2294 seconds per sample
dh040617El Arenosillo 37.1 6.73 3.31pr1000
************************************************************
Dead Time -------------------------  3.2E-08 
Number of Cycles Used -------------  4 
Starting Wavelength (Angstroms) ---  2950 
Final Wavelength (Angstoms) -------  2984 
Wavelength Increment (Angstroms) --  .25 
Filter Wheel #1 Position ---------- (1) Ground quartz diffuser (ND=2.32)
Filter Wheel #2 Position ---------- (1) Neutral Density 0.494



************************************************************
HS scan start time = 20:38:23
Dark Count =  1.4 


Time (GMT)  Wavelength (Ang)  Step Number  Raw Counts  Counts/Second

 1239.02        2950.00           1211           1.00         2.00
 1239.23        2950.25           1215           2.00         2.62
 1239.26        2950.50           1218           1.00         2.00
 1239.29        2950.75           1222           2.00         2.62
 1239.32        2951.00           1225           1.00         2.00
 1239.34        2951.25           1228           2.00         2.62
 1239.37        2951.50           1232           2.00         2.62
 1239.39        2951.75           1235           2.00         2.62
 1239.42        2952.00           1238           1.00         2.00
 1239.45        2952.25           1242           2.00         2.62
 1239.48        2952.50           1245           3.00         6.97
 1239.51        2952.75           1249           4.00        11.33
 1239.53        2953.00           1252           1.00         2.00
 1239.56        2953.25           1255           2.00         2.62
 1239.59        2953.50           1259           3.00         6.97
 1239.62        2953.75           1262           1.00         2.00
 1239.65        2954.00           1265           2.00         2.62
 1239.67        2954.25           1269           1.00         2.00
 1239.70        2954.50           1272           2.00         2.62
 1239.72        2954.75           1276           2.00         2.62
 1239.75        2955.00           1279           2.00         2.62
 1239.78        2955.25           1282           2.00         2.62
 1239.80        2955.50           1286           2.00         2.62
 1239.83        2955.75           1289           1.00         2.00
 1239.86        2956.00           1293           1.00         2.00
 1239.88        2956.25           1296           1.00         2.00
 1239.91        2956.50           1299           2.00         2.62
 1239.93        2956.75           1303           2.00         2.62
 1239.97        2957.00           1306           1.00         2.00
 1239.99        2957.25           1309           2.00         2.62
 1240.02        2957.50           1313           2.00         2.62
 1240.05        2957.75           1316           2.00         2.62
 1240.07        2958.00           1320           2.00         2.62
 1240.10        2958.25           1323           2.00         2.62
 1240.13        2958.50           1326           1.00         2.00
 1240.16        2958.75           1330           3.00         6.97
 1240.18        2959.00           1333           1.00         2.00
 1240.21        2959.25           1336           2.00         2.62
 1240.24        2959.50           1340           2.00         2.62
 1240.26        2959.75           1343           1.00         2.00
 1240.29        2960.00           1347           2.00         2.62
 1240.32        2960.25           1350           3.00         6.97
 1240.35        2960.50           1353           1.00         2.00
 1240.37        2960.75           1357           3.00         6.97
 1240.40        2961.00           1360           2.00         2.62
 1240.43        2961.25           1364           2.00         2.62
 1240.45        2961.50           1367           3.00         6.97
 1240.48        2961.75           1370           1.00         2.00
 1240.51        2962.00           1374           2.00         2.62
 1240.54        2962.25           1377           1.00         2.00
 1240.57        2962.50           1380           3.00         6.97
 1240.59        2962.75           1384           2.00         2.62
 1240.62        2963.00           1387           1.00         2.00
 1240.64        2963.25           1391           2.00         2.62
 1240.68        2963.50           1394           1.00         2.00
 1240.70        2963.75           1397           1.00         2.00
 1240.73        2964.00           1401           1.00         2.00
 1240.76        2964.25           1404           3.00         6.97
 1240.79        2964.50           1408           3.00         6.97
 1240.81        2964.75           1411           3.00         6.97
 1240.84        2965.00           1414           2.00         2.62
 1240.88        2965.25           1418           4.00        11.33
 1240.90        2965.50           1421           2.00         2.62
 1240.93        2965.75           1424           1.00         2.00
 1240.95        2966.00           1428           2.00         2.62
 1240.98        2966.25           1431           1.00         2.00
 1241.01        2966.50           1435           2.00         2.62
 1241.04        2966.75           1438           3.00         6.97
 1241.07        2967.00           1441           1.00         2.00
 1241.09        2967.25           1445           2.00         2.62
 1241.12        2967.50           1448           1.00         2.00
 1241.14        2967.75           1452           1.00         2.00
 1241.17        2968.00           1455           2.00         2.62
 1241.20        2968.25           1458           2.00         2.62
 1241.23        2968.50           1462           2.00         2.62
 1241.26        2968.75           1465           3.00         6.97
 1241.28        2969.00           1469           3.00         6.97
 1241.31        2969.25           1472           1.00         2.00
 1241.33        2969.50           1475           3.00         6.97
 1241.36        2969.75           1479           2.00         2.62
 1241.39        2970.00           1482           1.00         2.00
 1241.42        2970.25           1485           1.00         2.00
 1241.45        2970.50           1489           2.00         2.62
 1241.47        2970.75           1492           2.00         2.62
 1241.50        2971.00           1496           2.00         2.62
 1241.53        2971.25           1499           2.00         2.62
 1241.56        2971.50           1502           2.00         2.62
 1241.59        2971.75           1506           0.00         2.00
 1241.61        2972.00           1509           1.00         2.00
 1241.64        2972.25           1513           3.00         6.97
 1241.67        2972.50           1516           2.00         2.62
 1241.69        2972.75           1519           1.00         2.00
 1241.72        2973.00           1523           1.00         2.00
 1241.75        2973.25           1526           2.00         2.62
 1241.78        2973.50           1530           2.00         2.62
 1241.80        2973.75           1533           2.00         2.62
 1241.83        2974.00           1536           1.00         2.00
 1241.86        2974.25           1540           1.00         2.00
 1241.88        2974.50           1543           1.00         2.00
 1241.91        2974.75           1547           1.00         2.00
 1241.94        2975.00           1550           2.00         2.62
 1241.97        2975.25           1553           2.00         2.62
 1241.99        2975.50           1557           2.00         2.62
 1242.02        2975.75           1560           1.00         2.00
 1242.05        2976.00           1564           2.00         2.62
 1242.07        2976.25           1567           3.00         6.97
 1242.10        2976.50           1570           2.00         2.62
 1242.13        2976.75           1574           3.00         6.97
 1242.16        2977.00           1577           3.00         6.97
 1242.18        2977.25           1581           2.00         2.62
 1242.21        2977.50           1584           3.00         6.97
 1242.24        2977.75           1587           3.00         6.97
 1242.26        2978.00           1591           0.00         2.00
 1242.30        2978.25           1594           1.00         2.00
 1242.32        2978.50           1598           2.00         2.62
 1242.35        2978.75           1601           2.00         2.62
 1242.37        2979.00           1604           2.00         2.62
 1242.40        2979.25           1608           2.00         2.62
 1242.43        2979.50           1611           2.00         2.62
 1242.46        2979.75           1614           3.00         6.97
 1242.49        2980.00           1618           2.00         2.62
 1242.51        2980.25           1621           2.00         2.62
 1242.54        2980.50           1625           2.00         2.62
 1242.56        2980.75           1628           2.00         2.62
 1242.59        2981.00           1631           2.00         2.62
 1242.62        2981.25           1635           2.00         2.62
 1242.65        2981.50           1638           3.00         6.97
 1242.68        2981.75           1642           1.00         2.00
 1242.70        2982.00           1645           2.00         2.62
 1242.73        2982.25           1648           2.00         2.62
 1242.75        2982.50           1652           0.00         2.00
 1242.78        2982.75           1655           1.00         2.00
 1242.81        2983.00           1659           1.00         2.00
 1242.84        2983.25           1662           3.00         6.97
 1242.87        2983.50           1666           3.00         6.97
 1242.89        2983.75           1669           1.00         2.00
 1242.92        2984.00           1672           2.00         2.62
HS scan finished at 20:43:17
end
