************************************************************
  HS Scan of 
************************************************************
Integration time is 0.2294 seconds per sample
dh030617El Arenosillo 37.1 6.73 3.19pr1000
************************************************************
Dead Time -------------------------  3.2E-08 
Number of Cycles Used -------------  4 
Starting Wavelength (Angstroms) ---  2950 
Final Wavelength (Angstoms) -------  2984 
Wavelength Increment (Angstroms) --  .25 
Filter Wheel #1 Position ---------- (1) Ground quartz diffuser (ND=2.32)
Filter Wheel #2 Position ---------- (1) Neutral Density 0.494



************************************************************
HS scan start time = 21:36:43
Dark Count =  1.6 


Time (GMT)  Wavelength (Ang)  Step Number  Raw Counts  Counts/Second

 1297.35        2950.00           1211           0.00         2.00
 1297.56        2950.25           1215           2.00         2.00
 1297.59        2950.50           1218           2.00         2.00
 1297.62        2950.75           1222           2.00         2.00
 1297.64        2951.00           1225           0.00         2.00
 1297.67        2951.25           1228           1.00         2.00
 1297.70        2951.50           1232           1.00         2.00
 1297.73        2951.75           1235           1.00         2.00
 1297.76        2952.00           1238           1.00         2.00
 1297.78        2952.25           1242           0.00         2.00
 1297.81        2952.50           1245           1.00         2.00
 1297.84        2952.75           1249           2.00         2.00
 1297.87        2953.00           1252           3.00         6.10
 1297.90        2953.25           1255           1.00         2.00
 1297.92        2953.50           1259           1.00         2.00
 1297.95        2953.75           1262           1.00         2.00
 1297.97        2954.00           1265           1.00         2.00
 1298.00        2954.25           1269           2.00         2.00
 1298.03        2954.50           1272           1.00         2.00
 1298.06        2954.75           1276           2.00         2.00
 1298.09        2955.00           1279           2.00         2.00
 1298.11        2955.25           1282           1.00         2.00
 1298.14        2955.50           1286           1.00         2.00
 1298.17        2955.75           1289           1.00         2.00
 1298.20        2956.00           1293           1.00         2.00
 1298.23        2956.25           1296           1.00         2.00
 1298.25        2956.50           1299           1.00         2.00
 1298.28        2956.75           1303           0.00         2.00
 1298.30        2957.00           1306           1.00         2.00
 1298.34        2957.25           1309           1.00         2.00
 1298.36        2957.50           1313           1.00         2.00
 1298.39        2957.75           1316           2.00         2.00
 1298.42        2958.00           1320           2.00         2.00
 1298.44        2958.25           1323           1.00         2.00
 1298.48        2958.50           1326           1.00         2.00
 1298.50        2958.75           1330           0.00         2.00
 1298.53        2959.00           1333           2.00         2.00
 1298.55        2959.25           1336           3.00         6.10
 1298.58        2959.50           1340           1.00         2.00
 1298.61        2959.75           1343           1.00         2.00
 1298.64        2960.00           1347           1.00         2.00
 1298.67        2960.25           1350           0.00         2.00
 1298.69        2960.50           1353           1.00         2.00
 1298.72        2960.75           1357           2.00         2.00
 1298.75        2961.00           1360           1.00         2.00
 1298.78        2961.25           1364           1.00         2.00
 1298.81        2961.50           1367           1.00         2.00
 1298.83        2961.75           1370           0.00         2.00
 1298.86        2962.00           1374           1.00         2.00
 1298.89        2962.25           1377           1.00         2.00
 1298.91        2962.50           1380           0.00         2.00
 1298.94        2962.75           1384           0.00         2.00
 1298.97        2963.00           1387           0.00         2.00
 1299.00        2963.25           1391           1.00         2.00
 1299.02        2963.50           1394           1.00         2.00
 1299.05        2963.75           1397           1.00         2.00
 1299.08        2964.00           1401           1.00         2.00
 1299.11        2964.25           1404           2.00         2.00
 1299.14        2964.50           1408           2.00         2.00
 1299.17        2964.75           1411           1.00         2.00
 1299.20        2965.00           1414           1.00         2.00
 1299.23        2965.25           1418           1.00         2.00
 1299.26        2965.50           1421           1.00         2.00
 1299.28        2965.75           1424           1.00         2.00
 1299.31        2966.00           1428           1.00         2.00
 1299.34        2966.25           1431           3.00         6.10
 1299.36        2966.50           1435           1.00         2.00
 1299.40        2966.75           1438           1.00         2.00
 1299.42        2967.00           1441           1.00         2.00
 1299.45        2967.25           1445           0.00         2.00
 1299.48        2967.50           1448           1.00         2.00
 1299.50        2967.75           1452           2.00         2.00
 1299.53        2968.00           1455           1.00         2.00
 1299.56        2968.25           1458           2.00         2.00
 1299.59        2968.50           1462           2.00         2.00
 1299.62        2968.75           1465           1.00         2.00
 1299.64        2969.00           1469           1.00         2.00
 1299.67        2969.25           1472           1.00         2.00
 1299.70        2969.50           1475           1.00         2.00
 1299.73        2969.75           1479           1.00         2.00
 1299.76        2970.00           1482           0.00         2.00
 1299.79        2970.25           1485           1.00         2.00
 1299.81        2970.50           1489           3.00         6.10
 1299.84        2970.75           1492           2.00         2.00
 1299.88        2971.00           1496           1.00         2.00
 1299.90        2971.25           1499           2.00         2.00
 1299.93        2971.50           1502           2.00         2.00
 1299.96        2971.75           1506           0.00         2.00
 1299.98        2972.00           1509           1.00         2.00
 1300.02        2972.25           1513           2.00         2.00
 1300.04        2972.50           1516           1.00         2.00
 1300.07        2972.75           1519           1.00         2.00
 1300.10        2973.00           1523           1.00         2.00
 1300.12        2973.25           1526           1.00         2.00
 1300.15        2973.50           1530           1.00         2.00
 1300.18        2973.75           1533           1.00         2.00
 1300.21        2974.00           1536           1.00         2.00
 1300.23        2974.25           1540           1.00         2.00
 1300.26        2974.50           1543           1.00         2.00
 1300.29        2974.75           1547           1.00         2.00
 1300.32        2975.00           1550           1.00         2.00
 1300.34        2975.25           1553           1.00         2.00
 1300.37        2975.50           1557           2.00         2.00
 1300.40        2975.75           1560           2.00         2.00
 1300.42        2976.00           1564           1.00         2.00
 1300.45        2976.25           1567           1.00         2.00
 1300.48        2976.50           1570           2.00         2.00
 1300.51        2976.75           1574           2.00         2.00
 1300.53        2977.00           1577           1.00         2.00
 1300.56        2977.25           1581           1.00         2.00
 1300.59        2977.50           1584           1.00         2.00
 1300.62        2977.75           1587           2.00         2.00
 1300.65        2978.00           1591           1.00         2.00
 1300.67        2978.25           1594           2.00         2.00
 1300.70        2978.50           1598           1.00         2.00
 1300.73        2978.75           1601           1.00         2.00
 1300.75        2979.00           1604           0.00         2.00
 1300.79        2979.25           1608           0.00         2.00
 1300.81        2979.50           1611           1.00         2.00
 1300.84        2979.75           1614           1.00         2.00
 1300.86        2980.00           1618           2.00         2.00
 1300.89        2980.25           1621           1.00         2.00
 1300.92        2980.50           1625           2.00         2.00
 1300.95        2980.75           1628           0.00         2.00
 1300.97        2981.00           1631           1.00         2.00
 1301.00        2981.25           1635           1.00         2.00
 1301.03        2981.50           1638           2.00         2.00
 1301.05        2981.75           1642           1.00         2.00
 1301.09        2982.00           1645           1.00         2.00
 1301.11        2982.25           1648           1.00         2.00
 1301.14        2982.50           1652           1.00         2.00
 1301.17        2982.75           1655           1.00         2.00
 1301.19        2983.00           1659           1.00         2.00
 1301.23        2983.25           1662           1.00         2.00
 1301.25        2983.50           1666           0.00         2.00
 1301.28        2983.75           1669           2.00         2.00
 1301.30        2984.00           1672           1.00         2.00
HS scan finished at 21:41:40
end
