************************************************************
  HS Scan of 
************************************************************
Integration time is 0.2294 seconds per sample
dh310517El Arenosillo 37.1 6.73 3.25pr1000
************************************************************
Dead Time -------------------------  3.2E-08 
Number of Cycles Used -------------  4 
Starting Wavelength (Angstroms) ---  2950 
Final Wavelength (Angstoms) -------  2984 
Wavelength Increment (Angstroms) --  .25 
Filter Wheel #1 Position ---------- (1) Ground quartz diffuser (ND=2.32)
Filter Wheel #2 Position ---------- (1) Neutral Density 0.494



************************************************************
HS scan start time = 20:15:33
Dark Count =  1.5 


Time (GMT)  Wavelength (Ang)  Step Number  Raw Counts  Counts/Second

 1216.20        2950.00           1211           3.00         6.54
 1216.41        2950.25           1215           1.00         2.00
 1216.43        2950.50           1218           2.00         2.18
 1216.46        2950.75           1222           0.00         2.00
 1216.49        2951.00           1225           1.00         2.00
 1216.52        2951.25           1228           1.00         2.00
 1216.55        2951.50           1232           2.00         2.18
 1216.57        2951.75           1235           2.00         2.18
 1216.60        2952.00           1238           2.00         2.18
 1216.63        2952.25           1242           2.00         2.18
 1216.66        2952.50           1245           2.00         2.18
 1216.69        2952.75           1249           1.00         2.00
 1216.71        2953.00           1252           3.00         6.54
 1216.75        2953.25           1255           1.00         2.00
 1216.77        2953.50           1259           2.00         2.18
 1216.80        2953.75           1262           2.00         2.18
 1216.83        2954.00           1265           1.00         2.00
 1216.86        2954.25           1269           3.00         6.54
 1216.89        2954.50           1272           2.00         2.18
 1216.91        2954.75           1276           1.00         2.00
 1216.94        2955.00           1279           1.00         2.00
 1216.97        2955.25           1282           2.00         2.18
 1217.00        2955.50           1286           2.00         2.18
 1217.03        2955.75           1289           2.00         2.18
 1217.06        2956.00           1293           1.00         2.00
 1217.08        2956.25           1296           1.00         2.00
 1217.11        2956.50           1299           2.00         2.18
 1217.14        2956.75           1303           0.00         2.00
 1217.17        2957.00           1306           1.00         2.00
 1217.20        2957.25           1309           2.00         2.18
 1217.22        2957.50           1313           1.00         2.00
 1217.26        2957.75           1316           2.00         2.18
 1217.28        2958.00           1320           0.00         2.00
 1217.31        2958.25           1323           1.00         2.00
 1217.34        2958.50           1326           2.00         2.18
 1217.37        2958.75           1330           2.00         2.18
 1217.40        2959.00           1333           2.00         2.18
 1217.43        2959.25           1336           1.00         2.00
 1217.45        2959.50           1340           2.00         2.18
 1217.48        2959.75           1343           3.00         6.54
 1217.51        2960.00           1347           3.00         6.54
 1217.54        2960.25           1350           2.00         2.18
 1217.57        2960.50           1353           1.00         2.00
 1217.59        2960.75           1357           1.00         2.00
 1217.63        2961.00           1360           2.00         2.18
 1217.65        2961.25           1364           1.00         2.00
 1217.68        2961.50           1367           2.00         2.18
 1217.71        2961.75           1370           1.00         2.00
 1217.74        2962.00           1374           2.00         2.18
 1217.77        2962.25           1377           2.00         2.18
 1217.79        2962.50           1380           1.00         2.00
 1217.82        2962.75           1384           2.00         2.18
 1217.85        2963.00           1387           2.00         2.18
 1217.88        2963.25           1391           1.00         2.00
 1217.91        2963.50           1394           1.00         2.00
 1217.93        2963.75           1397           1.00         2.00
 1217.96        2964.00           1401           2.00         2.18
 1218.00        2964.25           1404           2.00         2.18
 1218.02        2964.50           1408           1.00         2.00
 1218.05        2964.75           1411           2.00         2.18
 1218.08        2965.00           1414           2.00         2.18
 1218.11        2965.25           1418           1.00         2.00
 1218.14        2965.50           1421           2.00         2.18
 1218.17        2965.75           1424           2.00         2.18
 1218.19        2966.00           1428           1.00         2.00
 1218.22        2966.25           1431           1.00         2.00
 1218.25        2966.50           1435           1.00         2.00
 1218.28        2966.75           1438           2.00         2.18
 1218.31        2967.00           1441           1.00         2.00
 1218.33        2967.25           1445           1.00         2.00
 1218.37        2967.50           1448           1.00         2.00
 1218.39        2967.75           1452           1.00         2.00
 1218.42        2968.00           1455           1.00         2.00
 1218.45        2968.25           1458           2.00         2.18
 1218.48        2968.50           1462           1.00         2.00
 1218.51        2968.75           1465           1.00         2.00
 1218.53        2969.00           1469           2.00         2.18
 1218.56        2969.25           1472           1.00         2.00
 1218.59        2969.50           1475           1.00         2.00
 1218.62        2969.75           1479           2.00         2.18
 1218.65        2970.00           1482           1.00         2.00
 1218.68        2970.25           1485           2.00         2.18
 1218.70        2970.50           1489           1.00         2.00
 1218.74        2970.75           1492           2.00         2.18
 1218.77        2971.00           1496           2.00         2.18
 1218.79        2971.25           1499           1.00         2.00
 1218.82        2971.50           1502           1.00         2.00
 1218.85        2971.75           1506           2.00         2.18
 1218.88        2972.00           1509           2.00         2.18
 1218.91        2972.25           1513           4.00        10.90
 1218.93        2972.50           1516           2.00         2.18
 1218.96        2972.75           1519           1.00         2.00
 1218.99        2973.00           1523           2.00         2.18
 1219.02        2973.25           1526           1.00         2.00
 1219.05        2973.50           1530           0.00         2.00
 1219.07        2973.75           1533           2.00         2.18
 1219.10        2974.00           1536           3.00         6.54
 1219.13        2974.25           1540           2.00         2.18
 1219.16        2974.50           1543           1.00         2.00
 1219.19        2974.75           1547           0.00         2.00
 1219.21        2975.00           1550           2.00         2.18
 1219.25        2975.25           1553           2.00         2.18
 1219.27        2975.50           1557           2.00         2.18
 1219.30        2975.75           1560           2.00         2.18
 1219.33        2976.00           1564           1.00         2.00
 1219.36        2976.25           1567           0.00         2.00
 1219.39        2976.50           1570           1.00         2.00
 1219.41        2976.75           1574           2.00         2.18
 1219.44        2977.00           1577           2.00         2.18
 1219.47        2977.25           1581           2.00         2.18
 1219.50        2977.50           1584           2.00         2.18
 1219.53        2977.75           1587           2.00         2.18
 1219.55        2978.00           1591           2.00         2.18
 1219.58        2978.25           1594           2.00         2.18
 1219.61        2978.50           1598           0.00         2.00
 1219.64        2978.75           1601           2.00         2.18
 1219.67        2979.00           1604           1.00         2.00
 1219.69        2979.25           1608           0.00         2.00
 1219.73        2979.50           1611           2.00         2.18
 1219.75        2979.75           1614           2.00         2.18
 1219.78        2980.00           1618           1.00         2.00
 1219.81        2980.25           1621           1.00         2.00
 1219.84        2980.50           1625           1.00         2.00
 1219.87        2980.75           1628           3.00         6.54
 1219.89        2981.00           1631           1.00         2.00
 1219.92        2981.25           1635           1.00         2.00
 1219.95        2981.50           1638           2.00         2.18
 1219.98        2981.75           1642           2.00         2.18
 1220.01        2982.00           1645           1.00         2.00
 1220.03        2982.25           1648           2.00         2.18
 1220.06        2982.50           1652           2.00         2.18
 1220.09        2982.75           1655           1.00         2.00
 1220.12        2983.00           1659           1.00         2.00
 1220.15        2983.25           1662           1.00         2.00
 1220.17        2983.50           1666           1.00         2.00
 1220.20        2983.75           1669           1.00         2.00
 1220.23        2984.00           1672           1.00         2.00
HS scan finished at 20:20:36
end
