************************************************************
  HS Scan of (1) Internal mercury lamp
************************************************************
Integration time is 0.2294 seconds per sample
dh090617El Arenosillo 37.1 6.73 3.03pr1000
************************************************************
Dead Time -------------------------  3.2E-08 
Number of Cycles Used -------------  4 
Starting Wavelength (Angstroms) ---  2950 
Final Wavelength (Angstoms) -------  2984 
Wavelength Increment (Angstroms) --  .25 
Filter Wheel #1 Position ---------- (1) Ground quartz diffuser (ND=2.32)
Filter Wheel #2 Position ---------- (1) Neutral Density 0.494



************************************************************
HS scan start time = 01:21:43
Dark Count =  1 


Time (GMT)  Wavelength (Ang)  Step Number  Raw Counts  Counts/Second

   82.34        2950.00           1211         145.00       627.74
   82.55        2950.25           1215         148.00       640.82
   82.58        2950.50           1218         136.00       588.50
   82.61        2950.75           1222         108.00       466.44
   82.64        2951.00           1225         124.00       536.19
   82.67        2951.25           1228         146.00       632.10
   82.70        2951.50           1232         134.00       579.78
   82.73        2951.75           1235         138.00       597.22
   82.75        2952.00           1238         137.00       592.86
   82.79        2952.25           1242         127.00       549.27
   82.82        2952.50           1245         118.00       510.03
   82.84        2952.75           1249         119.00       514.39
   82.88        2953.00           1252         147.00       636.46
   82.90        2953.25           1255         107.00       462.08
   82.93        2953.50           1259         169.00       732.36
   82.96        2953.75           1262         150.00       649.53
   82.99        2954.00           1265         132.00       571.07
   83.02        2954.25           1269         122.00       527.47
   83.05        2954.50           1272         116.00       501.32
   83.08        2954.75           1276         134.00       579.78
   83.11        2955.00           1279         117.00       505.68
   83.14        2955.25           1282         132.00       571.07
   83.16        2955.50           1286         134.00       579.78
   83.20        2955.75           1289         106.00       457.72
   83.23        2956.00           1293         152.00       658.25
   83.25        2956.25           1296         136.00       588.50
   83.28        2956.50           1299         122.00       527.47
   83.31        2956.75           1303         153.00       662.61
   83.34        2957.00           1306         148.00       640.82
   83.37        2957.25           1309         143.00       619.02
   83.40        2957.50           1313         129.00       557.99
   83.43        2957.75           1316         136.00       588.50
   83.45        2958.00           1320         129.00       557.99
   83.48        2958.25           1323         151.00       653.89
   83.51        2958.50           1326         142.00       614.66
   83.54        2958.75           1330         139.00       601.58
   83.57        2959.00           1333         149.00       645.17
   83.60        2959.25           1336         136.00       588.50
   83.63        2959.50           1340         166.00       719.28
   83.66        2959.75           1343         173.00       749.80
   83.68        2960.00           1347         211.00       915.46
   83.72        2960.25           1350         249.00      1081.12
   83.74        2960.50           1353         310.00      1347.05
   83.77        2960.75           1357         396.00      1721.98
   83.80        2961.00           1360         515.00      2240.79
   83.83        2961.25           1364        1100.00      4791.49
   83.86        2961.50           1367        3034.00     13227.04
   83.89        2961.75           1370        8386.00     36594.70
   83.92        2962.00           1374       22847.00     99909.14
   83.94        2962.25           1377       35147.00    153965.10
   83.98        2962.50           1380       47486.00    208381.40
   84.01        2962.75           1384       64727.00    284736.10
   84.03        2963.00           1387       77778.00    342784.90
   84.07        2963.25           1391       93789.00    414296.80
   84.09        2963.50           1394      105960.00    468878.90
   84.12        2963.75           1397      118653.00    526007.30
   84.16        2964.00           1401      134674.00    598416.50
   84.18        2964.25           1404      147730.00    657676.60
   84.22        2964.50           1408      164232.00    732904.30
   84.25        2964.75           1411      176064.00    787069.20
   84.27        2965.00           1414      188433.00    843896.60
   84.30        2965.25           1418      205981.00    924879.40
   84.33        2965.50           1421      218671.00    983709.40
   84.36        2965.75           1424      230279.00   1037721.00
   84.39        2966.00           1428      245243.00   1107630.00
   84.42        2966.25           1431      256828.00   1161972.00
   84.45        2966.50           1435      267570.00   1212533.00
   84.48        2966.75           1438      271132.00   1229335.00
   84.51        2967.00           1441      272217.00   1234457.00
   84.53        2967.25           1445      272372.00   1235189.00
   84.56        2967.50           1448      272124.00   1234018.00
   84.59        2967.75           1452      270244.00   1225145.00
   84.61        2968.00           1455      264568.00   1198386.00
   84.64        2968.25           1458      253575.00   1146694.00
   84.67        2968.50           1462      237644.00   1072089.00
   84.70        2968.75           1465      225387.00   1014936.00
   84.74        2969.00           1469      208627.00    937127.50
   84.76        2969.25           1472      196366.00    880454.10
   84.79        2969.50           1475      183853.00    822830.10
   84.82        2969.75           1479      167583.00    748225.30
   84.85        2970.00           1482      155773.00    694296.50
   84.88        2970.25           1485      144189.00    641581.80
   84.91        2970.50           1489      127809.00    567347.70
   84.94        2970.75           1492      115218.00    510526.40
   84.97        2971.00           1496       98190.00    434011.40
   85.00        2971.25           1499       84802.00    374116.50
   85.03        2971.50           1502       72704.00    320190.70
   85.05        2971.75           1506       56064.00    246323.70
   85.09        2972.00           1509       44050.00    193209.20
   85.12        2972.25           1513       27686.00    121153.20
   85.14        2972.50           1516       16819.00     73485.60
   85.18        2972.75           1519        7129.00     31103.31
   85.20        2973.00           1523        1445.00      6295.95
   85.23        2973.25           1526         668.00      2907.86
   85.26        2973.50           1530         464.00      2018.44
   85.29        2973.75           1533         395.00      1717.62
   85.32        2974.00           1536         307.00      1333.97
   85.35        2974.25           1540         247.00      1072.40
   85.38        2974.50           1543         206.00       893.66
   85.41        2974.75           1547         173.00       749.80
   85.44        2975.00           1550         156.00       675.69
   85.47        2975.25           1553         168.00       728.00
   85.50        2975.50           1557         139.00       601.58
   85.53        2975.75           1560         141.00       610.30
   85.55        2976.00           1564         174.00       754.16
   85.58        2976.25           1567         141.00       610.30
   85.61        2976.50           1570         141.00       610.30
   85.64        2976.75           1574         130.00       562.35
   85.67        2977.00           1577         142.00       614.66
   85.70        2977.25           1581         148.00       640.82
   85.73        2977.50           1584         137.00       592.86
   85.76        2977.75           1587         131.00       566.71
   85.79        2978.00           1591         124.00       536.19
   85.81        2978.25           1594         149.00       645.17
   85.85        2978.50           1598         172.00       745.44
   85.88        2978.75           1601         140.00       605.94
   85.90        2979.00           1604         141.00       610.30
   85.93        2979.25           1608         164.00       710.57
   85.96        2979.50           1611         144.00       623.38
   85.99        2979.75           1614         142.00       614.66
   86.02        2980.00           1618         147.00       636.46
   86.05        2980.25           1621         158.00       684.41
   86.08        2980.50           1625         158.00       684.41
   86.11        2980.75           1628         148.00       640.82
   86.14        2981.00           1631         123.00       531.83
   86.16        2981.25           1635         148.00       640.82
   86.19        2981.50           1638         157.00       680.05
   86.23        2981.75           1642         153.00       662.61
   86.25        2982.00           1645         143.00       619.02
   86.28        2982.25           1648         139.00       601.58
   86.31        2982.50           1652         131.00       566.71
   86.34        2982.75           1655         164.00       710.57
   86.37        2983.00           1659         136.00       588.50
   86.40        2983.25           1662         126.00       544.91
   86.43        2983.50           1666         167.00       723.64
   86.46        2983.75           1669         126.00       544.91
   86.49        2984.00           1672         129.00       557.99
HS scan finished at 01:26:51
end
************************************************************
  HS Scan of (1) Internal mercury lamp
************************************************************
Integration time is 0.2294 seconds per sample
dh090617El Arenosillo 37.1 6.73 3.07pr1000
************************************************************
Dead Time -------------------------  3.2E-08 
Number of Cycles Used -------------  4 
Starting Wavelength (Angstroms) ---  2950 
Final Wavelength (Angstoms) -------  2984 
Wavelength Increment (Angstroms) --  .25 
Filter Wheel #1 Position ---------- (1) Ground quartz diffuser (ND=2.32)
Filter Wheel #2 Position ---------- (1) Neutral Density 0.494



************************************************************
HS scan start time = 02:15:00
Dark Count =  .8 


Time (GMT)  Wavelength (Ang)  Step Number  Raw Counts  Counts/Second

  135.64        2950.00           1211         103.00       445.52
  135.85        2950.25           1215         106.00       458.59
  135.87        2950.50           1218         133.00       576.30
  135.91        2950.75           1222         113.00       489.11
  135.93        2951.00           1225         157.00       680.92
  135.96        2951.25           1228         107.00       462.95
  135.99        2951.50           1232         106.00       458.59
  136.02        2951.75           1235         108.00       467.31
  136.05        2952.00           1238         108.00       467.31
  136.08        2952.25           1242         139.00       602.45
  136.11        2952.50           1245         107.00       462.95
  136.14        2952.75           1249         121.00       523.98
  136.17        2953.00           1252         122.00       528.34
  136.20        2953.25           1255         103.00       445.52
  136.22        2953.50           1259         116.00       502.19
  136.26        2953.75           1262         109.00       471.67
  136.28        2954.00           1265         109.00       471.67
  136.31        2954.25           1269         145.00       628.61
  136.35        2954.50           1272         135.00       585.02
  136.37        2954.75           1276         103.00       445.52
  136.40        2955.00           1279         112.00       484.75
  136.43        2955.25           1282         110.00       476.03
  136.46        2955.50           1286         138.00       598.09
  136.49        2955.75           1289         102.00       441.16
  136.52        2956.00           1293         129.00       558.86
  136.55        2956.25           1296         124.00       537.06
  136.57        2956.50           1299         129.00       558.86
  136.61        2956.75           1303         125.00       541.42
  136.63        2957.00           1306         112.00       484.75
  136.66        2957.25           1309         123.00       532.70
  136.70        2957.50           1313         109.00       471.67
  136.72        2957.75           1316         133.00       576.30
  136.75        2958.00           1320         158.00       685.28
  136.79        2958.25           1323         129.00       558.86
  136.81        2958.50           1326         109.00       471.67
  136.84        2958.75           1330         127.00       550.14
  136.87        2959.00           1333         141.00       611.17
  136.90        2959.25           1336         164.00       711.44
  136.93        2959.50           1340         150.00       650.41
  136.96        2959.75           1343         188.00       816.06
  136.99        2960.00           1347         226.00       981.72
  137.01        2960.25           1350         309.00      1343.56
  137.05        2960.50           1353         356.00      1548.46
  137.08        2960.75           1357         445.00      1936.48
  137.10        2961.00           1360         631.00      2747.41
  137.14        2961.25           1364        1632.00      7112.34
  137.16        2961.50           1367        4435.00     19341.53
  137.19        2961.75           1370       11794.00     51493.68
  137.22        2962.00           1374       27356.00    119704.40
  137.25        2962.25           1377       40182.00    176147.90
  137.28        2962.50           1380       53530.00    235106.60
  137.31        2962.75           1384       69689.00    306781.70
  137.34        2963.00           1387       82521.00    363935.70
  137.36        2963.25           1391      100206.00    443051.50
  137.40        2963.50           1394      112649.00    498959.30
  137.43        2963.75           1397      125430.00    556596.60
  137.45        2964.00           1401      143041.00    636368.40
  137.49        2964.25           1404      157028.00    700019.20
  137.52        2964.50           1408      173584.00    775701.40
  137.54        2964.75           1411      186204.00    833641.30
  137.58        2965.00           1414      199286.00    893933.10
  137.61        2965.25           1418      216497.00    973615.90
  137.63        2965.50           1421      228401.00   1028971.00
  137.67        2965.75           1424      240336.00   1084671.00
  137.69        2966.00           1428      256902.00   1162321.00
  137.72        2966.25           1431      267290.00   1211214.00
  137.75        2966.50           1435      278405.00   1263702.00
  137.78        2966.75           1438      280909.00   1275551.00
  137.81        2967.00           1441      281639.00   1279007.00
  137.84        2967.25           1445      281669.00   1279149.00
  137.87        2967.50           1448      281244.00   1277137.00
  137.90        2967.75           1452      277125.00   1257648.00
  137.93        2968.00           1455      268214.00   1215570.00
  137.96        2968.25           1458      257180.00   1163627.00
  137.98        2968.50           1462      240428.00   1085101.00
  138.02        2968.75           1465      228191.00   1027993.00
  138.04        2969.00           1469      211222.00    949150.00
  138.07        2969.25           1472      198913.00    892210.80
  138.10        2969.50           1475      187046.00    837514.70
  138.13        2969.75           1479      170148.00    759963.90
  138.16        2970.00           1482      156558.00    697876.10
  138.19        2970.25           1485      144941.00    644999.40
  138.22        2970.50           1489      128134.00    568818.10
  138.25        2970.75           1492      114965.00    509387.70
  138.28        2971.00           1496       97824.00    432371.80
  138.31        2971.25           1499       85403.00    376801.20
  138.34        2971.50           1502       71666.00    315573.50
  138.37        2971.75           1506       54119.00    237713.40
  138.40        2972.00           1509       41545.00    182158.10
  138.42        2972.25           1513       25034.00    109507.70
  138.46        2972.50           1516       13316.00     58151.71
  138.49        2972.75           1519        4857.00     21183.49
  138.51        2973.00           1523        1061.00      4622.31
  138.55        2973.25           1526         549.00      2389.90
  138.57        2973.50           1530         419.00      1823.12
  138.60        2973.75           1533         364.00      1583.34
  138.63        2974.00           1536         282.00      1225.85
  138.66        2974.25           1540         223.00       968.64
  138.69        2974.50           1543         191.00       829.14
  138.72        2974.75           1547         172.00       746.31
  138.75        2975.00           1550         146.00       632.97
  138.77        2975.25           1553         135.00       585.02
  138.81        2975.50           1557         153.00       663.48
  138.83        2975.75           1560         147.00       637.33
  138.86        2976.00           1564         147.00       637.33
  138.90        2976.25           1567         141.00       611.17
  138.92        2976.50           1570         133.00       576.30
  138.95        2976.75           1574         129.00       558.86
  138.98        2977.00           1577         138.00       598.09
  139.01        2977.25           1581         146.00       632.97
  139.04        2977.50           1584         134.00       580.66
  139.07        2977.75           1587         133.00       576.30
  139.10        2978.00           1591         152.00       659.12
  139.12        2978.25           1594         140.00       606.81
  139.16        2978.50           1598         129.00       558.86
  139.18        2978.75           1601         147.00       637.33
  139.21        2979.00           1604         133.00       576.30
  139.24        2979.25           1608         123.00       532.70
  139.27        2979.50           1611         137.00       593.73
  139.30        2979.75           1614         125.00       541.42
  139.33        2980.00           1618         142.00       615.53
  139.36        2980.25           1621         158.00       685.28
  139.38        2980.50           1625         143.00       619.89
  139.42        2980.75           1628         150.00       650.41
  139.45        2981.00           1631         131.00       567.58
  139.47        2981.25           1635         150.00       650.41
  139.51        2981.50           1638         141.00       611.17
  139.53        2981.75           1642         158.00       685.28
  139.56        2982.00           1645         145.00       628.61
  139.59        2982.25           1648         137.00       593.73
