************************************************************
  HS Scan of (1) Internal mercury lamp
************************************************************
Integration time is 0.2294 seconds per sample
dh210718El Arenosillo 37.1 6.73 3.13pr1000
************************************************************
Dead Time -------------------------  3.2E-08 
Number of Cycles Used -------------  4 
Starting Wavelength (Angstroms) ---  2950 
Final Wavelength (Angstoms) -------  2984 
Wavelength Increment (Angstroms) --  .25 
Filter Wheel #1 Position ---------- (1) Ground quartz diffuser (ND=2.32)
Filter Wheel #2 Position ---------- (1) Neutral Density 0.494



************************************************************
HS scan start time = 01:31:50
Dark Count =  .9 


Time (GMT)  Wavelength (Ang)  Step Number  Raw Counts  Counts/Second

   92.45        2950.00           1211          50.00       214.04
   92.67        2950.25           1215          51.00       218.40
   92.69        2950.50           1218          47.00       200.96
   92.72        2950.75           1222          46.00       196.60
   92.76        2951.00           1225          47.00       200.96
   92.78        2951.25           1228          46.00       196.60
   92.81        2951.50           1232          49.00       209.68
   92.84        2951.75           1235          48.00       205.32
   92.87        2952.00           1238          49.00       209.68
   92.90        2952.25           1242          54.00       231.48
   92.92        2952.50           1245          54.00       231.48
   92.96        2952.75           1249          47.00       200.96
   92.98        2953.00           1252          57.00       244.55
   93.01        2953.25           1255          47.00       200.96
   93.04        2953.50           1259          48.00       205.32
   93.07        2953.75           1262          50.00       214.04
   93.10        2954.00           1265          49.00       209.68
   93.12        2954.25           1269          48.00       205.32
   93.16        2954.50           1272          53.00       227.12
   93.19        2954.75           1276          46.00       196.60
   93.21        2955.00           1279          48.00       205.32
   93.24        2955.25           1282          51.00       218.40
   93.27        2955.50           1286          50.00       214.04
   93.30        2955.75           1289          48.00       205.32
   93.33        2956.00           1293          50.00       214.04
   93.36        2956.25           1296          47.00       200.96
   93.39        2956.50           1299          49.00       209.68
   93.42        2956.75           1303          46.00       196.60
   93.45        2957.00           1306          51.00       218.40
   93.48        2957.25           1309          46.00       196.60
   93.50        2957.50           1313          53.00       227.12
   93.53        2957.75           1316          47.00       200.96
   93.57        2958.00           1320          45.00       192.24
   93.59        2958.25           1323          49.00       209.68
   93.62        2958.50           1326          51.00       218.40
   93.65        2958.75           1330          51.00       218.40
   93.68        2959.00           1333          57.00       244.55
   93.71        2959.25           1336          66.00       283.79
   93.73        2959.50           1340          78.00       336.10
   93.77        2959.75           1343          96.00       414.57
   93.80        2960.00           1347         126.00       545.35
   93.82        2960.25           1350         129.00       558.42
   93.85        2960.50           1353         177.00       767.67
   93.87        2960.75           1357         221.00       959.49
   93.90        2961.00           1360         265.00      1151.31
   93.93        2961.25           1364         861.00      3749.80
   93.96        2961.50           1367        2516.00     10967.67
   93.99        2961.75           1370        6038.00     26339.10
   94.02        2962.00           1374       14189.00     61971.51
   94.05        2962.25           1377       20605.00     90076.62
   94.08        2962.50           1380       27460.00    120160.80
   94.11        2962.75           1384       37084.00    162495.30
   94.13        2963.00           1387       43770.00    191973.90
   94.17        2963.25           1391       52870.00    232185.60
   94.19        2963.50           1394       60373.00    265418.70
   94.22        2963.75           1397       67884.00    298758.50
   94.25        2964.00           1401       77547.00    341756.00
   94.28        2964.25           1404       84837.00    374273.20
   94.31        2964.50           1408       94435.00    417189.40
   94.34        2964.75           1411      101909.00    450690.90
   94.37        2965.00           1414      109170.00    483307.00
   94.40        2965.25           1418      118105.00    523537.10
   94.43        2965.50           1421      125752.00    558051.00
   94.46        2965.75           1424      132784.00    589857.20
   94.49        2966.00           1428      141700.00    630279.10
   94.51        2966.25           1431      147083.00    654735.00
   94.54        2966.50           1435      152778.00    680650.50
   94.57        2966.75           1438      154253.00    687369.70
   94.59        2967.00           1441      154680.00    689315.30
   94.62        2967.25           1445      154505.00    688517.90
   94.66        2967.50           1448      154236.00    687292.10
   94.68        2967.75           1452      151333.00    674070.80
   94.71        2968.00           1455      146816.00    653521.00
   94.74        2968.25           1458      140877.00    626543.60
   94.77        2968.50           1462      132788.00    589875.30
   94.80        2968.75           1465      126129.00    559754.50
   94.82        2969.00           1469      116850.00    517880.10
   94.86        2969.25           1472      110054.00    487282.60
   94.89        2969.50           1475      103171.00    456354.80
   94.91        2969.75           1479       93104.00    411230.90
   94.95        2970.00           1482       86042.00    379654.70
   94.98        2970.25           1485       78087.00    344162.30
   95.00        2970.50           1489       68953.00    303509.40
   95.03        2970.75           1492       62380.00    274320.40
   95.07        2971.00           1496       52770.00    231743.20
   95.09        2971.25           1499       45918.00    201456.30
   95.12        2971.50           1502       39157.00    171629.20
   95.16        2971.75           1506       30005.00    131344.70
   95.18        2972.00           1509       22871.00    100014.90
   95.21        2972.25           1513       13672.00     59709.01
   95.24        2972.50           1516        7435.00     32440.38
   95.27        2972.75           1519        2767.00     12062.64
   95.30        2973.00           1523         514.00      2236.86
   95.32        2973.25           1526         251.00      1090.27
   95.36        2973.50           1530         180.00       780.75
   95.39        2973.75           1533         147.00       636.89
   95.41        2974.00           1536         120.00       519.19
   95.45        2974.25           1540          86.00       370.97
   95.47        2974.50           1543          75.00       323.02
   95.50        2974.75           1547          63.00       270.71
   95.53        2975.00           1550          67.00       288.15
   95.56        2975.25           1553          70.00       301.22
   95.59        2975.50           1557          66.00       283.79
   95.61        2975.75           1560          56.00       240.19
   95.65        2976.00           1564          62.00       266.35
   95.67        2976.25           1567          58.00       248.91
   95.70        2976.50           1570          65.00       279.43
   95.73        2976.75           1574          59.00       253.27
   95.76        2977.00           1577          56.00       240.19
   95.79        2977.25           1581          57.00       244.55
   95.81        2977.50           1584          63.00       270.71
   95.85        2977.75           1587          61.00       261.99
   95.88        2978.00           1591          59.00       253.27
   95.90        2978.25           1594          61.00       261.99
   95.93        2978.50           1598          65.00       279.43
   95.96        2978.75           1601          64.00       275.07
   95.99        2979.00           1604          61.00       261.99
   96.02        2979.25           1608          56.00       240.19
   96.05        2979.50           1611          54.00       231.48
   96.08        2979.75           1614          64.00       275.07
   96.10        2980.00           1618          53.00       227.12
   96.14        2980.25           1621          57.00       244.55
   96.17        2980.50           1625          50.00       214.04
   96.19        2980.75           1628          54.00       231.48
   96.22        2981.00           1631          62.00       266.35
   96.25        2981.25           1635          53.00       227.12
   96.28        2981.50           1638          61.00       261.99
   96.31        2981.75           1642          44.00       187.88
   96.34        2982.00           1645          52.00       222.76
   96.37        2982.25           1648          53.00       227.12
   96.40        2982.50           1652          55.00       235.83
   96.42        2982.75           1655          55.00       235.83
   96.46        2983.00           1659          61.00       261.99
   96.48        2983.25           1662          52.00       222.76
   96.51        2983.50           1666          52.00       222.76
   96.54        2983.75           1669          54.00       231.48
   96.57        2984.00           1672          56.00       240.19
HS scan finished at 01:36:56
end
