************************************************************
  HS Scan of (1) Internal mercury lamp
************************************************************
Integration time is 0.2294 seconds per sample
dh280718El Arenosillo 37.1 6.73 3.09pr1000
************************************************************
Dead Time -------------------------  3.2E-08 
Number of Cycles Used -------------  4 
Starting Wavelength (Angstroms) ---  2950 
Final Wavelength (Angstoms) -------  2984 
Wavelength Increment (Angstroms) --  .25 
Filter Wheel #1 Position ---------- (1) Ground quartz diffuser (ND=2.32)
Filter Wheel #2 Position ---------- (1) Neutral Density 0.494



************************************************************
HS scan start time = 01:31:53
Dark Count =  .9 


Time (GMT)  Wavelength (Ang)  Step Number  Raw Counts  Counts/Second

   92.51        2950.00           1211          51.00       218.40
   92.73        2950.25           1215          45.00       192.24
   92.75        2950.50           1218          49.00       209.68
   92.78        2950.75           1222          47.00       200.96
   92.81        2951.00           1225          50.00       214.04
   92.84        2951.25           1228          47.00       200.96
   92.87        2951.50           1232          52.00       222.76
   92.89        2951.75           1235          46.00       196.60
   92.93        2952.00           1238          43.00       183.52
   92.96        2952.25           1242          54.00       231.48
   92.98        2952.50           1245          47.00       200.96
   93.02        2952.75           1249          51.00       218.40
   93.04        2953.00           1252          47.00       200.96
   93.07        2953.25           1255          53.00       227.12
   93.09        2953.50           1259          53.00       227.12
   93.13        2953.75           1262          46.00       196.60
   93.16        2954.00           1265          55.00       235.83
   93.18        2954.25           1269          50.00       214.04
   93.22        2954.50           1272          50.00       214.04
   93.25        2954.75           1276          44.00       187.88
   93.27        2955.00           1279          53.00       227.12
   93.30        2955.25           1282          38.00       161.73
   93.33        2955.50           1286          44.00       187.88
   93.36        2955.75           1289          47.00       200.96
   93.39        2956.00           1293          53.00       227.12
   93.42        2956.25           1296          52.00       222.76
   93.45        2956.50           1299          47.00       200.96
   93.47        2956.75           1303          44.00       187.88
   93.50        2957.00           1306          45.00       192.24
   93.54        2957.25           1309          48.00       205.32
   93.56        2957.50           1313          50.00       214.04
   93.59        2957.75           1316          51.00       218.40
   93.62        2958.00           1320          50.00       214.04
   93.65        2958.25           1323          48.00       205.32
   93.68        2958.50           1326          51.00       218.40
   93.70        2958.75           1330          56.00       240.19
   93.74        2959.00           1333          59.00       253.27
   93.76        2959.25           1336          62.00       266.35
   93.79        2959.50           1340          82.00       353.53
   93.82        2959.75           1343         101.00       436.36
   93.85        2960.00           1347         159.00       689.20
   93.88        2960.25           1350         159.00       689.20
   93.90        2960.50           1353         165.00       715.36
   93.94        2960.75           1357         230.00       998.72
   93.96        2961.00           1360         307.00      1334.41
   93.99        2961.25           1364        1199.00      5223.63
   94.03        2961.50           1367        3177.00     13851.39
   94.05        2961.75           1370        7513.00     32781.10
   94.08        2962.00           1374       16170.00     70643.82
   94.11        2962.25           1377       22836.00     99861.32
   94.14        2962.50           1380       29862.00    130716.10
   94.17        2962.75           1384       39130.00    171510.20
   94.19        2963.00           1387       45868.00    201235.50
   94.23        2963.25           1391       54209.00    238111.30
   94.26        2963.50           1394       61186.00    269024.00
   94.28        2963.75           1397       68228.00    300287.10
   94.31        2964.00           1401       77727.00    342558.10
   94.35        2964.25           1404       84694.00    373634.70
   94.38        2964.50           1408       94840.00    419003.00
   94.40        2964.75           1411      102003.00    451112.70
   94.44        2965.00           1414      109449.00    484561.60
   94.47        2965.25           1418      119431.00    529516.30
   94.49        2965.50           1421      126117.00    559700.30
   94.52        2965.75           1424      133188.00    591686.50
   94.55        2966.00           1428      141803.00    630746.80
   94.58        2966.25           1431      147095.00    654789.60
   94.61        2966.50           1435      152154.00    677808.70
   94.64        2966.75           1438      152758.00    680559.40
   94.67        2967.00           1441      152518.00    679466.30
   94.69        2967.25           1445      153454.00    683729.60
   94.72        2967.50           1448      152252.00    678255.10
   94.75        2967.75           1452      149203.00    664377.10
   94.78        2968.00           1455      144592.00    643413.10
   94.81        2968.25           1458      138044.00    613691.40
   94.84        2968.50           1462      129061.00    573009.70
   94.87        2968.75           1465      122898.00    545160.80
   94.89        2969.00           1469      113553.00    503028.50
   94.92        2969.25           1472      107140.00    474181.40
   94.96        2969.50           1475       99871.00    441548.60
   94.98        2969.75           1479       91430.00    403740.20
   95.01        2970.00           1482       85273.00    376220.10
   95.04        2970.25           1485       79219.00    349208.00
   95.07        2970.50           1489       69669.00    306692.30
   95.10        2970.75           1492       62804.00    276201.60
   95.13        2971.00           1496       53728.00    235982.40
   95.16        2971.25           1499       46305.00    203165.30
   95.19        2971.50           1502       38521.00    168826.40
   95.22        2971.75           1506       28991.00    126887.80
   95.25        2972.00           1509       22122.00     96729.19
   95.28        2972.25           1513       13287.00     58024.38
   95.30        2972.50           1516        7138.00     31143.06
   95.33        2972.75           1519        2811.00     12254.59
   95.36        2973.00           1523         537.00      2337.14
   95.39        2973.25           1526         272.00      1181.82
   95.42        2973.50           1530         176.00       763.31
   95.45        2973.75           1533         156.00       676.13
   95.48        2974.00           1536         106.00       458.16
   95.50        2974.25           1540          92.00       397.13
   95.53        2974.50           1543          81.00       349.18
   95.56        2974.75           1547          74.00       318.66
   95.59        2975.00           1550          61.00       261.99
   95.62        2975.25           1553          67.00       288.15
   95.65        2975.50           1557          65.00       279.43
   95.68        2975.75           1560          58.00       248.91
   95.70        2976.00           1564          57.00       244.55
   95.73        2976.25           1567          61.00       261.99
   95.77        2976.50           1570          60.00       257.63
   95.79        2976.75           1574          52.00       222.76
   95.82        2977.00           1577          57.00       244.55
   95.85        2977.25           1581          56.00       240.19
   95.88        2977.50           1584          66.00       283.79
   95.91        2977.75           1587          69.00       296.86
   95.93        2978.00           1591          62.00       266.35
   95.97        2978.25           1594          58.00       248.91
   95.99        2978.50           1598          67.00       288.15
   96.02        2978.75           1601          57.00       244.55
   96.05        2979.00           1604          56.00       240.19
   96.08        2979.25           1608          59.00       253.27
   96.11        2979.50           1611          58.00       248.91
   96.13        2979.75           1614          58.00       248.91
   96.17        2980.00           1618          62.00       266.35
   96.19        2980.25           1621          61.00       261.99
   96.22        2980.50           1625          52.00       222.76
   96.25        2980.75           1628          59.00       253.27
   96.28        2981.00           1631          57.00       244.55
   96.31        2981.25           1635          64.00       275.07
   96.33        2981.50           1638          63.00       270.71
   96.37        2981.75           1642          60.00       257.63
   96.40        2982.00           1645          56.00       240.19
   96.42        2982.25           1648          55.00       235.83
   96.45        2982.50           1652          52.00       222.76
   96.47        2982.75           1655          59.00       253.27
   96.50        2983.00           1659          58.00       248.91
   96.53        2983.25           1662          56.00       240.19
   96.56        2983.50           1666          50.00       214.04
   96.59        2983.75           1669          54.00       231.48
   96.61        2984.00           1672          54.00       231.48
HS scan finished at 01:36:59
end
